Channel              :		CH1
Frequency            :		1.061kHz
Period               :		0.943ms
PK-PK                :		68.36mV
Probe attenuation    :		1X
Voltage per ADC value:		0.122070mV
Time interval        :		2.00000us

index		CH1_Voltage(mV)
1		5.859375
2		5.859375
3		-1.953125
4		1.953125
5		-1.953125
6		1.953125
7		-1.953125
8		0.000000
9		-3.906250
10		0.000000
11		-3.906250
12		0.000000
13		-5.859375
14		-1.953125
15		-5.859375
16		-1.953125
17		-5.859375
18		-1.953125
19		-7.812500
20		-3.906250
21		-7.812500
22		-5.859375
23		-7.812500
24		-3.906250
25		-9.765625
26		-5.859375
27		-9.765625
28		-5.859375
29		-11.718750
30		-7.812500
31		-11.718750
32		-7.812500
33		-11.718750
34		-7.812500
35		-13.671875
36		-9.765625
37		-13.671875
38		-9.765625
39		-15.625000
40		-11.718750
41		-15.625000
42		-11.718750
43		-15.625000
44		-11.718750
45		-17.578125
46		-11.718750
47		-17.578125
48		-13.671875
49		-17.578125
50		-13.671875
51		-17.578125
52		-13.671875
53		-19.531250
54		-15.625000
55		-19.531250
56		-15.625000
57		-19.531250
58		-15.625000
59		-21.484375
60		-17.578125
61		-21.484375
62		-17.578125
63		-21.484375
64		-17.578125
65		-23.437500
66		-19.531250
67		-23.437500
68		-19.531250
69		-23.437500
70		-19.531250
71		-23.437500
72		-19.531250
73		-25.390625
74		-19.531250
75		-23.437500
76		-21.484375
77		-25.390625
78		-21.484375
79		-25.390625
80		-21.484375
81		-25.390625
82		-21.484375
83		-25.390625
84		-23.437500
85		-27.343750
86		-23.437500
87		-27.343750
88		-23.437500
89		-27.343750
90		-23.437500
91		-27.343750
92		-23.437500
93		-27.343750
94		-25.390625
95		-27.343750
96		-25.390625
97		-27.343750
98		-23.437500
99		-27.343750
100		-25.390625
101		-27.343750
102		-25.390625
103		-29.296875
104		-23.437500
105		-27.343750
106		-25.390625
107		-29.296875
108		-25.390625
109		-29.296875
110		-25.390625
111		-27.343750
112		-25.390625
113		-29.296875
114		-25.390625
115		-29.296875
116		-25.390625
117		-29.296875
118		-25.390625
119		-27.343750
120		-25.390625
121		-29.296875
122		-25.390625
123		-29.296875
124		-25.390625
125		-29.296875
126		-25.390625
127		-29.296875
128		-23.437500
129		-27.343750
130		-25.390625
131		-27.343750
132		-23.437500
133		-27.343750
134		-23.437500
135		-27.343750
136		-23.437500
137		-27.343750
138		-23.437500
139		-27.343750
140		-23.437500
141		-27.343750
142		-23.437500
143		-25.390625
144		-23.437500
145		-25.390625
146		-21.484375
147		-25.390625
148		-21.484375
149		-25.390625
150		-21.484375
151		-25.390625
152		-21.484375
153		-25.390625
154		-19.531250
155		-23.437500
156		-21.484375
157		-23.437500
158		-19.531250
159		-23.437500
160		-19.531250
161		-21.484375
162		-19.531250
163		-21.484375
164		-19.531250
165		-21.484375
166		-17.578125
167		-21.484375
168		-17.578125
169		-19.531250
170		-17.578125
171		-19.531250
172		-15.625000
173		-19.531250
174		-15.625000
175		-19.531250
176		-13.671875
177		-19.531250
178		-13.671875
179		-17.578125
180		-13.671875
181		-17.578125
182		-13.671875
183		-15.625000
184		-11.718750
185		-15.625000
186		-11.718750
187		-13.671875
188		-11.718750
189		-13.671875
190		-11.718750
191		-13.671875
192		-9.765625
193		-11.718750
194		-7.812500
195		-11.718750
196		-7.812500
197		-11.718750
198		-7.812500
199		-11.718750
200		-7.812500
201		-9.765625
202		-5.859375
203		-7.812500
204		-5.859375
205		-7.812500
206		-3.906250
207		-7.812500
208		-1.953125
209		-7.812500
210		-1.953125
211		-5.859375
212		-1.953125
213		-5.859375
214		0.000000
215		-3.906250
216		0.000000
217		-3.906250
218		0.000000
219		-3.906250
220		1.953125
221		-1.953125
222		1.953125
223		-1.953125
224		1.953125
225		0.000000
226		3.906250
227		0.000000
228		3.906250
229		1.953125
230		3.906250
231		1.953125
232		5.859375
233		1.953125
234		5.859375
235		3.906250
236		7.812500
237		3.906250
238		7.812500
239		5.859375
240		7.812500
241		5.859375
242		9.765625
243		5.859375
244		9.765625
245		7.812500
246		9.765625
247		7.812500
248		11.718750
249		7.812500
250		11.718750
251		9.765625
252		13.671875
253		9.765625
254		13.671875
255		11.718750
256		13.671875
257		11.718750
258		15.625000
259		11.718750
260		15.625000
261		13.671875
262		17.578125
263		13.671875
264		17.578125
265		13.671875
266		17.578125
267		15.625000
268		19.531250
269		15.625000
270		19.531250
271		15.625000
272		19.531250
273		17.578125
274		21.484375
275		17.578125
276		21.484375
277		17.578125
278		21.484375
279		17.578125
280		21.484375
281		19.531250
282		23.437500
283		19.531250
284		23.437500
285		19.531250
286		23.437500
287		19.531250
288		25.390625
289		21.484375
290		25.390625
291		21.484375
292		25.390625
293		21.484375
294		25.390625
295		23.437500
296		27.343750
297		23.437500
298		27.343750
299		23.437500
300		27.343750
301		25.390625
302		27.343750
303		25.390625
304		29.296875
305		25.390625
306		29.296875
307		25.390625
308		29.296875
309		25.390625
310		29.296875
311		25.390625
312		29.296875
313		27.343750
314		29.296875
315		27.343750
316		31.250000
317		27.343750
318		31.250000
319		27.343750
320		31.250000
321		27.343750
322		31.250000
323		27.343750
324		31.250000
325		29.296875
326		31.250000
327		29.296875
328		31.250000
329		29.296875
330		31.250000
331		29.296875
332		33.203125
333		29.296875
334		33.203125
335		29.296875
336		33.203125
337		29.296875
338		33.203125
339		29.296875
340		33.203125
341		29.296875
342		33.203125
343		29.296875
344		33.203125
345		29.296875
346		33.203125
347		29.296875
348		33.203125
349		29.296875
350		33.203125
351		29.296875
352		33.203125
353		29.296875
354		33.203125
355		29.296875
356		33.203125
357		29.296875
358		33.203125
359		29.296875
360		33.203125
361		29.296875
362		33.203125
363		29.296875
364		33.203125
365		29.296875
366		33.203125
367		29.296875
368		33.203125
369		27.343750
370		33.203125
371		29.296875
372		33.203125
373		29.296875
374		31.250000
375		27.343750
376		31.250000
377		27.343750
378		31.250000
379		27.343750
380		31.250000
381		27.343750
382		31.250000
383		27.343750
384		31.250000
385		27.343750
386		29.296875
387		25.390625
388		29.296875
389		25.390625
390		29.296875
391		25.390625
392		29.296875
393		25.390625
394		29.296875
395		25.390625
396		29.296875
397		25.390625
398		27.343750
399		23.437500
400		27.343750
401		23.437500
402		27.343750
403		21.484375
404		27.343750
405		23.437500
406		27.343750
407		21.484375
408		25.390625
409		21.484375
410		25.390625
411		21.484375
412		25.390625
413		19.531250
414		23.437500
415		19.531250
416		23.437500
417		19.531250
418		23.437500
419		19.531250
420		21.484375
421		17.578125
422		21.484375
423		17.578125
424		21.484375
425		17.578125
426		21.484375
427		15.625000
428		21.484375
429		15.625000
430		19.531250
431		15.625000
432		17.578125
433		13.671875
434		17.578125
435		13.671875
436		17.578125
437		13.671875
438		17.578125
439		13.671875
440		15.625000
441		11.718750
442		15.625000
443		11.718750
444		15.625000
445		9.765625
446		13.671875
447		9.765625
448		13.671875
449		9.765625
450		11.718750
451		7.812500
452		11.718750
453		7.812500
454		11.718750
455		5.859375
456		9.765625
457		5.859375
458		9.765625
459		3.906250
460		7.812500
461		3.906250
462		7.812500
463		3.906250
464		7.812500
465		1.953125
466		5.859375
467		1.953125
468		5.859375
469		1.953125
470		5.859375
471		0.000000
472		3.906250
473		0.000000
474		3.906250
475		0.000000
476		1.953125
477		-1.953125
478		1.953125
479		-1.953125
480		1.953125
481		-3.906250
482		0.000000
483		-3.906250
484		0.000000
485		-5.859375
486		-1.953125
487		-5.859375
488		-1.953125
489		-5.859375
490		-1.953125
491		-7.812500
492		-3.906250
493		-7.812500
494		-3.906250
495		-7.812500
496		-5.859375
497		-9.765625
498		-5.859375
499		-9.765625
500		-5.859375
501		-11.718750
502		-7.812500
503		-11.718750
504		-7.812500
505		-13.671875
506		-7.812500
507		-13.671875
508		-9.765625
509		-13.671875
510		-9.765625
511		-13.671875
512		-9.765625
513		-15.625000
514		-11.718750
515		-15.625000
516		-11.718750
517		-15.625000
518		-13.671875
519		-17.578125
520		-13.671875
521		-17.578125
522		-13.671875
523		-17.578125
524		-13.671875
525		-17.578125
526		-15.625000
527		-19.531250
528		-15.625000
529		-19.531250
530		-15.625000
531		-19.531250
532		-17.578125
533		-21.484375
534		-17.578125
535		-21.484375
536		-17.578125
537		-21.484375
538		-19.531250
539		-23.437500
540		-19.531250
541		-23.437500
542		-19.531250
543		-23.437500
544		-19.531250
545		-25.390625
546		-19.531250
547		-25.390625
548		-21.484375
549		-25.390625
550		-21.484375
551		-25.390625
552		-21.484375
553		-25.390625
554		-21.484375
555		-25.390625
556		-21.484375
557		-25.390625
558		-23.437500
559		-25.390625
560		-23.437500
561		-27.343750
562		-23.437500
563		-27.343750
564		-23.437500
565		-27.343750
566		-23.437500
567		-27.343750
568		-23.437500
569		-27.343750
570		-23.437500
571		-27.343750
572		-23.437500
573		-27.343750
574		-25.390625
575		-27.343750
576		-25.390625
577		-27.343750
578		-23.437500
579		-27.343750
580		-23.437500
581		-27.343750
582		-25.390625
583		-27.343750
584		-25.390625
585		-27.343750
586		-25.390625
587		-29.296875
588		-25.390625
589		-29.296875
590		-23.437500
591		-27.343750
592		-25.390625
593		-27.343750
594		-25.390625
595		-27.343750
596		-25.390625
597		-27.343750
598		-25.390625
599		-27.343750
600		-23.437500
601		-27.343750
602		-23.437500
603		-27.343750
604		-23.437500
605		-27.343750
606		-23.437500
607		-27.343750
608		-23.437500
609		-27.343750
610		-23.437500
611		-27.343750
612		-21.484375
613		-25.390625
614		-21.484375
615		-25.390625
616		-21.484375
617		-25.390625
618		-21.484375
619		-25.390625
620		-21.484375
621		-23.437500
622		-21.484375
623		-23.437500
624		-21.484375
625		-23.437500
626		-19.531250
627		-23.437500
628		-19.531250
629		-23.437500
630		-19.531250
631		-23.437500
632		-19.531250
633		-21.484375
634		-17.578125
635		-21.484375
636		-17.578125
637		-21.484375
638		-17.578125
639		-21.484375
640		-15.625000
641		-19.531250
642		-15.625000
643		-19.531250
644		-15.625000
645		-17.578125
646		-15.625000
647		-17.578125
648		-13.671875
649		-17.578125
650		-13.671875
651		-17.578125
652		-13.671875
653		-15.625000
654		-11.718750
655		-15.625000
656		-11.718750
657		-15.625000
658		-11.718750
659		-13.671875
660		-9.765625
661		-13.671875
662		-9.765625
663		-11.718750
664		-7.812500
665		-11.718750
666		-7.812500
667		-11.718750
668		-7.812500
669		-9.765625
670		-7.812500
671		-9.765625
672		-5.859375
673		-9.765625
674		-3.906250
675		-7.812500
676		-3.906250
677		-7.812500
678		-3.906250
679		-7.812500
680		-3.906250
681		-5.859375
682		-1.953125
683		-5.859375
684		-1.953125
685		-3.906250
686		0.000000
687		-3.906250
688		0.000000
689		-3.906250
690		1.953125
691		-1.953125
692		1.953125
693		-1.953125
694		1.953125
695		0.000000
696		3.906250
697		0.000000
698		3.906250
699		0.000000
700		5.859375
701		1.953125
702		5.859375
703		1.953125
704		5.859375
705		3.906250
706		5.859375
707		3.906250
708		7.812500
709		5.859375
710		7.812500
711		5.859375
712		7.812500
713		5.859375
714		9.765625
715		5.859375
716		9.765625
717		7.812500
718		11.718750
719		7.812500
720		11.718750
721		9.765625
722		13.671875
723		9.765625
724		13.671875
725		9.765625
726		13.671875
727		11.718750
728		15.625000
729		11.718750
730		15.625000
731		13.671875
732		15.625000
733		13.671875
734		17.578125
735		13.671875
736		17.578125
737		15.625000
738		17.578125
739		15.625000
740		19.531250
741		15.625000
742		19.531250
743		17.578125
744		19.531250
745		17.578125
746		21.484375
747		17.578125
748		21.484375
749		19.531250
750		21.484375
751		17.578125
752		23.437500
753		19.531250
754		23.437500
755		19.531250
756		23.437500
757		21.484375
758		25.390625
759		21.484375
760		25.390625
761		21.484375
762		25.390625
763		21.484375
764		25.390625
765		23.437500
766		27.343750
767		23.437500
768		27.343750
769		23.437500
770		27.343750
771		23.437500
772		27.343750
773		25.390625
774		29.296875
775		25.390625
776		29.296875
777		25.390625
778		29.296875
779		25.390625
780		29.296875
781		27.343750
782		29.296875
783		25.390625
784		31.250000
785		27.343750
786		31.250000
787		27.343750
788		31.250000
789		27.343750
790		31.250000
791		27.343750
792		31.250000
793		29.296875
794		31.250000
795		29.296875
796		31.250000
797		29.296875
798		31.250000
799		29.296875
800		33.203125
801		29.296875
802		33.203125
803		29.296875
804		33.203125
805		29.296875
806		33.203125
807		29.296875
808		33.203125
809		29.296875
810		33.203125
811		29.296875
812		33.203125
813		29.296875
814		33.203125
815		29.296875
816		33.203125
817		29.296875
818		33.203125
819		29.296875
820		33.203125
821		29.296875
822		33.203125
823		29.296875
824		33.203125
825		29.296875
826		33.203125
827		31.250000
828		33.203125
829		29.296875
830		33.203125
831		29.296875
832		33.203125
833		29.296875
834		33.203125
835		29.296875
836		33.203125
837		29.296875
838		33.203125
839		29.296875
840		33.203125
841		29.296875
842		33.203125
843		29.296875
844		33.203125
845		29.296875
846		31.250000
847		29.296875
848		33.203125
849		27.343750
850		31.250000
851		27.343750
852		31.250000
853		27.343750
854		31.250000
855		27.343750
856		31.250000
857		27.343750
858		31.250000
859		27.343750
860		29.296875
861		25.390625
862		29.296875
863		25.390625
864		29.296875
865		25.390625
866		29.296875
867		25.390625
868		29.296875
869		25.390625
870		27.343750
871		23.437500
872		27.343750
873		23.437500
874		27.343750
875		23.437500
876		27.343750
877		23.437500
878		25.390625
879		23.437500
880		25.390625
881		21.484375
882		25.390625
883		21.484375
884		25.390625
885		21.484375
886		23.437500
887		19.531250
888		25.390625
889		19.531250
890		23.437500
891		19.531250
892		23.437500
893		17.578125
894		21.484375
895		17.578125
896		21.484375
897		17.578125
898		21.484375
899		17.578125
900		19.531250
901		15.625000
902		19.531250
903		15.625000
904		19.531250
905		13.671875
906		17.578125
907		13.671875
908		17.578125
909		13.671875
910		17.578125
911		11.718750
912		15.625000
913		11.718750
914		15.625000
915		11.718750
916		15.625000
917		9.765625
918		13.671875
919		9.765625
920		13.671875
921		9.765625
922		11.718750
923		7.812500
924		11.718750
925		5.859375
926		11.718750
927		5.859375
928		9.765625
929		5.859375
930		9.765625
931		5.859375
932		9.765625
933		3.906250
934		7.812500
935		3.906250
936		7.812500
937		3.906250
938		5.859375
939		1.953125
940		5.859375
941		1.953125
942		3.906250
943		0.000000
944		3.906250
945		0.000000
946		3.906250
947		0.000000
948		1.953125
949		-1.953125
950		1.953125
951		-1.953125
952		1.953125
953		-1.953125
954		0.000000
955		-3.906250
956		0.000000
957		-3.906250
958		0.000000
959		-5.859375
960		-1.953125
961		-5.859375
962		-1.953125
963		-7.812500
964		-3.906250
965		-7.812500
966		-3.906250
967		-9.765625
968		-5.859375
969		-9.765625
970		-5.859375
971		-9.765625
972		-5.859375
973		-11.718750
974		-7.812500
975		-11.718750
976		-7.812500
977		-13.671875
978		-9.765625
979		-13.671875
980		-9.765625
981		-13.671875
982		-9.765625
983		-13.671875
984		-11.718750
985		-15.625000
986		-11.718750
987		-15.625000
988		-11.718750
989		-15.625000
990		-13.671875
991		-17.578125
992		-13.671875
993		-17.578125
994		-13.671875
995		-17.578125
996		-15.625000
997		-19.531250
998		-15.625000
999		-19.531250
1000		-15.625000
1001		-19.531250
1002		-17.578125
1003		-19.531250
1004		-17.578125
1005		-21.484375
1006		-17.578125
1007		-21.484375
1008		-17.578125
1009		-23.437500
1010		-17.578125
1011		-21.484375
1012		-19.531250
1013		-23.437500
1014		-19.531250
1015		-23.437500
1016		-19.531250
1017		-23.437500
1018		-21.484375
1019		-23.437500
1020		-21.484375
1021		-25.390625
1022		-21.484375
1023		-25.390625
1024		-21.484375
1025		-27.343750
1026		-21.484375
1027		-25.390625
1028		-21.484375
1029		-25.390625
1030		-23.437500
1031		-27.343750
1032		-21.484375
1033		-27.343750
1034		-23.437500
1035		-27.343750
1036		-23.437500
1037		-27.343750
1038		-23.437500
1039		-27.343750
1040		-23.437500
1041		-27.343750
1042		-23.437500
1043		-27.343750
1044		-23.437500
1045		-27.343750
1046		-25.390625
1047		-27.343750
1048		-25.390625
1049		-29.296875
1050		-23.437500
1051		-27.343750
1052		-25.390625
1053		-27.343750
1054		-25.390625
1055		-29.296875
1056		-23.437500
1057		-27.343750
1058		-25.390625
1059		-29.296875
1060		-23.437500
1061		-27.343750
1062		-23.437500
1063		-27.343750
1064		-23.437500
1065		-27.343750
1066		-23.437500
1067		-27.343750
1068		-23.437500
1069		-27.343750
1070		-25.390625
1071		-27.343750
1072		-23.437500
1073		-27.343750
1074		-23.437500
1075		-27.343750
1076		-23.437500
1077		-27.343750
1078		-23.437500
1079		-27.343750
1080		-23.437500
1081		-27.343750
1082		-23.437500
1083		-25.390625
1084		-23.437500
1085		-25.390625
1086		-21.484375
1087		-25.390625
1088		-21.484375
1089		-25.390625
1090		-21.484375
1091		-25.390625
1092		-21.484375
1093		-25.390625
1094		-19.531250
1095		-23.437500
1096		-21.484375
1097		-23.437500
1098		-19.531250
1099		-23.437500
1100		-19.531250
1101		-23.437500
1102		-17.578125
1103		-21.484375
1104		-19.531250
1105		-21.484375
1106		-17.578125
1107		-21.484375
1108		-17.578125
1109		-21.484375
1110		-17.578125
1111		-21.484375
1112		-15.625000
1113		-19.531250
1114		-15.625000
1115		-19.531250
1116		-13.671875
1117		-17.578125
1118		-15.625000
1119		-17.578125
1120		-13.671875
1121		-17.578125
1122		-13.671875
1123		-17.578125
1124		-13.671875
1125		-15.625000
1126		-11.718750
1127		-15.625000
1128		-11.718750
1129		-13.671875
1130		-11.718750
1131		-13.671875
1132		-9.765625
1133		-13.671875
1134		-9.765625
1135		-11.718750
1136		-9.765625
1137		-11.718750
1138		-7.812500
1139		-11.718750
1140		-7.812500
1141		-9.765625
1142		-5.859375
1143		-9.765625
1144		-5.859375
1145		-9.765625
1146		-5.859375
1147		-7.812500
1148		-3.906250
1149		-7.812500
1150		-3.906250
1151		-5.859375
1152		-3.906250
1153		-5.859375
1154		-1.953125
1155		-5.859375
1156		0.000000
1157		-3.906250
1158		0.000000
1159		-3.906250
1160		0.000000
1161		-1.953125
1162		0.000000
1163		-1.953125
1164		1.953125
1165		-1.953125
1166		1.953125
1167		-1.953125
1168		3.906250
1169		0.000000
1170		3.906250
1171		1.953125
1172		3.906250
1173		1.953125
1174		5.859375
1175		1.953125
1176		5.859375
1177		3.906250
1178		5.859375
1179		3.906250
1180		7.812500
1181		5.859375
1182		7.812500
1183		5.859375
1184		9.765625
1185		5.859375
1186		9.765625
1187		7.812500
1188		9.765625
1189		7.812500
1190		11.718750
1191		7.812500
1192		13.671875
1193		9.765625
1194		13.671875
1195		9.765625
1196		13.671875
1197		9.765625
1198		13.671875
1199		11.718750
1200		15.625000
1201		11.718750
1202		15.625000
1203		13.671875
1204		17.578125
1205		13.671875
1206		17.578125
1207		13.671875
1208		19.531250
1209		15.625000
1210		19.531250
1211		15.625000
1212		19.531250
1213		17.578125
1214		19.531250
1215		17.578125
1216		21.484375
1217		17.578125
1218		21.484375
1219		17.578125
1220		21.484375
1221		19.531250
1222		21.484375
1223		19.531250
1224		23.437500
1225		19.531250
1226		23.437500
1227		21.484375
1228		23.437500
1229		21.484375
1230		25.390625
1231		21.484375
1232		25.390625
1233		21.484375
1234		25.390625
1235		21.484375
1236		27.343750
1237		23.437500
1238		27.343750
1239		23.437500
1240		27.343750
1241		23.437500
1242		27.343750
1243		25.390625
1244		29.296875
1245		25.390625
1246		29.296875
1247		25.390625
1248		29.296875
1249		25.390625
1250		29.296875
1251		25.390625
1252		29.296875
1253		27.343750
1254		29.296875
1255		27.343750
1256		31.250000
1257		27.343750
1258		31.250000
1259		27.343750
1260		31.250000
1261		27.343750
1262		31.250000
1263		27.343750
1264		31.250000
1265		29.296875
1266		31.250000
1267		27.343750
1268		33.203125
1269		27.343750
1270		31.250000
1271		29.296875
1272		33.203125
1273		29.296875
1274		33.203125
1275		29.296875
1276		33.203125
1277		29.296875
1278		33.203125
1279		29.296875
1280		33.203125
1281		29.296875
1282		33.203125
1283		29.296875
1284		33.203125
1285		29.296875
1286		33.203125
1287		29.296875
1288		33.203125
1289		29.296875
1290		33.203125
1291		29.296875
1292		33.203125
1293		29.296875
1294		33.203125
1295		29.296875
1296		33.203125
1297		29.296875
1298		33.203125
1299		31.250000
1300		33.203125
1301		29.296875
1302		33.203125
1303		29.296875
1304		33.203125
1305		29.296875
1306		33.203125
1307		29.296875
1308		33.203125
1309		29.296875
1310		33.203125
1311		29.296875
1312		33.203125
1313		29.296875
1314		33.203125
1315		29.296875
1316		31.250000
1317		27.343750
1318		33.203125
1319		27.343750
1320		31.250000
1321		27.343750
1322		31.250000
1323		27.343750
1324		31.250000
1325		27.343750
1326		31.250000
1327		27.343750
1328		31.250000
1329		25.390625
1330		29.296875
1331		25.390625
1332		29.296875
1333		25.390625
1334		29.296875
1335		25.390625
1336		29.296875
1337		25.390625
1338		29.296875
1339		23.437500
1340		27.343750
1341		25.390625
1342		27.343750
1343		23.437500
1344		27.343750
1345		23.437500
1346		27.343750
1347		23.437500
1348		27.343750
1349		23.437500
1350		25.390625
1351		21.484375
1352		25.390625
1353		21.484375
1354		25.390625
1355		21.484375
1356		25.390625
1357		19.531250
1358		23.437500
1359		19.531250
1360		23.437500
1361		19.531250
1362		23.437500
1363		19.531250
1364		23.437500
1365		17.578125
1366		21.484375
1367		17.578125
1368		21.484375
1369		17.578125
1370		19.531250
1371		15.625000
1372		19.531250
1373		15.625000
1374		19.531250
1375		15.625000
1376		19.531250
1377		13.671875
1378		17.578125
1379		13.671875
1380		17.578125
1381		13.671875
1382		15.625000
1383		11.718750
1384		15.625000
1385		11.718750
1386		15.625000
1387		11.718750
1388		13.671875
1389		9.765625
1390		13.671875
1391		7.812500
1392		13.671875
1393		7.812500
1394		13.671875
1395		7.812500
1396		11.718750
1397		7.812500
1398		11.718750
1399		5.859375
1400		9.765625
1401		5.859375
1402		9.765625
1403		3.906250
1404		7.812500
1405		3.906250
1406		7.812500
1407		3.906250
1408		7.812500
1409		1.953125
1410		5.859375
1411		1.953125
1412		5.859375
1413		0.000000
1414		3.906250
1415		0.000000
1416		3.906250
1417		0.000000
1418		1.953125
1419		-1.953125
1420		1.953125
1421		-1.953125
1422		1.953125
1423		-1.953125
1424		0.000000
1425		-3.906250
1426		0.000000
1427		-3.906250
1428		0.000000
1429		-5.859375
1430		-1.953125
1431		-5.859375
1432		0.000000
1433		-7.812500
1434		-3.906250
1435		-7.812500
1436		-3.906250
1437		-9.765625
1438		-3.906250
1439		-9.765625
1440		-5.859375
1441		-9.765625
1442		-5.859375
1443		-9.765625
1444		-7.812500
1445		-11.718750
1446		-7.812500
1447		-11.718750
1448		-7.812500
1449		-11.718750
1450		-9.765625
1451		-13.671875
1452		-9.765625
1453		-13.671875
1454		-9.765625
1455		-15.625000
1456		-11.718750
1457		-15.625000
1458		-11.718750
1459		-15.625000
1460		-13.671875
1461		-17.578125
1462		-13.671875
1463		-17.578125
1464		-13.671875
1465		-17.578125
1466		-15.625000
1467		-17.578125
1468		-15.625000
1469		-19.531250
1470		-15.625000
1471		-19.531250
1472		-15.625000
1473		-21.484375
1474		-17.578125
1475		-21.484375
1476		-17.578125
1477		-21.484375
1478		-17.578125
1479		-21.484375
1480		-17.578125
1481		-23.437500
1482		-17.578125
1483		-23.437500
1484		-19.531250
1485		-23.437500
1486		-19.531250
1487		-23.437500
1488		-19.531250
1489		-23.437500
1490		-21.484375
1491		-25.390625
1492		-21.484375
1493		-25.390625
1494		-21.484375
1495		-25.390625
1496		-21.484375
1497		-25.390625
1498		-21.484375
1499		-25.390625
1500		-23.437500
1501		-25.390625
1502		-23.437500
1503		-27.343750
1504		-23.437500
1505		-27.343750
1506		-23.437500
1507		-27.343750
1508		-23.437500
1509		-27.343750
1510		-23.437500
1511		-27.343750
1512		-23.437500
1513		-27.343750
1514		-23.437500
1515		-27.343750
1516		-23.437500
1517		-27.343750
1518		-25.390625
1519		-29.296875
1520		-25.390625
1521		-27.343750
1522		-25.390625
1523		-27.343750
1524		-25.390625
1525		-27.343750
1526		-25.390625
1527		-27.343750
1528		-25.390625
1529		-29.296875
1530		-25.390625
1531		-27.343750
1532		-25.390625
1533		-27.343750
1534		-25.390625
1535		-29.296875
1536		-23.437500
1537		-29.296875
1538		-23.437500
1539		-27.343750
1540		-23.437500
1541		-27.343750
1542		-23.437500
1543		-27.343750
1544		-23.437500
1545		-27.343750
1546		-23.437500
1547		-27.343750
1548		-23.437500
1549		-27.343750
1550		-23.437500
1551		-25.390625
1552		-23.437500
1553		-25.390625
1554		-23.437500
1555		-25.390625
1556		-23.437500
1557		-25.390625
1558		-21.484375
1559		-25.390625
1560		-21.484375
1561		-25.390625
1562		-21.484375
1563		-25.390625
1564		-21.484375
1565		-25.390625
1566		-21.484375
1567		-23.437500
1568		-21.484375
1569		-23.437500
1570		-19.531250
1571		-23.437500
1572		-19.531250
1573		-23.437500
1574		-19.531250
1575		-21.484375
1576		-19.531250
1577		-21.484375
1578		-17.578125
1579		-21.484375
1580		-17.578125
1581		-19.531250
1582		-17.578125
1583		-19.531250
1584		-15.625000
1585		-19.531250
1586		-15.625000
1587		-19.531250
1588		-15.625000
1589		-17.578125
1590		-13.671875
1591		-17.578125
1592		-13.671875
1593		-17.578125
1594		-13.671875
1595		-15.625000
1596		-13.671875
1597		-15.625000
1598		-11.718750
1599		-15.625000
1600		-11.718750
1601		-13.671875
1602		-11.718750
1603		-13.671875
1604		-9.765625
1605		-11.718750
1606		-9.765625
1607		-11.718750
1608		-7.812500
1609		-11.718750
1610		-7.812500
1611		-11.718750
1612		-7.812500
1613		-11.718750
1614		-5.859375
1615		-9.765625
1616		-5.859375
1617		-7.812500
1618		-5.859375
1619		-7.812500
1620		-3.906250
1621		-7.812500
1622		-3.906250
1623		-5.859375
1624		-1.953125
1625		-5.859375
1626		-1.953125
1627		-3.906250
1628		-1.953125
1629		-3.906250
1630		0.000000
1631		-3.906250
1632		0.000000
1633		-1.953125
1634		1.953125
1635		-1.953125
1636		1.953125
1637		0.000000
1638		1.953125
1639		0.000000
1640		3.906250
1641		0.000000
1642		3.906250
1643		1.953125
1644		5.859375
1645		1.953125
1646		5.859375
1647		1.953125
1648		5.859375
1649		3.906250
1650		7.812500
1651		3.906250
1652		7.812500
1653		5.859375
1654		9.765625
1655		5.859375
1656		9.765625
1657		7.812500
1658		9.765625
1659		7.812500
1660		11.718750
1661		7.812500
1662		11.718750
1663		9.765625
1664		13.671875
1665		9.765625
1666		13.671875
1667		11.718750
1668		13.671875
1669		11.718750
1670		13.671875
1671		11.718750
1672		15.625000
1673		11.718750
1674		15.625000
1675		13.671875
1676		17.578125
1677		13.671875
1678		17.578125
1679		15.625000
1680		19.531250
1681		15.625000
1682		19.531250
1683		15.625000
1684		19.531250
1685		15.625000
1686		19.531250
1687		17.578125
1688		21.484375
1689		17.578125
1690		21.484375
1691		17.578125
1692		21.484375
1693		19.531250
1694		23.437500
1695		19.531250
1696		23.437500
1697		19.531250
1698		23.437500
1699		19.531250
1700		25.390625
1701		21.484375
1702		25.390625
1703		21.484375
1704		25.390625
1705		23.437500
1706		25.390625
1707		23.437500
1708		27.343750
1709		23.437500
1710		27.343750
1711		23.437500
1712		27.343750
1713		25.390625
1714		27.343750
1715		25.390625
1716		29.296875
1717		25.390625
1718		29.296875
1719		25.390625
1720		29.296875
1721		25.390625
1722		29.296875
1723		27.343750
1724		29.296875
1725		27.343750
1726		29.296875
1727		27.343750
1728		31.250000
1729		27.343750
1730		31.250000
1731		27.343750
1732		31.250000
1733		27.343750
1734		31.250000
1735		29.296875
1736		31.250000
1737		27.343750
1738		31.250000
1739		29.296875
1740		33.203125
1741		29.296875
1742		33.203125
1743		29.296875
1744		33.203125
1745		29.296875
1746		33.203125
1747		29.296875
1748		33.203125
1749		29.296875
1750		33.203125
1751		29.296875
1752		33.203125
1753		31.250000
1754		33.203125
1755		29.296875
1756		33.203125
1757		31.250000
1758		33.203125
1759		31.250000
1760		33.203125
1761		29.296875
1762		33.203125
1763		31.250000
1764		33.203125
1765		29.296875
1766		33.203125
1767		29.296875
1768		33.203125
1769		31.250000
1770		33.203125
1771		31.250000
1772		33.203125
1773		29.296875
1774		33.203125
1775		29.296875
1776		33.203125
1777		29.296875
1778		33.203125
1779		29.296875
1780		33.203125
1781		29.296875
1782		33.203125
1783		29.296875
1784		33.203125
1785		29.296875
1786		33.203125
1787		29.296875
1788		31.250000
1789		27.343750
1790		31.250000
1791		27.343750
1792		31.250000
1793		27.343750
1794		31.250000
1795		27.343750
1796		33.203125
1797		27.343750
1798		33.203125
1799		25.390625
1800		33.203125
1801		27.343750
1802		29.296875
1803		27.343750
1804		29.296875
1805		25.390625
1806		29.296875
1807		25.390625
1808		29.296875
1809		25.390625
1810		29.296875
1811		25.390625
1812		29.296875
1813		21.484375
1814		29.296875
1815		21.484375
1816		29.296875
1817		23.437500
1818		27.343750
1819		23.437500
1820		27.343750
1821		21.484375
1822		27.343750
1823		19.531250
1824		27.343750
1825		19.531250
1826		27.343750
1827		19.531250
1828		25.390625
1829		17.578125
1830		25.390625
1831		17.578125
1832		25.390625
1833		17.578125
1834		23.437500
1835		19.531250
1836		21.484375
1837		17.578125
1838		21.484375
1839		15.625000
1840		21.484375
1841		15.625000
1842		21.484375
1843		15.625000
1844		19.531250
1845		15.625000
1846		19.531250
1847		13.671875
1848		21.484375
1849		13.671875
1850		19.531250
1851		13.671875
1852		17.578125
1853		13.671875
1854		15.625000
1855		9.765625
1856		17.578125
1857		9.765625
1858		15.625000
1859		9.765625
1860		15.625000
1861		7.812500
1862		15.625000
1863		7.812500
1864		15.625000
1865		5.859375
1866		13.671875
1867		7.812500
1868		13.671875
1869		5.859375
1870		9.765625
1871		5.859375
1872		9.765625
1873		3.906250
1874		11.718750
1875		3.906250
1876		9.765625
1877		1.953125
1878		9.765625
1879		0.000000
1880		7.812500
1881		0.000000
1882		7.812500
1883		0.000000
1884		5.859375
1885		1.953125
1886		5.859375
1887		0.000000
1888		3.906250
1889		-1.953125
1890		3.906250
1891		-3.906250
1892		3.906250
1893		-3.906250
1894		1.953125
1895		-3.906250
1896		1.953125
1897		-5.859375
1898		1.953125
1899		-5.859375
1900		1.953125
1901		-5.859375
1902		0.000000
1903		-5.859375
1904		-1.953125
1905		-9.765625
1906		-1.953125
1907		-9.765625
1908		-3.906250
1909		-9.765625
1910		-3.906250
1911		-9.765625
1912		-3.906250
1913		-11.718750
1914		-3.906250
1915		-11.718750
1916		-5.859375
1917		-13.671875
1918		-5.859375
1919		-11.718750
1920		-7.812500
1921		-11.718750
1922		-9.765625
1923		-13.671875
1924		-9.765625
1925		-15.625000
1926		-9.765625
1927		-15.625000
1928		-9.765625
1929		-17.578125
1930		-9.765625
1931		-17.578125
1932		-9.765625
1933		-19.531250
1934		-11.718750
1935		-19.531250
1936		-13.671875
1937		-17.578125
1938		-15.625000
1939		-19.531250
1940		-13.671875
1941		-19.531250
1942		-13.671875
1943		-21.484375
1944		-13.671875
1945		-21.484375
1946		-15.625000
1947		-21.484375
1948		-15.625000
1949		-23.437500
1950		-15.625000
1951		-23.437500
1952		-17.578125
1953		-21.484375
1954		-19.531250
1955		-23.437500
1956		-19.531250
1957		-25.390625
1958		-17.578125
1959		-25.390625
1960		-17.578125
1961		-25.390625
1962		-19.531250
1963		-27.343750
1964		-19.531250
1965		-27.343750
1966		-19.531250
1967		-27.343750
1968		-19.531250
1969		-25.390625
1970		-21.484375
1971		-25.390625
1972		-23.437500
1973		-29.296875
1974		-21.484375
1975		-29.296875
1976		-21.484375
1977		-27.343750
1978		-21.484375
1979		-29.296875
1980		-21.484375
1981		-29.296875
1982		-21.484375
1983		-29.296875
1984		-23.437500
1985		-29.296875
1986		-21.484375
1987		-27.343750
1988		-25.390625
1989		-29.296875
1990		-23.437500
1991		-29.296875
1992		-21.484375
1993		-29.296875
1994		-23.437500
1995		-31.250000
1996		-23.437500
1997		-29.296875
1998		-23.437500
1999		-29.296875
2000		-23.437500
2001		-29.296875
2002		-23.437500
2003		-27.343750
2004		-23.437500
2005		-27.343750
2006		-25.390625
2007		-29.296875
2008		-23.437500
2009		-29.296875
2010		-23.437500
2011		-29.296875
2012		-21.484375
2013		-29.296875
2014		-21.484375
2015		-29.296875
2016		-21.484375
2017		-29.296875
2018		-21.484375
2019		-27.343750
2020		-21.484375
2021		-25.390625
2022		-23.437500
2023		-27.343750
2024		-21.484375
2025		-27.343750
2026		-21.484375
2027		-27.343750
2028		-21.484375
2029		-27.343750
2030		-19.531250
2031		-25.390625
2032		-19.531250
2033		-25.390625
2034		-19.531250
2035		-25.390625
2036		-19.531250
2037		-23.437500
2038		-19.531250
2039		-23.437500
2040		-19.531250
2041		-25.390625
2042		-17.578125
2043		-23.437500
2044		-17.578125
2045		-23.437500
2046		-17.578125
2047		-23.437500
2048		-15.625000
2049		-23.437500
2050		-15.625000
2051		-21.484375
2052		-15.625000
2053		-21.484375
2054		-15.625000
2055		-19.531250
2056		-15.625000
2057		-19.531250
2058		-13.671875
2059		-19.531250
2060		-13.671875
2061		-19.531250
2062		-11.718750
2063		-19.531250
2064		-11.718750
2065		-17.578125
2066		-11.718750
2067		-17.578125
2068		-9.765625
2069		-17.578125
2070		-11.718750
2071		-13.671875
2072		-11.718750
2073		-15.625000
2074		-9.765625
2075		-15.625000
2076		-7.812500
2077		-13.671875
2078		-7.812500
2079		-13.671875
2080		-5.859375
2081		-11.718750
2082		-5.859375
2083		-11.718750
2084		-5.859375
2085		-11.718750
2086		-3.906250
2087		-7.812500
2088		-5.859375
2089		-7.812500
2090		-3.906250
2091		-9.765625
2092		-1.953125
2093		-7.812500
2094		-1.953125
2095		-7.812500
2096		-1.953125
2097		-7.812500
2098		0.000000
2099		-5.859375
2100		0.000000
2101		-5.859375
2102		1.953125
2103		-3.906250
2104		1.953125
2105		-1.953125
2106		1.953125
2107		-1.953125
2108		3.906250
2109		-1.953125
2110		3.906250
2111		-1.953125
2112		5.859375
2113		0.000000
2114		5.859375
2115		0.000000
2116		7.812500
2117		1.953125
2118		7.812500
2119		0.000000
2120		7.812500
2121		3.906250
2122		7.812500
2123		5.859375
2124		7.812500
2125		3.906250
2126		11.718750
2127		3.906250
2128		11.718750
2129		5.859375
2130		11.718750
2131		5.859375
2132		13.671875
2133		7.812500
2134		13.671875
2135		7.812500
2136		13.671875
2137		9.765625
2138		13.671875
2139		9.765625
2140		13.671875
2141		9.765625
2142		15.625000
2143		9.765625
2144		17.578125
2145		9.765625
2146		19.531250
2147		11.718750
2148		19.531250
2149		11.718750
2150		19.531250
2151		13.671875
2152		19.531250
2153		13.671875
2154		19.531250
2155		15.625000
2156		19.531250
2157		15.625000
2158		21.484375
2159		15.625000
2160		23.437500
2161		15.625000
2162		23.437500
2163		17.578125
2164		23.437500
2165		17.578125
2166		25.390625
2167		17.578125
2168		25.390625
2169		19.531250
2170		25.390625
2171		21.484375
2172		23.437500
2173		21.484375
2174		25.390625
2175		21.484375
2176		27.343750
2177		19.531250
2178		27.343750
2179		21.484375
2180		27.343750
2181		21.484375
2182		29.296875
2183		21.484375
2184		29.296875
2185		23.437500
2186		29.296875
2187		23.437500
2188		29.296875
2189		25.390625
2190		29.296875
2191		25.390625
2192		31.250000
2193		23.437500
2194		31.250000
2195		25.390625
2196		31.250000
2197		25.390625
2198		33.203125
2199		25.390625
2200		33.203125
2201		25.390625
2202		33.203125
2203		25.390625
2204		33.203125
2205		27.343750
2206		31.250000
2207		27.343750
2208		31.250000
2209		27.343750
2210		33.203125
2211		27.343750
2212		33.203125
2213		27.343750
2214		33.203125
2215		27.343750
2216		35.156250
2217		27.343750
2218		35.156250
2219		27.343750
2220		35.156250
2221		29.296875
2222		35.156250
2223		29.296875
2224		33.203125
2225		27.343750
2226		35.156250
2227		27.343750
2228		35.156250
2229		27.343750
2230		35.156250
2231		27.343750
2232		35.156250
2233		27.343750
2234		35.156250
2235		27.343750
2236		35.156250
2237		27.343750
2238		35.156250
2239		29.296875
2240		33.203125
2241		29.296875
2242		33.203125
2243		27.343750
2244		35.156250
2245		27.343750
2246		35.156250
2247		27.343750
2248		35.156250
2249		29.296875
2250		35.156250
2251		27.343750
2252		35.156250
2253		27.343750
2254		35.156250
2255		29.296875
2256		33.203125
2257		29.296875
2258		33.203125
2259		27.343750
2260		35.156250
2261		27.343750
2262		33.203125
2263		25.390625
2264		33.203125
2265		27.343750
2266		33.203125
2267		25.390625
2268		33.203125
2269		25.390625
2270		31.250000
2271		25.390625
2272		31.250000
2273		27.343750
2274		29.296875
2275		25.390625
2276		29.296875
2277		23.437500
2278		31.250000
2279		23.437500
2280		31.250000
2281		23.437500
2282		31.250000
2283		23.437500
2284		29.296875
2285		23.437500
2286		29.296875
2287		21.484375
2288		29.296875
2289		23.437500
2290		27.343750
2291		23.437500
2292		25.390625
2293		19.531250
2294		27.343750
2295		19.531250
2296		27.343750
2297		19.531250
2298		27.343750
2299		19.531250
2300		25.390625
2301		17.578125
2302		25.390625
2303		17.578125
2304		23.437500
2305		17.578125
2306		23.437500
2307		17.578125
2308		21.484375
2309		15.625000
2310		21.484375
2311		15.625000
2312		23.437500
2313		13.671875
2314		21.484375
2315		13.671875
2316		21.484375
2317		11.718750
2318		19.531250
2319		11.718750
2320		19.531250
2321		11.718750
2322		17.578125
2323		13.671875
2324		17.578125
2325		11.718750
2326		15.625000
2327		9.765625
2328		17.578125
2329		9.765625
2330		17.578125
2331		7.812500
2332		15.625000
2333		7.812500
2334		13.671875
2335		7.812500
2336		13.671875
2337		5.859375
2338		13.671875
2339		7.812500
2340		11.718750
2341		5.859375
2342		9.765625
2343		3.906250
2344		9.765625
2345		3.906250
2346		9.765625
2347		1.953125
2348		9.765625
2349		1.953125
2350		7.812500
2351		1.953125
2352		7.812500
2353		0.000000
2354		7.812500
2355		0.000000
2356		5.859375
2357		0.000000
2358		3.906250
2359		-1.953125
2360		3.906250
2361		-3.906250
2362		3.906250
2363		-3.906250
2364		3.906250
2365		-3.906250
2366		1.953125
2367		-5.859375
2368		1.953125
2369		-5.859375
2370		0.000000
2371		-5.859375
2372		0.000000
2373		-5.859375
2374		-1.953125
2375		-5.859375
2376		-3.906250
2377		-7.812500
2378		-1.953125
2379		-9.765625
2380		-1.953125
2381		-9.765625
2382		-3.906250
2383		-11.718750
2384		-3.906250
2385		-11.718750
2386		-5.859375
2387		-11.718750
2388		-5.859375
2389		-13.671875
2390		-7.812500
2391		-11.718750
2392		-9.765625
2393		-13.671875
2394		-7.812500
2395		-15.625000
2396		-7.812500
2397		-15.625000
2398		-9.765625
2399		-17.578125
2400		-9.765625
2401		-17.578125
2402		-9.765625
2403		-17.578125
2404		-11.718750
2405		-19.531250
2406		-11.718750
2407		-17.578125
2408		-13.671875
2409		-17.578125
2410		-15.625000
2411		-19.531250
2412		-13.671875
2413		-21.484375
2414		-13.671875
2415		-21.484375
2416		-13.671875
2417		-21.484375
2418		-15.625000
2419		-23.437500
2420		-15.625000
2421		-23.437500
2422		-15.625000
2423		-21.484375
2424		-19.531250
2425		-21.484375
2426		-19.531250
2427		-25.390625
2428		-17.578125
2429		-25.390625
2430		-19.531250
2431		-25.390625
2432		-19.531250
2433		-27.343750
2434		-19.531250
2435		-27.343750
2436		-19.531250
2437		-27.343750
2438		-19.531250
2439		-25.390625
2440		-21.484375
2441		-25.390625
2442		-21.484375
2443		-27.343750
2444		-23.437500
2445		-27.343750
2446		-21.484375
2447		-29.296875
2448		-21.484375
2449		-29.296875
2450		-21.484375
2451		-29.296875
2452		-21.484375
2453		-29.296875
2454		-21.484375
2455		-29.296875
2456		-23.437500
2457		-27.343750
2458		-25.390625
2459		-27.343750
2460		-25.390625
2461		-29.296875
2462		-23.437500
2463		-29.296875
2464		-21.484375
2465		-29.296875
2466		-23.437500
2467		-29.296875
2468		-23.437500
2469		-29.296875
2470		-23.437500
2471		-29.296875
2472		-23.437500
2473		-31.250000
2474		-23.437500
2475		-27.343750
2476		-25.390625
2477		-29.296875
2478		-23.437500
2479		-29.296875
2480		-23.437500
2481		-29.296875
2482		-23.437500
2483		-29.296875
2484		-21.484375
2485		-29.296875
2486		-23.437500
2487		-29.296875
2488		-21.484375
2489		-29.296875
2490		-21.484375
2491		-27.343750
2492		-23.437500
2493		-27.343750
2494		-23.437500
2495		-27.343750
2496		-21.484375
2497		-27.343750
2498		-21.484375
2499		-27.343750
2500		-21.484375
2501		-27.343750
2502		-19.531250
2503		-27.343750
2504		-19.531250
2505		-27.343750
2506		-19.531250
2507		-25.390625
2508		-21.484375
2509		-23.437500
2510		-21.484375
2511		-25.390625
2512		-19.531250
2513		-25.390625
2514		-17.578125
2515		-25.390625
2516		-17.578125
2517		-23.437500
2518		-17.578125
2519		-23.437500
2520		-17.578125
2521		-23.437500
2522		-15.625000
2523		-23.437500
2524		-15.625000
2525		-19.531250
2526		-17.578125
2527		-19.531250
2528		-15.625000
2529		-21.484375
2530		-13.671875
2531		-19.531250
2532		-13.671875
2533		-19.531250
2534		-11.718750
2535		-19.531250
2536		-11.718750
2537		-17.578125
2538		-11.718750
2539		-17.578125
2540		-11.718750
2541		-15.625000
2542		-11.718750
2543		-13.671875
2544		-11.718750
2545		-15.625000
2546		-9.765625
2547		-15.625000
2548		-7.812500
2549		-13.671875
2550		-7.812500
2551		-13.671875
2552		-5.859375
2553		-13.671875
2554		-5.859375
2555		-11.718750
2556		-3.906250
2557		-11.718750
2558		-5.859375
2559		-9.765625
2560		-5.859375
2561		-9.765625
2562		-3.906250
2563		-9.765625
2564		-1.953125
2565		-7.812500
2566		0.000000
2567		-7.812500
2568		0.000000
2569		-7.812500
2570		0.000000
2571		-5.859375
2572		1.953125
2573		-5.859375
2574		0.000000
2575		-1.953125
2576		0.000000
2577		-1.953125
2578		1.953125
2579		-3.906250
2580		3.906250
2581		-1.953125
2582		3.906250
2583		-1.953125
2584		5.859375
2585		-1.953125
2586		5.859375
2587		0.000000
2588		5.859375
2589		0.000000
2590		7.812500
2591		1.953125
2592		5.859375
2593		3.906250
2594		7.812500
2595		3.906250
2596		9.765625
2597		3.906250
2598		11.718750
2599		3.906250
2600		11.718750
2601		5.859375
2602		11.718750
2603		5.859375
2604		13.671875
2605		7.812500
2606		13.671875
2607		7.812500
2608		13.671875
2609		9.765625
2610		13.671875
2611		11.718750
2612		13.671875
2613		9.765625
2614		17.578125
2615		9.765625
2616		17.578125
2617		11.718750
2618		17.578125
2619		11.718750
2620		19.531250
2621		11.718750
2622		19.531250
2623		13.671875
2624		19.531250
2625		15.625000
2626		19.531250
2627		15.625000
2628		19.531250
2629		15.625000
2630		21.484375
2631		15.625000
2632		23.437500
2633		15.625000
2634		23.437500
2635		17.578125
2636		23.437500
2637		17.578125
2638		23.437500
2639		17.578125
2640		25.390625
2641		17.578125
2642		25.390625
2643		21.484375
2644		23.437500
2645		21.484375
2646		27.343750
2647		19.531250
2648		27.343750
2649		19.531250
2650		27.343750
2651		21.484375
2652		27.343750
2653		21.484375
2654		29.296875
2655		21.484375
2656		29.296875
2657		23.437500
2658		29.296875
2659		25.390625
2660		27.343750
2661		25.390625
2662		29.296875
2663		23.437500
2664		31.250000
2665		25.390625
2666		31.250000
2667		23.437500
2668		31.250000
2669		25.390625
2670		31.250000
2671		25.390625
2672		33.203125
2673		25.390625
2674		33.203125
2675		27.343750
2676		31.250000
2677		27.343750
2678		31.250000
2679		27.343750
2680		33.203125
2681		27.343750
2682		33.203125
2683		27.343750
2684		33.203125
2685		27.343750
2686		35.156250
2687		27.343750
2688		35.156250
2689		27.343750
2690		33.203125
2691		29.296875
2692		35.156250
2693		29.296875
2694		33.203125
2695		29.296875
2696		33.203125
2697		29.296875
2698		35.156250
2699		27.343750
2700		35.156250
2701		27.343750
2702		35.156250
2703		27.343750
2704		35.156250
2705		27.343750
2706		35.156250
2707		27.343750
2708		35.156250
2709		29.296875
2710		33.203125
2711		29.296875
2712		33.203125
2713		27.343750
2714		35.156250
2715		27.343750
2716		35.156250
2717		27.343750
2718		35.156250
2719		27.343750
2720		35.156250
2721		27.343750
2722		35.156250
2723		27.343750
2724		35.156250
2725		27.343750
2726		33.203125
2727		29.296875
2728		31.250000
2729		27.343750
2730		33.203125
2731		27.343750
2732		33.203125
2733		25.390625
2734		33.203125
2735		25.390625
2736		33.203125
2737		25.390625
2738		33.203125
2739		25.390625
2740		33.203125
2741		25.390625
2742		31.250000
2743		27.343750
2744		29.296875
2745		27.343750
2746		29.296875
2747		25.390625
2748		31.250000
2749		23.437500
2750		31.250000
2751		23.437500
2752		29.296875
2753		23.437500
2754		29.296875
2755		21.484375
2756		29.296875
2757		21.484375
2758		29.296875
2759		23.437500
2760		27.343750
2761		23.437500
2762		25.390625
2763		21.484375
2764		27.343750
2765		19.531250
2766		27.343750
2767		19.531250
2768		25.390625
2769		19.531250
2770		27.343750
2771		17.578125
2772		25.390625
2773		19.531250
2774		25.390625
2775		17.578125
2776		25.390625
2777		19.531250
2778		21.484375
2779		17.578125
2780		21.484375
2781		15.625000
2782		23.437500
2783		15.625000
2784		21.484375
2785		15.625000
2786		21.484375
2787		13.671875
2788		21.484375
2789		13.671875
2790		19.531250
2791		13.671875
2792		19.531250
2793		13.671875
2794		17.578125
2795		13.671875
2796		15.625000
2797		9.765625
2798		17.578125
2799		9.765625
2800		17.578125
2801		9.765625
2802		15.625000
2803		7.812500
2804		15.625000
2805		7.812500
2806		13.671875
2807		5.859375
2808		13.671875
2809		7.812500
2810		11.718750
2811		7.812500
2812		9.765625
2813		5.859375
2814		9.765625
2815		3.906250
2816		9.765625
2817		3.906250
2818		9.765625
2819		1.953125
2820		7.812500
2821		1.953125
2822		7.812500
2823		1.953125
2824		7.812500
2825		0.000000
2826		5.859375
2827		1.953125
2828		3.906250
2829		0.000000
2830		3.906250
2831		-1.953125
2832		3.906250
2833		-3.906250
2834		3.906250
2835		-3.906250
2836		1.953125
2837		-3.906250
2838		1.953125
2839		-5.859375
2840		0.000000
2841		-5.859375
2842		0.000000
2843		-5.859375
2844		-1.953125
2845		-5.859375
2846		-1.953125
2847		-7.812500
2848		-3.906250
2849		-9.765625
2850		-1.953125
2851		-9.765625
2852		-3.906250
2853		-11.718750
2854		-3.906250
2855		-11.718750
2856		-5.859375
2857		-13.671875
2858		-5.859375
2859		-11.718750
2860		-5.859375
2861		-11.718750
2862		-7.812500
2863		-13.671875
2864		-9.765625
2865		-15.625000
2866		-7.812500
2867		-15.625000
2868		-9.765625
2869		-15.625000
2870		-9.765625
2871		-17.578125
2872		-9.765625
2873		-15.625000
2874		-11.718750
2875		-19.531250
2876		-11.718750
2877		-17.578125
2878		-13.671875
2879		-17.578125
2880		-15.625000
2881		-19.531250
2882		-13.671875
2883		-21.484375
2884		-13.671875
2885		-21.484375
2886		-15.625000
2887		-21.484375
2888		-15.625000
2889		-23.437500
2890		-17.578125
2891		-23.437500
2892		-15.625000
2893		-23.437500
2894		-17.578125
2895		-21.484375
2896		-19.531250
2897		-23.437500
2898		-19.531250
2899		-25.390625
2900		-17.578125
2901		-25.390625
2902		-19.531250
2903		-25.390625
2904		-21.484375
2905		-27.343750
2906		-19.531250
2907		-25.390625
2908		-21.484375
2909		-25.390625
2910		-21.484375
2911		-25.390625
2912		-21.484375
2913		-25.390625
2914		-23.437500
2915		-27.343750
2916		-21.484375
2917		-29.296875
2918		-21.484375
2919		-29.296875
2920		-21.484375
2921		-27.343750
2922		-23.437500
2923		-27.343750
2924		-23.437500
2925		-29.296875
2926		-23.437500
2927		-29.296875
2928		-25.390625
2929		-27.343750
2930		-25.390625
2931		-29.296875
2932		-23.437500
2933		-29.296875
2934		-23.437500
2935		-29.296875
2936		-25.390625
2937		-29.296875
2938		-25.390625
2939		-27.343750
2940		-25.390625
2941		-27.343750
2942		-25.390625
2943		-29.296875
2944		-25.390625
2945		-27.343750
2946		-25.390625
2947		-29.296875
2948		-23.437500
2949		-29.296875
2950		-23.437500
2951		-29.296875
2952		-23.437500
2953		-29.296875
2954		-25.390625
2955		-27.343750
2956		-23.437500
2957		-27.343750
2958		-23.437500
2959		-27.343750
2960		-23.437500
2961		-27.343750
2962		-23.437500
2963		-27.343750
2964		-23.437500
2965		-27.343750
2966		-23.437500
2967		-27.343750
2968		-23.437500
2969		-27.343750
2970		-21.484375
2971		-25.390625
2972		-23.437500
2973		-25.390625
2974		-21.484375
2975		-25.390625
2976		-21.484375
2977		-25.390625
2978		-21.484375
2979		-25.390625
2980		-21.484375
2981		-25.390625
2982		-19.531250
2983		-25.390625
2984		-19.531250
2985		-23.437500
2986		-19.531250
2987		-23.437500
2988		-19.531250
2989		-23.437500
2990		-19.531250
2991		-21.484375
2992		-17.578125
2993		-21.484375
2994		-15.625000
2995		-21.484375
2996		-17.578125
2997		-19.531250
2998		-17.578125
2999		-19.531250
3000		-15.625000
3001		-19.531250
3002		-15.625000
3003		-19.531250
3004		-15.625000
3005		-17.578125
3006		-13.671875
3007		-17.578125
3008		-13.671875
3009		-15.625000
3010		-13.671875
3011		-17.578125
3012		-11.718750
3013		-15.625000
3014		-11.718750
3015		-15.625000
3016		-9.765625
3017		-13.671875
3018		-9.765625
3019		-13.671875
3020		-9.765625
3021		-11.718750
3022		-9.765625
3023		-11.718750
3024		-7.812500
3025		-11.718750
3026		-7.812500
3027		-9.765625
3028		-5.859375
3029		-9.765625
3030		-5.859375
3031		-9.765625
3032		-3.906250
3033		-7.812500
3034		-3.906250
3035		-7.812500
3036		-3.906250
3037		-5.859375
3038		-3.906250
3039		-5.859375
3040		-1.953125
3041		-5.859375
3042		-1.953125
3043		-3.906250
3044		0.000000
3045		-3.906250
3046		0.000000
3047		-1.953125
3048		0.000000
3049		-3.906250
3050		1.953125
3051		-1.953125
3052		1.953125
3053		0.000000
3054		3.906250
3055		0.000000
3056		3.906250
3057		0.000000
3058		3.906250
3059		1.953125
3060		5.859375
3061		1.953125
3062		5.859375
3063		3.906250
3064		5.859375
3065		3.906250
3066		7.812500
3067		3.906250
3068		7.812500
3069		5.859375
3070		9.765625
3071		5.859375
3072		9.765625
3073		7.812500
3074		11.718750
3075		7.812500
3076		11.718750
3077		7.812500
3078		11.718750
3079		9.765625
3080		13.671875
3081		9.765625
3082		13.671875
3083		9.765625
3084		13.671875
3085		9.765625
3086		15.625000
3087		11.718750
3088		15.625000
3089		11.718750
3090		15.625000
3091		13.671875
3092		17.578125
3093		13.671875
3094		17.578125
3095		13.671875
3096		17.578125
3097		15.625000
3098		19.531250
3099		15.625000
3100		19.531250
3101		17.578125
3102		19.531250
3103		17.578125
3104		21.484375
3105		17.578125
3106		21.484375
3107		17.578125
3108		21.484375
3109		19.531250
3110		23.437500
3111		19.531250
3112		23.437500
3113		21.484375
3114		23.437500
3115		21.484375
3116		23.437500
3117		19.531250
3118		25.390625
3119		21.484375
3120		25.390625
3121		21.484375
3122		25.390625
3123		23.437500
3124		25.390625
3125		23.437500
3126		27.343750
3127		23.437500
3128		27.343750
3129		23.437500
3130		27.343750
3131		23.437500
3132		27.343750
3133		23.437500
3134		27.343750
3135		25.390625
3136		29.296875
3137		25.390625
3138		29.296875
3139		25.390625
3140		29.296875
3141		27.343750
3142		29.296875
3143		27.343750
3144		29.296875
3145		27.343750
3146		31.250000
3147		27.343750
3148		31.250000
3149		27.343750
3150		31.250000
3151		27.343750
3152		31.250000
3153		27.343750
3154		31.250000
3155		29.296875
3156		31.250000
3157		29.296875
3158		31.250000
3159		29.296875
3160		33.203125
3161		27.343750
3162		33.203125
3163		29.296875
3164		33.203125
3165		29.296875
3166		31.250000
3167		29.296875
3168		33.203125
3169		29.296875
3170		33.203125
3171		29.296875
3172		33.203125
3173		29.296875
3174		33.203125
3175		29.296875
3176		33.203125
3177		29.296875
3178		33.203125
3179		29.296875
3180		33.203125
3181		29.296875
3182		33.203125
3183		29.296875
3184		33.203125
3185		29.296875
3186		33.203125
3187		29.296875
3188		33.203125
3189		29.296875
3190		33.203125
3191		29.296875
3192		33.203125
3193		29.296875
3194		33.203125
3195		27.343750
3196		33.203125
3197		29.296875
3198		31.250000
3199		29.296875
3200		31.250000
3201		27.343750
3202		31.250000
3203		27.343750
3204		31.250000
3205		27.343750
3206		31.250000
3207		27.343750
3208		31.250000
3209		27.343750
3210		31.250000
3211		27.343750
3212		29.296875
3213		27.343750
3214		29.296875
3215		25.390625
3216		29.296875
3217		25.390625
3218		29.296875
3219		25.390625
3220		29.296875
3221		25.390625
3222		27.343750
3223		23.437500
3224		27.343750
3225		23.437500
3226		27.343750
3227		23.437500
3228		27.343750
3229		23.437500
3230		27.343750
3231		23.437500
3232		25.390625
3233		21.484375
3234		25.390625
3235		21.484375
3236		25.390625
3237		21.484375
3238		25.390625
3239		21.484375
3240		23.437500
3241		19.531250
3242		23.437500
3243		19.531250
3244		23.437500
3245		19.531250
3246		21.484375
3247		19.531250
3248		21.484375
3249		17.578125
3250		21.484375
3251		17.578125
3252		21.484375
3253		15.625000
3254		19.531250
3255		15.625000
3256		19.531250
3257		15.625000
3258		19.531250
3259		13.671875
3260		19.531250
3261		13.671875
3262		17.578125
3263		13.671875
3264		17.578125
3265		13.671875
3266		15.625000
3267		11.718750
3268		15.625000
3269		11.718750
3270		15.625000
3271		9.765625
3272		15.625000
3273		9.765625
3274		13.671875
3275		9.765625
3276		11.718750
3277		7.812500
3278		11.718750
3279		7.812500
3280		11.718750
3281		5.859375
3282		9.765625
3283		5.859375
3284		9.765625
3285		5.859375
3286		9.765625
3287		3.906250
3288		7.812500
3289		3.906250
3290		7.812500
3291		1.953125
3292		5.859375
3293		1.953125
3294		5.859375
3295		1.953125
3296		5.859375
3297		0.000000
3298		3.906250
3299		0.000000
3300		3.906250
3301		0.000000
3302		1.953125
3303		-1.953125
3304		1.953125
3305		-1.953125
3306		1.953125
3307		-3.906250
3308		0.000000
3309		-3.906250
3310		0.000000
3311		-5.859375
3312		0.000000
3313		-5.859375
3314		-1.953125
3315		-5.859375
3316		-1.953125
3317		-7.812500
3318		-3.906250
3319		-7.812500
3320		-3.906250
3321		-7.812500
3322		-5.859375
3323		-9.765625
3324		-5.859375
3325		-9.765625
3326		-5.859375
3327		-11.718750
3328		-7.812500
3329		-11.718750
3330		-7.812500
3331		-11.718750
3332		-7.812500
3333		-13.671875
3334		-9.765625
3335		-13.671875
3336		-9.765625
3337		-13.671875
3338		-9.765625
3339		-15.625000
3340		-11.718750
3341		-15.625000
3342		-11.718750
3343		-15.625000
3344		-11.718750
3345		-17.578125
3346		-13.671875
3347		-17.578125
3348		-13.671875
3349		-17.578125
3350		-15.625000
3351		-19.531250
3352		-15.625000
3353		-19.531250
3354		-15.625000
3355		-21.484375
3356		-17.578125
3357		-19.531250
3358		-17.578125
3359		-21.484375
3360		-17.578125
3361		-21.484375
3362		-17.578125
3363		-23.437500
3364		-17.578125
3365		-23.437500
3366		-19.531250
3367		-23.437500
3368		-19.531250
3369		-23.437500
3370		-19.531250
3371		-25.390625
3372		-21.484375
3373		-25.390625
3374		-21.484375
3375		-25.390625
3376		-21.484375
3377		-25.390625
3378		-21.484375
3379		-25.390625
3380		-21.484375
3381		-27.343750
3382		-21.484375
3383		-25.390625
3384		-23.437500
3385		-27.343750
3386		-23.437500
3387		-27.343750
3388		-23.437500
3389		-27.343750
3390		-23.437500
3391		-27.343750
3392		-25.390625
3393		-27.343750
3394		-25.390625
3395		-27.343750
3396		-25.390625
3397		-27.343750
3398		-25.390625
3399		-27.343750
3400		-25.390625
3401		-29.296875
3402		-25.390625
3403		-27.343750
3404		-25.390625
3405		-29.296875
3406		-25.390625
3407		-29.296875
3408		-25.390625
3409		-29.296875
3410		-25.390625
3411		-29.296875
3412		-25.390625
3413		-29.296875
3414		-25.390625
3415		-29.296875
3416		-25.390625
3417		-29.296875
3418		-25.390625
3419		-29.296875
3420		-25.390625
3421		-29.296875
3422		-25.390625
3423		-29.296875
3424		-25.390625
3425		-27.343750
3426		-25.390625
3427		-29.296875
3428		-25.390625
3429		-27.343750
3430		-25.390625
3431		-27.343750
3432		-25.390625
3433		-27.343750
3434		-25.390625
3435		-27.343750
3436		-25.390625
3437		-27.343750
3438		-23.437500
3439		-27.343750
3440		-23.437500
3441		-27.343750
3442		-23.437500
3443		-27.343750
3444		-23.437500
3445		-25.390625
3446		-21.484375
3447		-25.390625
3448		-21.484375
3449		-25.390625
3450		-21.484375
3451		-25.390625
3452		-21.484375
3453		-23.437500
3454		-21.484375
3455		-23.437500
3456		-19.531250
3457		-23.437500
3458		-19.531250
3459		-23.437500
3460		-19.531250
3461		-23.437500
3462		-19.531250
3463		-21.484375
3464		-17.578125
3465		-21.484375
3466		-17.578125
3467		-21.484375
3468		-17.578125
3469		-21.484375
3470		-17.578125
3471		-21.484375
3472		-15.625000
3473		-19.531250
3474		-15.625000
3475		-19.531250
3476		-15.625000
3477		-17.578125
3478		-15.625000
3479		-17.578125
3480		-13.671875
3481		-17.578125
3482		-13.671875
3483		-15.625000
3484		-13.671875
3485		-15.625000
3486		-11.718750
3487		-15.625000
3488		-11.718750
3489		-13.671875
3490		-11.718750
3491		-13.671875
3492		-9.765625
3493		-11.718750
3494		-9.765625
3495		-11.718750
3496		-7.812500
3497		-11.718750
3498		-7.812500
3499		-9.765625
3500		-7.812500
3501		-9.765625
3502		-5.859375
3503		-9.765625
3504		-5.859375
3505		-7.812500
3506		-3.906250
3507		-7.812500
3508		-3.906250
3509		-7.812500
3510		-3.906250
3511		-5.859375
3512		-1.953125
3513		-5.859375
3514		-1.953125
3515		-5.859375
3516		-1.953125
3517		-3.906250
3518		0.000000
3519		-1.953125
3520		0.000000
3521		-1.953125
3522		1.953125
3523		-1.953125
3524		1.953125
3525		0.000000
3526		1.953125
3527		0.000000
3528		3.906250
3529		0.000000
3530		3.906250
3531		1.953125
3532		5.859375
3533		1.953125
3534		5.859375
3535		3.906250
3536		5.859375
3537		3.906250
3538		7.812500
3539		3.906250
3540		7.812500
3541		5.859375
3542		9.765625
3543		5.859375
3544		9.765625
3545		7.812500
3546		11.718750
3547		7.812500
3548		11.718750
3549		7.812500
3550		11.718750
3551		9.765625
3552		11.718750
3553		9.765625
3554		13.671875
3555		9.765625
3556		13.671875
3557		11.718750
3558		15.625000
3559		11.718750
3560		15.625000
3561		13.671875
3562		15.625000
3563		13.671875
3564		17.578125
3565		13.671875
3566		17.578125
3567		15.625000
3568		17.578125
3569		15.625000
3570		19.531250
3571		15.625000
3572		19.531250
3573		17.578125
3574		19.531250
3575		17.578125
3576		21.484375
3577		17.578125
3578		21.484375
3579		17.578125
3580		21.484375
3581		19.531250
3582		23.437500
3583		19.531250
3584		23.437500
3585		19.531250
3586		23.437500
3587		21.484375
3588		23.437500
3589		21.484375
3590		25.390625
3591		21.484375
3592		25.390625
3593		21.484375
3594		25.390625
3595		23.437500
3596		25.390625
3597		23.437500
3598		27.343750
3599		23.437500
3600		27.343750
3601		23.437500
3602		27.343750
3603		23.437500
3604		27.343750
3605		25.390625
3606		29.296875
3607		25.390625
3608		29.296875
3609		25.390625
3610		29.296875
3611		25.390625
3612		29.296875
3613		27.343750
3614		29.296875
3615		27.343750
3616		31.250000
3617		27.343750
3618		29.296875
3619		27.343750
3620		31.250000
3621		27.343750
3622		31.250000
3623		27.343750
3624		31.250000
3625		27.343750
3626		31.250000
3627		27.343750
3628		31.250000
3629		27.343750
3630		31.250000
3631		29.296875
3632		31.250000
3633		29.296875
3634		33.203125
3635		29.296875
3636		31.250000
3637		27.343750
3638		33.203125
3639		29.296875
3640		31.250000
3641		29.296875
3642		33.203125
3643		29.296875
3644		33.203125
3645		29.296875
3646		33.203125
3647		29.296875
3648		33.203125
3649		27.343750
3650		33.203125
3651		29.296875
3652		31.250000
3653		29.296875
3654		33.203125
3655		29.296875
3656		33.203125
3657		29.296875
3658		33.203125
3659		29.296875
3660		31.250000
3661		29.296875
3662		31.250000
3663		29.296875
3664		33.203125
3665		29.296875
3666		33.203125
3667		29.296875
3668		31.250000
3669		27.343750
3670		31.250000
3671		27.343750
3672		31.250000
3673		27.343750
3674		31.250000
3675		27.343750
3676		31.250000
3677		27.343750
3678		31.250000
3679		27.343750
3680		31.250000
3681		27.343750
3682		29.296875
3683		25.390625
3684		29.296875
3685		25.390625
3686		29.296875
3687		25.390625
3688		29.296875
3689		25.390625
3690		29.296875
3691		25.390625
3692		27.343750
3693		23.437500
3694		27.343750
3695		23.437500
3696		27.343750
3697		23.437500
3698		27.343750
3699		23.437500
3700		27.343750
3701		23.437500
3702		25.390625
3703		21.484375
3704		25.390625
3705		21.484375
3706		25.390625
3707		21.484375
3708		25.390625
3709		21.484375
3710		25.390625
3711		19.531250
3712		23.437500
3713		19.531250
3714		23.437500
3715		19.531250
3716		21.484375
3717		17.578125
3718		21.484375
3719		17.578125
3720		21.484375
3721		17.578125
3722		19.531250
3723		15.625000
3724		19.531250
3725		15.625000
3726		19.531250
3727		15.625000
3728		19.531250
3729		13.671875
3730		17.578125
3731		13.671875
3732		17.578125
3733		13.671875
3734		17.578125
3735		13.671875
3736		15.625000
3737		11.718750
3738		15.625000
3739		11.718750
3740		15.625000
3741		9.765625
3742		13.671875
3743		9.765625
3744		13.671875
3745		9.765625
3746		13.671875
3747		7.812500
3748		11.718750
3749		5.859375
3750		11.718750
3751		7.812500
3752		9.765625
3753		5.859375
3754		9.765625
3755		3.906250
3756		9.765625
3757		3.906250
3758		7.812500
3759		3.906250
3760		7.812500
3761		3.906250
3762		5.859375
3763		1.953125
3764		5.859375
3765		1.953125
3766		5.859375
3767		0.000000
3768		3.906250
3769		0.000000
3770		3.906250
3771		-1.953125
3772		1.953125
3773		-1.953125
3774		1.953125
3775		-3.906250
3776		1.953125
3777		-3.906250
3778		0.000000
3779		-3.906250
3780		0.000000
3781		-5.859375
3782		-1.953125
3783		-5.859375
3784		-1.953125
3785		-5.859375
3786		-1.953125
3787		-7.812500
3788		-3.906250
3789		-9.765625
3790		-3.906250
3791		-9.765625
3792		-5.859375
3793		-9.765625
3794		-5.859375
3795		-9.765625
3796		-5.859375
3797		-11.718750
3798		-7.812500
3799		-11.718750
3800		-7.812500
3801		-11.718750
3802		-9.765625
3803		-13.671875
3804		-9.765625
3805		-13.671875
3806		-9.765625
3807		-13.671875
3808		-11.718750
3809		-15.625000
3810		-11.718750
3811		-15.625000
3812		-11.718750
3813		-17.578125
3814		-13.671875
3815		-17.578125
3816		-13.671875
3817		-17.578125
3818		-13.671875
3819		-17.578125
3820		-15.625000
3821		-19.531250
3822		-15.625000
3823		-19.531250
3824		-15.625000
3825		-21.484375
3826		-15.625000
3827		-21.484375
3828		-17.578125
3829		-21.484375
3830		-17.578125
3831		-21.484375
3832		-19.531250
3833		-23.437500
3834		-19.531250
3835		-23.437500
3836		-19.531250
3837		-23.437500
3838		-19.531250
3839		-25.390625
3840		-21.484375
3841		-25.390625
3842		-21.484375
3843		-25.390625
3844		-21.484375
3845		-25.390625
3846		-21.484375
3847		-25.390625
3848		-21.484375
3849		-25.390625
3850		-23.437500
3851		-27.343750
3852		-23.437500
3853		-27.343750
3854		-23.437500
3855		-27.343750
3856		-23.437500
3857		-27.343750
3858		-23.437500
3859		-27.343750
3860		-25.390625
3861		-27.343750
3862		-25.390625
3863		-27.343750
3864		-25.390625
3865		-29.296875
3866		-25.390625
3867		-29.296875
3868		-25.390625
3869		-29.296875
3870		-25.390625
3871		-29.296875
3872		-25.390625
3873		-29.296875
3874		-25.390625
3875		-29.296875
3876		-25.390625
3877		-29.296875
3878		-25.390625
3879		-29.296875
3880		-25.390625
3881		-29.296875
3882		-25.390625
3883		-29.296875
3884		-25.390625
3885		-29.296875
3886		-25.390625
3887		-29.296875
3888		-25.390625
3889		-29.296875
3890		-25.390625
3891		-29.296875
3892		-25.390625
3893		-29.296875
3894		-25.390625
3895		-29.296875
3896		-25.390625
3897		-29.296875
3898		-25.390625
3899		-29.296875
3900		-25.390625
3901		-27.343750
3902		-25.390625
3903		-27.343750
3904		-25.390625
3905		-27.343750
3906		-25.390625
3907		-27.343750
3908		-23.437500
3909		-27.343750
3910		-23.437500
3911		-27.343750
3912		-23.437500
3913		-27.343750
3914		-23.437500
3915		-27.343750
3916		-23.437500
3917		-25.390625
3918		-23.437500
3919		-27.343750
3920		-21.484375
3921		-25.390625
3922		-21.484375
3923		-25.390625
3924		-19.531250
3925		-25.390625
3926		-21.484375
3927		-23.437500
3928		-21.484375
3929		-23.437500
3930		-19.531250
3931		-23.437500
3932		-19.531250
3933		-23.437500
3934		-19.531250
3935		-23.437500
3936		-17.578125
3937		-21.484375
3938		-19.531250
3939		-21.484375
3940		-17.578125
3941		-19.531250
3942		-17.578125
3943		-19.531250
3944		-15.625000
3945		-19.531250
3946		-15.625000
3947		-19.531250
3948		-15.625000
3949		-17.578125
3950		-13.671875
3951		-17.578125
3952		-13.671875
3953		-17.578125
3954		-13.671875
3955		-15.625000
3956		-13.671875
3957		-15.625000
3958		-11.718750
3959		-15.625000
3960		-11.718750
3961		-13.671875
3962		-11.718750
3963		-13.671875
3964		-9.765625
3965		-13.671875
3966		-9.765625
3967		-11.718750
3968		-7.812500
3969		-11.718750
3970		-7.812500
3971		-11.718750
3972		-7.812500
3973		-9.765625
3974		-5.859375
3975		-9.765625
3976		-5.859375
3977		-7.812500
3978		-5.859375
3979		-7.812500
3980		-3.906250
3981		-7.812500
3982		-3.906250
3983		-5.859375
3984		-1.953125
3985		-5.859375
3986		-1.953125
3987		-3.906250
3988		-1.953125
3989		-3.906250
3990		0.000000
3991		-3.906250
3992		0.000000
3993		-1.953125
3994		1.953125
3995		-1.953125
3996		1.953125
3997		-1.953125
3998		1.953125
3999		0.000000
4000		3.906250
4001		0.000000
4002		3.906250
4003		0.000000
4004		3.906250
4005		1.953125
4006		5.859375
4007		1.953125
4008		5.859375
4009		3.906250
4010		7.812500
4011		3.906250
4012		7.812500
4013		3.906250
4014		9.765625
4015		5.859375
4016		9.765625
4017		5.859375
4018		9.765625
4019		7.812500
4020		11.718750
4021		7.812500
4022		11.718750
4023		7.812500
4024		11.718750
4025		9.765625
4026		13.671875
4027		9.765625
4028		13.671875
4029		11.718750
4030		13.671875
4031		11.718750
4032		15.625000
4033		11.718750
4034		15.625000
4035		13.671875
4036		17.578125
4037		13.671875
4038		17.578125
4039		13.671875
4040		17.578125
4041		13.671875
4042		17.578125
4043		15.625000
4044		19.531250
4045		15.625000
4046		19.531250
4047		17.578125
4048		19.531250
4049		17.578125
4050		21.484375
4051		17.578125
4052		21.484375
4053		17.578125
4054		21.484375
4055		19.531250
4056		21.484375
4057		19.531250
4058		23.437500
4059		19.531250
4060		23.437500
4061		21.484375
4062		23.437500
4063		21.484375
4064		25.390625
4065		21.484375
4066		25.390625
4067		21.484375
4068		25.390625
4069		23.437500
4070		27.343750
4071		23.437500
4072		27.343750
4073		23.437500
4074		27.343750
4075		23.437500
4076		27.343750
4077		25.390625
4078		27.343750
4079		25.390625
4080		27.343750
4081		25.390625
4082		29.296875
4083		25.390625
4084		29.296875
4085		25.390625
4086		29.296875
4087		25.390625
4088		29.296875
4089		27.343750
4090		29.296875
4091		25.390625
4092		29.296875
4093		27.343750
4094		31.250000
4095		27.343750
4096		31.250000
4097		27.343750
4098		31.250000
4099		27.343750
4100		31.250000
4101		27.343750
4102		31.250000
4103		27.343750
4104		31.250000
4105		27.343750
4106		31.250000
4107		27.343750
4108		31.250000
4109		27.343750
4110		31.250000
4111		29.296875
4112		31.250000
4113		29.296875
4114		31.250000
4115		29.296875
4116		31.250000
4117		27.343750
4118		31.250000
4119		29.296875
4120		31.250000
4121		29.296875
4122		31.250000
4123		29.296875
4124		31.250000
4125		27.343750
4126		31.250000
4127		29.296875
4128		31.250000
4129		27.343750
4130		31.250000
4131		27.343750
4132		31.250000
4133		27.343750
4134		31.250000
4135		27.343750
4136		31.250000
4137		27.343750
4138		31.250000
4139		27.343750
4140		31.250000
4141		27.343750
4142		31.250000
4143		27.343750
4144		31.250000
4145		27.343750
4146		29.296875
4147		27.343750
4148		29.296875
4149		25.390625
4150		29.296875
4151		25.390625
4152		29.296875
4153		25.390625
4154		29.296875
4155		25.390625
4156		29.296875
4157		25.390625
4158		29.296875
4159		23.437500
4160		27.343750
4161		23.437500
4162		27.343750
4163		23.437500
4164		27.343750
4165		23.437500
4166		27.343750
4167		23.437500
4168		27.343750
4169		23.437500
4170		27.343750
4171		23.437500
4172		27.343750
4173		21.484375
4174		25.390625
4175		21.484375
4176		25.390625
4177		21.484375
4178		23.437500
4179		21.484375
4180		23.437500
4181		19.531250
4182		23.437500
4183		19.531250
4184		23.437500
4185		19.531250
4186		21.484375
4187		17.578125
4188		21.484375
4189		17.578125
4190		21.484375
4191		17.578125
4192		19.531250
4193		15.625000
4194		19.531250
4195		15.625000
4196		19.531250
4197		15.625000
4198		17.578125
4199		13.671875
4200		17.578125
4201		13.671875
4202		17.578125
4203		11.718750
4204		17.578125
4205		13.671875
4206		15.625000
4207		11.718750
4208		15.625000
4209		11.718750
4210		15.625000
4211		9.765625
4212		13.671875
4213		9.765625
4214		13.671875
4215		7.812500
4216		13.671875
4217		7.812500
4218		11.718750
4219		7.812500
4220		11.718750
4221		5.859375
4222		9.765625
4223		5.859375
4224		9.765625
4225		5.859375
4226		7.812500
4227		3.906250
4228		7.812500
4229		3.906250
4230		7.812500
4231		1.953125
4232		7.812500
4233		1.953125
4234		5.859375
4235		1.953125
4236		5.859375
4237		0.000000
4238		5.859375
4239		0.000000
4240		3.906250
4241		0.000000
4242		1.953125
4243		-1.953125
4244		1.953125
4245		-1.953125
4246		1.953125
4247		-3.906250
4248		0.000000
4249		-3.906250
4250		0.000000
4251		-3.906250
4252		-1.953125
4253		-5.859375
4254		-1.953125
4255		-5.859375
4256		-1.953125
4257		-7.812500
4258		-3.906250
4259		-7.812500
4260		-3.906250
4261		-9.765625
4262		-3.906250
4263		-9.765625
4264		-5.859375
4265		-9.765625
4266		-5.859375
4267		-11.718750
4268		-7.812500
4269		-11.718750
4270		-7.812500
4271		-13.671875
4272		-9.765625
4273		-13.671875
4274		-9.765625
4275		-13.671875
4276		-9.765625
4277		-13.671875
4278		-11.718750
4279		-15.625000
4280		-11.718750
4281		-15.625000
4282		-11.718750
4283		-15.625000
4284		-13.671875
4285		-17.578125
4286		-13.671875
4287		-19.531250
4288		-13.671875
4289		-19.531250
4290		-15.625000
4291		-19.531250
4292		-15.625000
4293		-19.531250
4294		-15.625000
4295		-21.484375
4296		-17.578125
4297		-21.484375
4298		-17.578125
4299		-21.484375
4300		-17.578125
4301		-21.484375
4302		-19.531250
4303		-23.437500
4304		-17.578125
4305		-23.437500
4306		-19.531250
4307		-23.437500
4308		-19.531250
4309		-25.390625
4310		-21.484375
4311		-25.390625
4312		-21.484375
4313		-25.390625
4314		-21.484375
4315		-25.390625
4316		-21.484375
4317		-27.343750
4318		-21.484375
4319		-25.390625
4320		-23.437500
4321		-27.343750
4322		-23.437500
4323		-27.343750
4324		-23.437500
4325		-27.343750
4326		-23.437500
4327		-27.343750
4328		-23.437500
4329		-27.343750
4330		-25.390625
4331		-27.343750
4332		-25.390625
4333		-27.343750
4334		-25.390625
4335		-29.296875
4336		-25.390625
4337		-29.296875
4338		-25.390625
4339		-29.296875
4340		-25.390625
4341		-29.296875
4342		-25.390625
4343		-29.296875
4344		-25.390625
4345		-29.296875
4346		-25.390625
4347		-29.296875
4348		-25.390625
4349		-29.296875
4350		-27.343750
4351		-29.296875
4352		-25.390625
4353		-29.296875
4354		-27.343750
4355		-31.250000
4356		-25.390625
4357		-29.296875
4358		-27.343750
4359		-29.296875
4360		-27.343750
4361		-29.296875
4362		-27.343750
4363		-29.296875
4364		-25.390625
4365		-29.296875
4366		-25.390625
4367		-29.296875
4368		-25.390625
4369		-29.296875
4370		-25.390625
4371		-29.296875
4372		-25.390625
4373		-29.296875
4374		-25.390625
4375		-29.296875
4376		-25.390625
4377		-29.296875
4378		-25.390625
4379		-27.343750
4380		-25.390625
4381		-27.343750
4382		-23.437500
4383		-27.343750
4384		-23.437500
4385		-27.343750
4386		-23.437500
4387		-27.343750
4388		-21.484375
4389		-27.343750
4390		-23.437500
4391		-25.390625
4392		-23.437500
4393		-25.390625
4394		-21.484375
4395		-25.390625
4396		-21.484375
4397		-25.390625
4398		-21.484375
4399		-25.390625
4400		-21.484375
4401		-23.437500
4402		-21.484375
4403		-23.437500
4404		-19.531250
4405		-23.437500
4406		-19.531250
4407		-21.484375
4408		-19.531250
4409		-21.484375
4410		-19.531250
4411		-21.484375
4412		-17.578125
4413		-21.484375
4414		-17.578125
4415		-21.484375
4416		-17.578125
4417		-19.531250
4418		-15.625000
4419		-19.531250
4420		-15.625000
4421		-19.531250
4422		-15.625000
4423		-17.578125
4424		-13.671875
4425		-17.578125
4426		-13.671875
4427		-15.625000
4428		-11.718750
4429		-15.625000
4430		-11.718750
4431		-15.625000
4432		-11.718750
4433		-13.671875
4434		-11.718750
4435		-13.671875
4436		-9.765625
4437		-13.671875
4438		-9.765625
4439		-13.671875
4440		-7.812500
4441		-11.718750
4442		-7.812500
4443		-11.718750
4444		-7.812500
4445		-11.718750
4446		-5.859375
4447		-9.765625
4448		-5.859375
4449		-7.812500
4450		-5.859375
4451		-7.812500
4452		-3.906250
4453		-7.812500
4454		-3.906250
4455		-5.859375
4456		-1.953125
4457		-5.859375
4458		-1.953125
4459		-3.906250
4460		-1.953125
4461		-3.906250
4462		0.000000
4463		-3.906250
4464		0.000000
4465		-1.953125
4466		0.000000
4467		-1.953125
4468		1.953125
4469		0.000000
4470		1.953125
4471		0.000000
4472		3.906250
4473		0.000000
4474		3.906250
4475		1.953125
4476		5.859375
4477		1.953125
4478		5.859375
4479		1.953125
4480		5.859375
4481		3.906250
4482		7.812500
4483		3.906250
4484		7.812500
4485		3.906250
4486		7.812500
4487		5.859375
4488		9.765625
4489		5.859375
4490		11.718750
4491		7.812500
4492		11.718750
4493		7.812500
4494		11.718750
4495		7.812500
4496		13.671875
4497		9.765625
4498		13.671875
4499		9.765625
4500		13.671875
4501		11.718750
4502		15.625000
4503		11.718750
4504		15.625000
4505		11.718750
4506		15.625000
4507		11.718750
4508		17.578125
4509		13.671875
4510		17.578125
4511		13.671875
4512		17.578125
4513		15.625000
4514		19.531250
4515		15.625000
4516		19.531250
4517		15.625000
4518		19.531250
4519		17.578125
4520		21.484375
4521		17.578125
4522		21.484375
4523		17.578125
4524		21.484375
4525		19.531250
4526		23.437500
4527		19.531250
4528		23.437500
4529		17.578125
4530		23.437500
4531		21.484375
4532		23.437500
4533		21.484375
4534		23.437500
4535		21.484375
4536		25.390625
4537		21.484375
4538		25.390625
4539		21.484375
4540		25.390625
4541		21.484375
4542		25.390625
4543		23.437500
4544		25.390625
4545		23.437500
4546		27.343750
4547		23.437500
4548		27.343750
4549		23.437500
4550		27.343750
4551		25.390625
4552		27.343750
4553		25.390625
4554		29.296875
4555		25.390625
4556		29.296875
4557		25.390625
4558		29.296875
4559		25.390625
4560		29.296875
4561		25.390625
4562		29.296875
4563		25.390625
4564		31.250000
4565		27.343750
4566		31.250000
4567		27.343750
4568		31.250000
4569		27.343750
4570		31.250000
4571		27.343750
4572		31.250000
4573		27.343750
4574		31.250000
4575		27.343750
4576		31.250000
4577		27.343750
4578		31.250000
4579		27.343750
4580		31.250000
4581		27.343750
4582		31.250000
4583		27.343750
4584		31.250000
4585		27.343750
4586		31.250000
4587		29.296875
4588		31.250000
4589		29.296875
4590		31.250000
4591		27.343750
4592		33.203125
4593		29.296875
4594		31.250000
4595		27.343750
4596		31.250000
4597		27.343750
4598		31.250000
4599		29.296875
4600		31.250000
4601		27.343750
4602		31.250000
4603		27.343750
4604		31.250000
4605		27.343750
4606		31.250000
4607		27.343750
4608		31.250000
4609		27.343750
4610		31.250000
4611		27.343750
4612		31.250000
4613		27.343750
4614		31.250000
4615		23.437500
4616		33.203125
4617		27.343750
4618		29.296875
4619		25.390625
4620		29.296875
4621		27.343750
4622		29.296875
4623		25.390625
4624		29.296875
4625		25.390625
4626		29.296875
4627		25.390625
4628		29.296875
4629		25.390625
4630		29.296875
4631		25.390625
4632		29.296875
4633		23.437500
4634		27.343750
4635		23.437500
4636		27.343750
4637		23.437500
4638		27.343750
4639		23.437500
4640		27.343750
4641		21.484375
4642		25.390625
4643		21.484375
4644		25.390625
4645		21.484375
4646		25.390625
4647		21.484375
4648		25.390625
4649		21.484375
4650		23.437500
4651		19.531250
4652		23.437500
4653		19.531250
4654		23.437500
4655		17.578125
4656		23.437500
4657		17.578125
4658		21.484375
4659		17.578125
4660		21.484375
4661		17.578125
4662		19.531250
4663		15.625000
4664		19.531250
4665		15.625000
4666		19.531250
4667		15.625000
4668		19.531250
4669		13.671875
4670		17.578125
4671		13.671875
4672		17.578125
4673		13.671875
4674		17.578125
4675		11.718750
4676		17.578125
4677		11.718750
4678		15.625000
4679		11.718750
4680		15.625000
4681		9.765625
4682		13.671875
4683		9.765625
4684		13.671875
4685		9.765625
4686		13.671875
4687		7.812500
4688		11.718750
4689		7.812500
4690		11.718750
4691		5.859375
4692		11.718750
4693		5.859375
4694		9.765625
4695		5.859375
4696		9.765625
4697		5.859375
4698		7.812500
4699		3.906250
4700		7.812500
4701		1.953125
4702		5.859375
4703		1.953125
4704		5.859375
4705		1.953125
4706		5.859375
4707		1.953125
4708		3.906250
4709		0.000000
4710		3.906250
4711		0.000000
4712		3.906250
4713		-1.953125
4714		1.953125
4715		-3.906250
4716		1.953125
4717		-3.906250
4718		0.000000
4719		-3.906250
4720		0.000000
4721		-3.906250
4722		0.000000
4723		-5.859375
4724		-1.953125
4725		-5.859375
4726		-1.953125
4727		-5.859375
4728		-3.906250
4729		-7.812500
4730		-3.906250
4731		-7.812500
4732		-3.906250
4733		-9.765625
4734		-5.859375
4735		-9.765625
4736		-5.859375
4737		-9.765625
4738		-7.812500
4739		-11.718750
4740		-7.812500
4741		-13.671875
4742		-7.812500
4743		-13.671875
4744		-9.765625
4745		-13.671875
4746		-9.765625
4747		-15.625000
4748		-9.765625
4749		-15.625000
4750		-11.718750
4751		-15.625000
4752		-11.718750
4753		-17.578125
4754		-13.671875
4755		-17.578125
4756		-13.671875
4757		-17.578125
4758		-13.671875
4759		-19.531250
4760		-13.671875
4761		-19.531250
4762		-15.625000
4763		-19.531250
4764		-15.625000
4765		-21.484375
4766		-15.625000
4767		-21.484375
4768		-17.578125
4769		-21.484375
4770		-17.578125
4771		-21.484375
4772		-17.578125
4773		-23.437500
4774		-19.531250
4775		-23.437500
4776		-19.531250
4777		-23.437500
4778		-19.531250
4779		-23.437500
4780		-21.484375
4781		-25.390625
4782		-21.484375
4783		-25.390625
4784		-21.484375
4785		-25.390625
4786		-21.484375
4787		-25.390625
4788		-21.484375
4789		-25.390625
4790		-21.484375
4791		-27.343750
4792		-23.437500
4793		-27.343750
4794		-23.437500
4795		-27.343750
4796		-23.437500
4797		-29.296875
4798		-23.437500
4799		-27.343750
4800		-23.437500
4801		-27.343750
4802		-25.390625
4803		-29.296875
4804		-25.390625
4805		-29.296875
4806		-25.390625
4807		-29.296875
4808		-25.390625
4809		-29.296875
4810		-25.390625
4811		-29.296875
4812		-25.390625
4813		-29.296875
4814		-25.390625
4815		-31.250000
4816		-25.390625
4817		-29.296875
4818		-25.390625
4819		-29.296875
4820		-27.343750
4821		-29.296875
4822		-25.390625
4823		-29.296875
4824		-25.390625
4825		-29.296875
4826		-25.390625
4827		-29.296875
4828		-27.343750
4829		-29.296875
4830		-27.343750
4831		-29.296875
4832		-27.343750
4833		-31.250000
4834		-25.390625
4835		-31.250000
4836		-25.390625
4837		-29.296875
4838		-27.343750
4839		-31.250000
4840		-25.390625
4841		-29.296875
4842		-25.390625
4843		-29.296875
4844		-25.390625
4845		-29.296875
4846		-25.390625
4847		-29.296875
4848		-25.390625
4849		-29.296875
4850		-25.390625
4851		-27.343750
4852		-25.390625
4853		-27.343750
4854		-25.390625
4855		-29.296875
4856		-23.437500
4857		-27.343750
4858		-23.437500
4859		-27.343750
4860		-23.437500
4861		-27.343750
4862		-23.437500
4863		-25.390625
4864		-23.437500
4865		-25.390625
4866		-21.484375
4867		-25.390625
4868		-21.484375
4869		-25.390625
4870		-21.484375
4871		-25.390625
4872		-21.484375
4873		-23.437500
4874		-21.484375
4875		-23.437500
4876		-19.531250
4877		-23.437500
4878		-19.531250
4879		-23.437500
4880		-19.531250
4881		-23.437500
4882		-17.578125
4883		-21.484375
4884		-17.578125
4885		-21.484375
4886		-17.578125
4887		-21.484375
4888		-17.578125
4889		-19.531250
4890		-15.625000
4891		-19.531250
4892		-15.625000
4893		-19.531250
4894		-15.625000
4895		-17.578125
4896		-13.671875
4897		-17.578125
4898		-13.671875
4899		-15.625000
4900		-13.671875
4901		-15.625000
4902		-11.718750
4903		-15.625000
4904		-11.718750
4905		-13.671875
4906		-11.718750
4907		-13.671875
4908		-9.765625
4909		-13.671875
4910		-7.812500
4911		-11.718750
4912		-7.812500
4913		-11.718750
4914		-7.812500
4915		-11.718750
4916		-7.812500
4917		-9.765625
4918		-5.859375
4919		-9.765625
4920		-5.859375
4921		-7.812500
4922		-5.859375
4923		-7.812500
4924		-3.906250
4925		-7.812500
4926		-3.906250
4927		-7.812500
4928		-3.906250
4929		-5.859375
4930		-1.953125
4931		-3.906250
4932		0.000000
4933		-3.906250
4934		0.000000
4935		-3.906250
4936		0.000000
4937		-1.953125
4938		0.000000
4939		-1.953125
4940		1.953125
4941		-1.953125
4942		3.906250
4943		0.000000
4944		3.906250
4945		0.000000
4946		3.906250
4947		1.953125
4948		3.906250
4949		1.953125
4950		5.859375
4951		1.953125
4952		5.859375
4953		3.906250
4954		7.812500
4955		3.906250
4956		7.812500
4957		5.859375
4958		9.765625
4959		5.859375
4960		9.765625
4961		7.812500
4962		9.765625
4963		7.812500
4964		11.718750
4965		7.812500
4966		11.718750
4967		7.812500
4968		11.718750
4969		9.765625
4970		13.671875
4971		9.765625
4972		13.671875
4973		9.765625
4974		15.625000
4975		11.718750
4976		15.625000
4977		11.718750
4978		15.625000
4979		13.671875
4980		15.625000
4981		13.671875
4982		17.578125
4983		13.671875
4984		17.578125
4985		15.625000
4986		17.578125
4987		15.625000
4988		19.531250
4989		15.625000
4990		19.531250
4991		15.625000
4992		19.531250
4993		17.578125
4994		21.484375
4995		17.578125
4996		21.484375
4997		19.531250
4998		21.484375
4999		17.578125
5000		23.437500
5001		19.531250
5002		23.437500
5003		19.531250
5004		23.437500
5005		21.484375
5006		23.437500
5007		21.484375
5008		23.437500
5009		21.484375
5010		25.390625
5011		21.484375
5012		25.390625
5013		21.484375
5014		25.390625
5015		21.484375
5016		27.343750
5017		23.437500
5018		27.343750
5019		23.437500
5020		27.343750
5021		23.437500
5022		27.343750
5023		25.390625
5024		27.343750
5025		25.390625
5026		29.296875
5027		23.437500
5028		29.296875
5029		25.390625
5030		29.296875
5031		25.390625
5032		29.296875
5033		25.390625
5034		29.296875
5035		25.390625
5036		29.296875
5037		27.343750
5038		29.296875
5039		27.343750
5040		31.250000
5041		25.390625
5042		31.250000
5043		27.343750
5044		29.296875
5045		27.343750
5046		31.250000
5047		27.343750
5048		31.250000
5049		27.343750
5050		31.250000
5051		27.343750
5052		31.250000
5053		27.343750
5054		31.250000
5055		27.343750
5056		31.250000
5057		27.343750
5058		31.250000
5059		27.343750
5060		31.250000
5061		27.343750
5062		31.250000
5063		27.343750
5064		31.250000
5065		27.343750
5066		31.250000
5067		27.343750
5068		31.250000
5069		27.343750
5070		31.250000
5071		27.343750
5072		31.250000
5073		27.343750
5074		31.250000
5075		27.343750
5076		31.250000
5077		27.343750
5078		31.250000
5079		27.343750
5080		31.250000
5081		27.343750
5082		31.250000
5083		27.343750
5084		29.296875
5085		27.343750
5086		29.296875
5087		27.343750
5088		29.296875
5089		25.390625
5090		29.296875
5091		25.390625
5092		29.296875
5093		25.390625
5094		29.296875
5095		25.390625
5096		29.296875
5097		25.390625
5098		27.343750
5099		25.390625
5100		29.296875
5101		23.437500
5102		27.343750
5103		23.437500
5104		27.343750
5105		23.437500
5106		27.343750
5107		23.437500
5108		27.343750
5109		21.484375
5110		25.390625
5111		21.484375
5112		25.390625
5113		21.484375
5114		25.390625
5115		21.484375
5116		25.390625
5117		21.484375
5118		25.390625
5119		19.531250
5120		23.437500
5121		19.531250
5122		23.437500
5123		19.531250
5124		23.437500
5125		19.531250
5126		21.484375
5127		17.578125
5128		21.484375
5129		17.578125
5130		21.484375
5131		17.578125
5132		21.484375
5133		15.625000
5134		19.531250
5135		15.625000
5136		19.531250
5137		15.625000
5138		19.531250
5139		13.671875
5140		17.578125
5141		13.671875
5142		17.578125
5143		13.671875
5144		15.625000
5145		11.718750
5146		15.625000
5147		11.718750
5148		15.625000
5149		11.718750
5150		13.671875
5151		9.765625
5152		13.671875
5153		9.765625
5154		13.671875
5155		9.765625
5156		11.718750
5157		7.812500
5158		13.671875
5159		7.812500
5160		11.718750
5161		5.859375
5162		9.765625
5163		5.859375
5164		9.765625
5165		5.859375
5166		9.765625
5167		3.906250
5168		7.812500
5169		3.906250
5170		7.812500
5171		3.906250
5172		7.812500
5173		1.953125
5174		5.859375
5175		1.953125
5176		5.859375
5177		1.953125
5178		3.906250
5179		0.000000
5180		5.859375
5181		0.000000
5182		1.953125
5183		-1.953125
5184		1.953125
5185		-1.953125
5186		1.953125
5187		-1.953125
5188		0.000000
5189		-3.906250
5190		0.000000
5191		-3.906250
5192		-1.953125
5193		-5.859375
5194		-1.953125
5195		-7.812500
5196		-1.953125
5197		-5.859375
5198		-3.906250
5199		-7.812500
5200		-3.906250
5201		-7.812500
5202		-3.906250
5203		-9.765625
5204		-5.859375
5205		-9.765625
5206		-5.859375
5207		-11.718750
5208		-7.812500
5209		-11.718750
5210		-7.812500
5211		-11.718750
5212		-7.812500
5213		-13.671875
5214		-9.765625
5215		-13.671875
5216		-9.765625
5217		-15.625000
5218		-9.765625
5219		-15.625000
5220		-11.718750
5221		-15.625000
5222		-11.718750
5223		-17.578125
5224		-13.671875
5225		-17.578125
5226		-13.671875
5227		-17.578125
5228		-13.671875
5229		-17.578125
5230		-13.671875
5231		-19.531250
5232		-15.625000
5233		-19.531250
5234		-15.625000
5235		-21.484375
5236		-15.625000
5237		-21.484375
5238		-17.578125
5239		-21.484375
5240		-17.578125
5241		-21.484375
5242		-19.531250
5243		-23.437500
5244		-19.531250
5245		-23.437500
5246		-19.531250
5247		-23.437500
5248		-19.531250
5249		-23.437500
5250		-21.484375
5251		-25.390625
5252		-19.531250
5253		-25.390625
5254		-21.484375
5255		-25.390625
5256		-21.484375
5257		-25.390625
5258		-21.484375
5259		-25.390625
5260		-23.437500
5261		-27.343750
5262		-23.437500
5263		-27.343750
5264		-23.437500
5265		-27.343750
5266		-23.437500
5267		-27.343750
5268		-23.437500
5269		-29.296875
5270		-25.390625
5271		-27.343750
5272		-25.390625
5273		-29.296875
5274		-25.390625
5275		-29.296875
5276		-25.390625
5277		-31.250000
5278		-25.390625
5279		-29.296875
5280		-25.390625
5281		-29.296875
5282		-27.343750
5283		-29.296875
5284		-27.343750
5285		-31.250000
5286		-25.390625
5287		-29.296875
5288		-27.343750
5289		-31.250000
5290		-27.343750
5291		-29.296875
5292		-27.343750
5293		-31.250000
5294		-27.343750
5295		-31.250000
5296		-27.343750
5297		-31.250000
5298		-27.343750
5299		-31.250000
5300		-27.343750
5301		-31.250000
5302		-27.343750
5303		-31.250000
5304		-27.343750
5305		-31.250000
5306		-27.343750
5307		-29.296875
5308		-27.343750
5309		-29.296875
5310		-27.343750
5311		-31.250000
5312		-25.390625
5313		-31.250000
5314		-27.343750
5315		-29.296875
5316		-27.343750
5317		-29.296875
5318		-27.343750
5319		-29.296875
5320		-25.390625
5321		-29.296875
5322		-25.390625
5323		-29.296875
5324		-25.390625
5325		-29.296875
5326		-25.390625
5327		-27.343750
5328		-25.390625
5329		-27.343750
5330		-23.437500
5331		-29.296875
5332		-23.437500
5333		-27.343750
5334		-23.437500
5335		-27.343750
5336		-23.437500
5337		-27.343750
5338		-23.437500
5339		-25.390625
5340		-21.484375
5341		-25.390625
5342		-21.484375
5343		-25.390625
5344		-21.484375
5345		-23.437500
5346		-19.531250
5347		-23.437500
5348		-19.531250
5349		-23.437500
5350		-19.531250
5351		-23.437500
5352		-19.531250
5353		-23.437500
5354		-17.578125
5355		-21.484375
5356		-17.578125
5357		-21.484375
5358		-17.578125
5359		-21.484375
5360		-17.578125
5361		-19.531250
5362		-17.578125
5363		-19.531250
5364		-15.625000
5365		-19.531250
5366		-15.625000
5367		-17.578125
5368		-15.625000
5369		-17.578125
5370		-13.671875
5371		-17.578125
5372		-13.671875
5373		-15.625000
5374		-11.718750
5375		-15.625000
5376		-11.718750
5377		-15.625000
5378		-11.718750
5379		-13.671875
5380		-9.765625
5381		-13.671875
5382		-9.765625
5383		-11.718750
5384		-9.765625
5385		-11.718750
5386		-7.812500
5387		-11.718750
5388		-7.812500
5389		-9.765625
5390		-5.859375
5391		-9.765625
5392		-5.859375
5393		-9.765625
5394		-5.859375
5395		-7.812500
5396		-3.906250
5397		-7.812500
5398		-1.953125
5399		-5.859375
5400		-3.906250
5401		-5.859375
5402		-1.953125
5403		-5.859375
5404		-1.953125
5405		-3.906250
5406		-1.953125
5407		-3.906250
5408		0.000000
5409		-1.953125
5410		0.000000
5411		-1.953125
5412		1.953125
5413		-1.953125
5414		1.953125
5415		0.000000
5416		3.906250
5417		0.000000
5418		3.906250
5419		1.953125
5420		5.859375
5421		1.953125
5422		5.859375
5423		1.953125
5424		5.859375
5425		3.906250
5426		7.812500
5427		3.906250
5428		7.812500
5429		5.859375
5430		7.812500
5431		5.859375
5432		9.765625
5433		5.859375
5434		9.765625
5435		7.812500
5436		9.765625
5437		5.859375
5438		11.718750
5439		7.812500
5440		11.718750
5441		9.765625
5442		11.718750
5443		9.765625
5444		13.671875
5445		9.765625
5446		13.671875
5447		11.718750
5448		15.625000
5449		11.718750
5450		15.625000
5451		13.671875
5452		15.625000
5453		13.671875
5454		17.578125
5455		13.671875
5456		17.578125
5457		13.671875
5458		19.531250
5459		15.625000
5460		19.531250
5461		15.625000
5462		19.531250
5463		15.625000
5464		19.531250
5465		17.578125
5466		21.484375
5467		17.578125
5468		21.484375
5469		17.578125
5470		21.484375
5471		17.578125
5472		21.484375
5473		19.531250
5474		23.437500
5475		19.531250
5476		23.437500
5477		19.531250
5478		23.437500
5479		19.531250
5480		25.390625
5481		21.484375
5482		25.390625
5483		21.484375
5484		25.390625
5485		21.484375
5486		25.390625
5487		21.484375
5488		25.390625
5489		23.437500
5490		25.390625
5491		23.437500
5492		27.343750
5493		23.437500
5494		27.343750
5495		23.437500
5496		27.343750
5497		25.390625
5498		27.343750
5499		25.390625
5500		27.343750
5501		25.390625
5502		29.296875
5503		25.390625
5504		29.296875
5505		25.390625
5506		29.296875
5507		25.390625
5508		29.296875
5509		27.343750
5510		29.296875
5511		25.390625
5512		29.296875
5513		27.343750
5514		29.296875
5515		25.390625
5516		29.296875
5517		27.343750
5518		29.296875
5519		27.343750
5520		31.250000
5521		27.343750
5522		31.250000
5523		27.343750
5524		31.250000
5525		27.343750
5526		31.250000
5527		27.343750
5528		31.250000
5529		27.343750
5530		31.250000
5531		27.343750
5532		31.250000
5533		27.343750
5534		31.250000
5535		27.343750
5536		31.250000
5537		27.343750
5538		31.250000
5539		27.343750
5540		31.250000
5541		27.343750
5542		31.250000
5543		27.343750
5544		31.250000
5545		27.343750
5546		31.250000
5547		27.343750
5548		31.250000
5549		27.343750
5550		29.296875
5551		27.343750
5552		29.296875
5553		27.343750
5554		29.296875
5555		25.390625
5556		29.296875
5557		25.390625
5558		29.296875
5559		25.390625
5560		29.296875
5561		25.390625
5562		29.296875
5563		25.390625
5564		29.296875
5565		25.390625
5566		29.296875
5567		25.390625
5568		29.296875
5569		25.390625
5570		27.343750
5571		23.437500
5572		27.343750
5573		23.437500
5574		27.343750
5575		23.437500
5576		27.343750
5577		23.437500
5578		25.390625
5579		23.437500
5580		27.343750
5581		21.484375
5582		25.390625
5583		21.484375
5584		25.390625
5585		21.484375
5586		25.390625
5587		21.484375
5588		23.437500
5589		21.484375
5590		23.437500
5591		19.531250
5592		23.437500
5593		17.578125
5594		23.437500
5595		17.578125
5596		21.484375
5597		17.578125
5598		21.484375
5599		15.625000
5600		21.484375
5601		17.578125
5602		19.531250
5603		15.625000
5604		19.531250
5605		15.625000
5606		19.531250
5607		15.625000
5608		19.531250
5609		13.671875
5610		17.578125
5611		13.671875
5612		17.578125
5613		13.671875
5614		17.578125
5615		11.718750
5616		15.625000
5617		11.718750
5618		17.578125
5619		11.718750
5620		15.625000
5621		9.765625
5622		13.671875
5623		9.765625
5624		13.671875
5625		9.765625
5626		13.671875
5627		7.812500
5628		11.718750
5629		7.812500
5630		11.718750
5631		7.812500
5632		9.765625
5633		5.859375
5634		9.765625
5635		5.859375
5636		9.765625
5637		3.906250
5638		7.812500
5639		1.953125
5640		7.812500
5641		1.953125
5642		7.812500
5643		1.953125
5644		5.859375
5645		1.953125
5646		5.859375
5647		0.000000
5648		5.859375
5649		0.000000
5650		3.906250
5651		0.000000
5652		1.953125
5653		-1.953125
5654		1.953125
5655		-3.906250
5656		1.953125
5657		-1.953125
5658		1.953125
5659		-3.906250
5660		1.953125
5661		-5.859375
5662		0.000000
5663		-5.859375
5664		0.000000
5665		-5.859375
5666		-1.953125
5667		-5.859375
5668		-3.906250
5669		-7.812500
5670		-3.906250
5671		-7.812500
5672		-5.859375
5673		-9.765625
5674		-5.859375
5675		-9.765625
5676		-5.859375
5677		-9.765625
5678		-5.859375
5679		-11.718750
5680		-7.812500
5681		-13.671875
5682		-7.812500
5683		-13.671875
5684		-9.765625
5685		-13.671875
5686		-9.765625
5687		-13.671875
5688		-9.765625
5689		-15.625000
5690		-11.718750
5691		-15.625000
5692		-11.718750
5693		-17.578125
5694		-11.718750
5695		-17.578125
5696		-13.671875
5697		-19.531250
5698		-13.671875
5699		-19.531250
5700		-13.671875
5701		-19.531250
5702		-13.671875
5703		-19.531250
5704		-15.625000
5705		-19.531250
5706		-15.625000
5707		-21.484375
5708		-15.625000
5709		-21.484375
5710		-17.578125
5711		-23.437500
5712		-17.578125
5713		-23.437500
5714		-17.578125
5715		-23.437500
5716		-17.578125
5717		-25.390625
5718		-19.531250
5719		-25.390625
5720		-19.531250
5721		-25.390625
5722		-21.484375
5723		-25.390625
5724		-19.531250
5725		-27.343750
5726		-21.484375
5727		-27.343750
5728		-21.484375
5729		-27.343750
5730		-21.484375
5731		-27.343750
5732		-23.437500
5733		-29.296875
5734		-23.437500
5735		-27.343750
5736		-23.437500
5737		-29.296875
5738		-23.437500
5739		-29.296875
5740		-23.437500
5741		-29.296875
5742		-25.390625
5743		-31.250000
5744		-25.390625
5745		-29.296875
5746		-25.390625
5747		-31.250000
5748		-25.390625
5749		-31.250000
5750		-25.390625
5751		-31.250000
5752		-25.390625
5753		-31.250000
5754		-27.343750
5755		-29.296875
5756		-27.343750
5757		-29.296875
5758		-27.343750
5759		-31.250000
5760		-27.343750
5761		-31.250000
5762		-27.343750
5763		-31.250000
5764		-27.343750
5765		-31.250000
5766		-27.343750
5767		-31.250000
5768		-27.343750
5769		-31.250000
5770		-27.343750
5771		-31.250000
5772		-27.343750
5773		-31.250000
5774		-27.343750
5775		-31.250000
5776		-27.343750
5777		-31.250000
5778		-27.343750
5779		-29.296875
5780		-27.343750
5781		-31.250000
5782		-27.343750
5783		-29.296875
5784		-25.390625
5785		-29.296875
5786		-27.343750
5787		-29.296875
5788		-25.390625
5789		-29.296875
5790		-25.390625
5791		-29.296875
5792		-25.390625
5793		-29.296875
5794		-25.390625
5795		-29.296875
5796		-25.390625
5797		-27.343750
5798		-25.390625
5799		-27.343750
5800		-25.390625
5801		-27.343750
5802		-25.390625
5803		-27.343750
5804		-23.437500
5805		-27.343750
5806		-23.437500
5807		-27.343750
5808		-23.437500
5809		-25.390625
5810		-23.437500
5811		-25.390625
5812		-21.484375
5813		-25.390625
5814		-21.484375
5815		-25.390625
5816		-21.484375
5817		-25.390625
5818		-21.484375
5819		-23.437500
5820		-19.531250
5821		-23.437500
5822		-19.531250
5823		-23.437500
5824		-19.531250
5825		-21.484375
5826		-17.578125
5827		-21.484375
5828		-17.578125
5829		-21.484375
5830		-17.578125
5831		-21.484375
5832		-17.578125
5833		-19.531250
5834		-15.625000
5835		-19.531250
5836		-15.625000
5837		-17.578125
5838		-15.625000
5839		-17.578125
5840		-13.671875
5841		-17.578125
5842		-13.671875
5843		-15.625000
5844		-13.671875
5845		-15.625000
5846		-11.718750
5847		-15.625000
5848		-11.718750
5849		-13.671875
5850		-11.718750
5851		-13.671875
5852		-9.765625
5853		-13.671875
5854		-9.765625
5855		-11.718750
5856		-9.765625
5857		-13.671875
5858		-5.859375
5859		-13.671875
5860		-5.859375
5861		-13.671875
5862		-3.906250
5863		-9.765625
5864		-5.859375
5865		-7.812500
5866		-5.859375
5867		-7.812500
5868		-3.906250
5869		-5.859375
5870		-3.906250
5871		-5.859375
5872		-1.953125
5873		-7.812500
5874		0.000000
5875		-7.812500
5876		1.953125
5877		-5.859375
5878		1.953125
5879		-3.906250
5880		0.000000
5881		-1.953125
5882		1.953125
5883		-1.953125
5884		1.953125
5885		0.000000
5886		1.953125
5887		0.000000
5888		3.906250
5889		0.000000
5890		5.859375
5891		-1.953125
5892		7.812500
5893		0.000000
5894		7.812500
5895		0.000000
5896		9.765625
5897		3.906250
5898		7.812500
5899		3.906250
5900		7.812500
5901		5.859375
5902		9.765625
5903		5.859375
5904		9.765625
5905		7.812500
5906		9.765625
5907		5.859375
5908		13.671875
5909		5.859375
5910		13.671875
5911		5.859375
5912		15.625000
5913		9.765625
5914		13.671875
5915		9.765625
5916		13.671875
5917		11.718750
5918		13.671875
5919		11.718750
5920		15.625000
5921		11.718750
5922		15.625000
5923		9.765625
5924		21.484375
5925		9.765625
5926		19.531250
5927		11.718750
5928		21.484375
5929		13.671875
5930		21.484375
5931		15.625000
5932		19.531250
5933		15.625000
5934		19.531250
5935		17.578125
5936		19.531250
5937		17.578125
5938		21.484375
5939		17.578125
5940		21.484375
5941		15.625000
5942		25.390625
5943		15.625000
5944		25.390625
5945		17.578125
5946		25.390625
5947		19.531250
5948		23.437500
5949		21.484375
5950		23.437500
5951		21.484375
5952		23.437500
5953		21.484375
5954		25.390625
5955		21.484375
5956		25.390625
5957		21.484375
5958		29.296875
5959		19.531250
5960		29.296875
5961		19.531250
5962		29.296875
5963		23.437500
5964		27.343750
5965		23.437500
5966		27.343750
5967		23.437500
5968		27.343750
5969		25.390625
5970		27.343750
5971		25.390625
5972		27.343750
5973		25.390625
5974		29.296875
5975		23.437500
5976		31.250000
5977		23.437500
5978		31.250000
5979		23.437500
5980		33.203125
5981		25.390625
5982		29.296875
5983		27.343750
5984		29.296875
5985		25.390625
5986		29.296875
5987		27.343750
5988		29.296875
5989		27.343750
5990		29.296875
5991		25.390625
5992		33.203125
5993		25.390625
5994		33.203125
5995		25.390625
5996		33.203125
5997		27.343750
5998		31.250000
5999		27.343750
6000		31.250000
6001		27.343750
6002		31.250000
6003		27.343750
6004		31.250000
6005		27.343750
6006		31.250000
6007		25.390625
6008		33.203125
6009		25.390625
6010		33.203125
6011		25.390625
6012		33.203125
6013		25.390625
6014		33.203125
6015		27.343750
6016		31.250000
6017		27.343750
6018		31.250000
6019		27.343750
6020		31.250000
6021		27.343750
6022		29.296875
6023		27.343750
6024		29.296875
6025		23.437500
6026		33.203125
6027		23.437500
6028		31.250000
6029		23.437500
6030		33.203125
6031		25.390625
6032		29.296875
6033		25.390625
6034		29.296875
6035		25.390625
6036		29.296875
6037		25.390625
6038		29.296875
6039		25.390625
6040		27.343750
6041		25.390625
6042		27.343750
6043		21.484375
6044		29.296875
6045		23.437500
6046		29.296875
6047		23.437500
6048		27.343750
6049		23.437500
6050		27.343750
6051		23.437500
6052		25.390625
6053		21.484375
6054		25.390625
6055		21.484375
6056		25.390625
6057		21.484375
6058		23.437500
6059		21.484375
6060		25.390625
6061		17.578125
6062		25.390625
6063		19.531250
6064		23.437500
6065		19.531250
6066		23.437500
6067		19.531250
6068		21.484375
6069		17.578125
6070		21.484375
6071		17.578125
6072		21.484375
6073		17.578125
6074		19.531250
6075		15.625000
6076		21.484375
6077		13.671875
6078		21.484375
6079		13.671875
6080		19.531250
6081		13.671875
6082		17.578125
6083		13.671875
6084		17.578125
6085		13.671875
6086		15.625000
6087		11.718750
6088		15.625000
6089		11.718750
6090		15.625000
6091		11.718750
6092		15.625000
6093		9.765625
6094		13.671875
6095		9.765625
6096		13.671875
6097		9.765625
6098		11.718750
6099		7.812500
6100		11.718750
6101		7.812500
6102		11.718750
6103		5.859375
6104		9.765625
6105		5.859375
6106		9.765625
6107		5.859375
6108		7.812500
6109		3.906250
6110		7.812500
6111		3.906250
6112		7.812500
6113		3.906250
6114		5.859375
6115		1.953125
6116		7.812500
6117		1.953125
6118		5.859375
6119		0.000000
6120		3.906250
6121		0.000000
6122		3.906250
6123		0.000000
6124		3.906250
6125		-1.953125
6126		1.953125
6127		-1.953125
6128		1.953125
6129		-1.953125
6130		0.000000
6131		-3.906250
6132		0.000000
6133		-3.906250
6134		-1.953125
6135		-5.859375
6136		-1.953125
6137		-5.859375
6138		-1.953125
6139		-5.859375
6140		-3.906250
6141		-7.812500
6142		-3.906250
6143		-9.765625
6144		-3.906250
6145		-9.765625
6146		-5.859375
6147		-9.765625
6148		-5.859375
6149		-11.718750
6150		-7.812500
6151		-11.718750
6152		-7.812500
6153		-11.718750
6154		-9.765625
6155		-11.718750
6156		-9.765625
6157		-13.671875
6158		-9.765625
6159		-15.625000
6160		-9.765625
6161		-15.625000
6162		-11.718750
6163		-15.625000
6164		-11.718750
6165		-17.578125
6166		-13.671875
6167		-17.578125
6168		-13.671875
6169		-17.578125
6170		-13.671875
6171		-17.578125
6172		-15.625000
6173		-19.531250
6174		-15.625000
6175		-21.484375
6176		-15.625000
6177		-21.484375
6178		-17.578125
6179		-21.484375
6180		-17.578125
6181		-21.484375
6182		-17.578125
6183		-23.437500
6184		-17.578125
6185		-23.437500
6186		-19.531250
6187		-23.437500
6188		-19.531250
6189		-23.437500
6190		-21.484375
6191		-23.437500
6192		-21.484375
6193		-25.390625
6194		-19.531250
6195		-25.390625
6196		-21.484375
6197		-25.390625
6198		-21.484375
6199		-27.343750
6200		-23.437500
6201		-27.343750
6202		-23.437500
6203		-27.343750
6204		-23.437500
6205		-27.343750
6206		-23.437500
6207		-27.343750
6208		-25.390625
6209		-29.296875
6210		-23.437500
6211		-29.296875
6212		-25.390625
6213		-29.296875
6214		-25.390625
6215		-29.296875
6216		-25.390625
6217		-29.296875
6218		-25.390625
6219		-29.296875
6220		-25.390625
6221		-29.296875
6222		-27.343750
6223		-29.296875
6224		-25.390625
6225		-31.250000
6226		-25.390625
6227		-31.250000
6228		-25.390625
6229		-31.250000
6230		-27.343750
6231		-31.250000
6232		-27.343750
6233		-31.250000
6234		-27.343750
6235		-31.250000
6236		-27.343750
6237		-31.250000
6238		-27.343750
6239		-31.250000
6240		-27.343750
6241		-31.250000
6242		-27.343750
6243		-31.250000
6244		-27.343750
6245		-31.250000
6246		-27.343750
6247		-31.250000
6248		-27.343750
6249		-31.250000
6250		-27.343750
6251		-31.250000
6252		-27.343750
6253		-29.296875
6254		-27.343750
6255		-31.250000
6256		-25.390625
6257		-29.296875
6258		-27.343750
6259		-29.296875
6260		-23.437500
6261		-31.250000
6262		-25.390625
6263		-29.296875
6264		-25.390625
6265		-29.296875
6266		-25.390625
6267		-29.296875
6268		-25.390625
6269		-27.343750
6270		-25.390625
6271		-27.343750
6272		-25.390625
6273		-27.343750
6274		-23.437500
6275		-27.343750
6276		-23.437500
6277		-29.296875
6278		-23.437500
6279		-27.343750
6280		-23.437500
6281		-25.390625
6282		-23.437500
6283		-25.390625
6284		-21.484375
6285		-25.390625
6286		-21.484375
6287		-25.390625
6288		-21.484375
6289		-23.437500
6290		-21.484375
6291		-23.437500
6292		-19.531250
6293		-23.437500
6294		-19.531250
6295		-23.437500
6296		-19.531250
6297		-21.484375
6298		-17.578125
6299		-21.484375
6300		-17.578125
6301		-21.484375
6302		-17.578125
6303		-19.531250
6304		-17.578125
6305		-19.531250
6306		-15.625000
6307		-19.531250
6308		-15.625000
6309		-17.578125
6310		-15.625000
6311		-17.578125
6312		-13.671875
6313		-17.578125
6314		-13.671875
6315		-15.625000
6316		-13.671875
6317		-15.625000
6318		-11.718750
6319		-15.625000
6320		-11.718750
6321		-13.671875
6322		-9.765625
6323		-13.671875
6324		-9.765625
6325		-13.671875
6326		-9.765625
6327		-11.718750
6328		-7.812500
6329		-11.718750
6330		-7.812500
6331		-9.765625
6332		-7.812500
6333		-9.765625
6334		-5.859375
6335		-9.765625
6336		-5.859375
6337		-7.812500
6338		-5.859375
6339		-7.812500
6340		-3.906250
6341		-5.859375
6342		-3.906250
6343		-5.859375
6344		-1.953125
6345		-5.859375
6346		-1.953125
6347		-3.906250
6348		-1.953125
6349		-3.906250
6350		0.000000
6351		-1.953125
6352		0.000000
6353		-1.953125
6354		1.953125
6355		-1.953125
6356		1.953125
6357		0.000000
6358		1.953125
6359		0.000000
6360		3.906250
6361		0.000000
6362		3.906250
6363		1.953125
6364		3.906250
6365		1.953125
6366		5.859375
6367		3.906250
6368		5.859375
6369		3.906250
6370		7.812500
6371		3.906250
6372		7.812500
6373		5.859375
6374		7.812500
6375		5.859375
6376		9.765625
6377		7.812500
6378		9.765625
6379		7.812500
6380		11.718750
6381		7.812500
6382		11.718750
6383		9.765625
6384		11.718750
6385		9.765625
6386		13.671875
6387		9.765625
6388		15.625000
6389		11.718750
6390		13.671875
6391		11.718750
6392		15.625000
6393		13.671875
6394		15.625000
6395		13.671875
6396		15.625000
6397		13.671875
6398		17.578125
6399		15.625000
6400		17.578125
6401		15.625000
6402		19.531250
6403		15.625000
6404		19.531250
6405		15.625000
6406		19.531250
6407		17.578125
6408		19.531250
6409		17.578125
6410		21.484375
6411		17.578125
6412		21.484375
6413		19.531250
6414		21.484375
6415		19.531250
6416		23.437500
6417		19.531250
6418		23.437500
6419		19.531250
6420		23.437500
6421		21.484375
6422		25.390625
6423		21.484375
6424		25.390625
6425		21.484375
6426		25.390625
6427		21.484375
6428		25.390625
6429		23.437500
6430		25.390625
6431		23.437500
6432		25.390625
6433		23.437500
6434		27.343750
6435		23.437500
6436		27.343750
6437		23.437500
6438		27.343750
6439		25.390625
6440		27.343750
6441		25.390625
6442		27.343750
6443		25.390625
6444		29.296875
6445		23.437500
6446		29.296875
6447		25.390625
6448		29.296875
6449		25.390625
6450		29.296875
6451		27.343750
6452		29.296875
6453		27.343750
6454		29.296875
6455		25.390625
6456		29.296875
6457		27.343750
6458		29.296875
6459		27.343750
6460		29.296875
6461		27.343750
6462		31.250000
6463		27.343750
6464		31.250000
6465		27.343750
6466		31.250000
6467		27.343750
6468		31.250000
6469		27.343750
6470		31.250000
6471		27.343750
6472		31.250000
6473		27.343750
6474		31.250000
6475		27.343750
6476		31.250000
6477		27.343750
6478		31.250000
6479		27.343750
6480		31.250000
6481		27.343750
6482		31.250000
6483		27.343750
6484		31.250000
6485		27.343750
6486		31.250000
6487		27.343750
6488		31.250000
6489		27.343750
6490		31.250000
6491		27.343750
6492		31.250000
6493		27.343750
6494		29.296875
6495		25.390625
6496		31.250000
6497		25.390625
6498		31.250000
6499		27.343750
6500		29.296875
6501		25.390625
6502		29.296875
6503		25.390625
6504		29.296875
6505		25.390625
6506		29.296875
6507		25.390625
6508		29.296875
6509		25.390625
6510		29.296875
6511		23.437500
6512		29.296875
6513		23.437500
6514		29.296875
6515		23.437500
6516		27.343750
6517		23.437500
6518		27.343750
6519		23.437500
6520		27.343750
6521		23.437500
6522		25.390625
6523		23.437500
6524		25.390625
6525		21.484375
6526		25.390625
6527		21.484375
6528		25.390625
6529		19.531250
6530		25.390625
6531		19.531250
6532		25.390625
6533		19.531250
6534		23.437500
6535		19.531250
6536		23.437500
6537		19.531250
6538		21.484375
6539		17.578125
6540		21.484375
6541		17.578125
6542		21.484375
6543		17.578125
6544		21.484375
6545		15.625000
6546		21.484375
6547		15.625000
6548		21.484375
6549		15.625000
6550		19.531250
6551		15.625000
6552		19.531250
6553		15.625000
6554		17.578125
6555		13.671875
6556		17.578125
6557		13.671875
6558		15.625000
6559		13.671875
6560		15.625000
6561		11.718750
6562		15.625000
6563		9.765625
6564		15.625000
6565		9.765625
6566		15.625000
6567		9.765625
6568		13.671875
6569		9.765625
6570		11.718750
6571		7.812500
6572		11.718750
6573		7.812500
6574		11.718750
6575		5.859375
6576		9.765625
6577		5.859375
6578		9.765625
6579		3.906250
6580		9.765625
6581		3.906250
6582		9.765625
6583		3.906250
6584		7.812500
6585		3.906250
6586		5.859375
6587		1.953125
6588		5.859375
6589		1.953125
6590		5.859375
6591		0.000000
6592		3.906250
6593		0.000000
6594		3.906250
6595		-1.953125
6596		3.906250
6597		-1.953125
6598		3.906250
6599		-3.906250
6600		1.953125
6601		-3.906250
6602		0.000000
6603		-3.906250
6604		0.000000
6605		-3.906250
6606		-1.953125
6607		-5.859375
6608		-1.953125
6609		-5.859375
6610		-1.953125
6611		-7.812500
6612		-3.906250
6613		-7.812500
6614		-3.906250
6615		-9.765625
6616		-3.906250
6617		-9.765625
6618		-5.859375
6619		-9.765625
6620		-5.859375
6621		-11.718750
6622		-7.812500
6623		-11.718750
6624		-7.812500
6625		-11.718750
6626		-9.765625
6627		-13.671875
6628		-9.765625
6629		-15.625000
6630		-9.765625
6631		-15.625000
6632		-9.765625
6633		-15.625000
6634		-11.718750
6635		-15.625000
6636		-11.718750
6637		-15.625000
6638		-13.671875
6639		-17.578125
6640		-13.671875
6641		-17.578125
6642		-13.671875
6643		-17.578125
6644		-15.625000
6645		-19.531250
6646		-15.625000
6647		-19.531250
6648		-15.625000
6649		-21.484375
6650		-15.625000
6651		-21.484375
6652		-17.578125
6653		-21.484375
6654		-17.578125
6655		-21.484375
6656		-19.531250
6657		-21.484375
6658		-19.531250
6659		-23.437500
6660		-19.531250
6661		-23.437500
6662		-21.484375
6663		-25.390625
6664		-21.484375
6665		-25.390625
6666		-21.484375
6667		-25.390625
6668		-21.484375
6669		-25.390625
6670		-21.484375
6671		-25.390625
6672		-23.437500
6673		-27.343750
6674		-23.437500
6675		-27.343750
6676		-23.437500
6677		-27.343750
6678		-23.437500
6679		-27.343750
6680		-23.437500
6681		-27.343750
6682		-23.437500
6683		-27.343750
6684		-25.390625
6685		-29.296875
6686		-25.390625
6687		-29.296875
6688		-25.390625
6689		-29.296875
6690		-25.390625
6691		-29.296875
6692		-25.390625
6693		-29.296875
6694		-25.390625
6695		-29.296875
6696		-27.343750
6697		-31.250000
6698		-27.343750
6699		-29.296875
6700		-27.343750
6701		-31.250000
6702		-27.343750
6703		-29.296875
6704		-27.343750
6705		-31.250000
6706		-27.343750
6707		-31.250000
6708		-27.343750
6709		-31.250000
6710		-27.343750
6711		-31.250000
6712		-27.343750
6713		-29.296875
6714		-27.343750
6715		-31.250000
6716		-27.343750
6717		-31.250000
6718		-27.343750
6719		-29.296875
6720		-27.343750
6721		-29.296875
6722		-27.343750
6723		-29.296875
6724		-27.343750
6725		-29.296875
6726		-27.343750
6727		-29.296875
6728		-27.343750
6729		-29.296875
6730		-27.343750
6731		-29.296875
6732		-25.390625
6733		-29.296875
6734		-25.390625
6735		-29.296875
6736		-25.390625
6737		-27.343750
6738		-25.390625
6739		-29.296875
6740		-25.390625
6741		-27.343750
6742		-25.390625
6743		-27.343750
6744		-25.390625
6745		-27.343750
6746		-23.437500
6747		-27.343750
6748		-23.437500
6749		-27.343750
6750		-23.437500
6751		-25.390625
6752		-23.437500
6753		-25.390625
6754		-21.484375
6755		-25.390625
6756		-21.484375
6757		-25.390625
6758		-21.484375
6759		-23.437500
6760		-21.484375
6761		-23.437500
6762		-21.484375
6763		-23.437500
6764		-19.531250
6765		-23.437500
6766		-19.531250
6767		-21.484375
6768		-19.531250
6769		-21.484375
6770		-17.578125
6771		-21.484375
6772		-17.578125
6773		-19.531250
6774		-17.578125
6775		-19.531250
6776		-15.625000
6777		-19.531250
6778		-15.625000
6779		-19.531250
6780		-15.625000
6781		-17.578125
6782		-15.625000
6783		-17.578125
6784		-13.671875
6785		-17.578125
6786		-13.671875
6787		-15.625000
6788		-11.718750
6789		-15.625000
6790		-11.718750
6791		-13.671875
6792		-11.718750
6793		-13.671875
6794		-9.765625
6795		-13.671875
6796		-9.765625
6797		-11.718750
6798		-9.765625
6799		-11.718750
6800		-7.812500
6801		-11.718750
6802		-7.812500
6803		-9.765625
6804		-7.812500
6805		-9.765625
6806		-5.859375
6807		-7.812500
6808		-5.859375
6809		-7.812500
6810		-3.906250
6811		-7.812500
6812		-3.906250
6813		-5.859375
6814		-1.953125
6815		-5.859375
6816		-1.953125
6817		-5.859375
6818		-1.953125
6819		-3.906250
6820		0.000000
6821		-3.906250
6822		0.000000
6823		-1.953125
6824		1.953125
6825		-1.953125
6826		1.953125
6827		0.000000
6828		1.953125
6829		0.000000
6830		3.906250
6831		0.000000
6832		3.906250
6833		1.953125
6834		3.906250
6835		1.953125
6836		5.859375
6837		3.906250
6838		5.859375
6839		3.906250
6840		7.812500
6841		3.906250
6842		7.812500
6843		5.859375
6844		7.812500
6845		5.859375
6846		9.765625
6847		5.859375
6848		9.765625
6849		7.812500
6850		11.718750
6851		7.812500
6852		11.718750
6853		9.765625
6854		11.718750
6855		9.765625
6856		13.671875
6857		9.765625
6858		13.671875
6859		11.718750
6860		13.671875
6861		11.718750
6862		15.625000
6863		11.718750
6864		15.625000
6865		13.671875
6866		15.625000
6867		13.671875
6868		17.578125
6869		13.671875
6870		17.578125
6871		15.625000
6872		19.531250
6873		15.625000
6874		19.531250
6875		15.625000
6876		19.531250
6877		17.578125
6878		19.531250
6879		17.578125
6880		21.484375
6881		17.578125
6882		21.484375
6883		17.578125
6884		21.484375
6885		19.531250
6886		21.484375
6887		19.531250
6888		23.437500
6889		19.531250
6890		23.437500
6891		19.531250
6892		23.437500
6893		21.484375
6894		23.437500
6895		21.484375
6896		25.390625
6897		21.484375
6898		25.390625
6899		23.437500
6900		25.390625
6901		23.437500
6902		25.390625
6903		23.437500
6904		27.343750
6905		23.437500
6906		27.343750
6907		23.437500
6908		27.343750
6909		25.390625
6910		27.343750
6911		25.390625
6912		27.343750
6913		25.390625
6914		27.343750
6915		25.390625
6916		27.343750
6917		25.390625
6918		29.296875
6919		25.390625
6920		29.296875
6921		25.390625
6922		29.296875
6923		27.343750
6924		29.296875
6925		27.343750
6926		29.296875
6927		27.343750
6928		29.296875
6929		27.343750
6930		29.296875
6931		27.343750
6932		31.250000
6933		27.343750
6934		31.250000
6935		27.343750
6936		29.296875
6937		27.343750
6938		31.250000
6939		27.343750
6940		31.250000
6941		27.343750
6942		31.250000
6943		27.343750
6944		31.250000
6945		27.343750
6946		31.250000
6947		27.343750
6948		31.250000
6949		27.343750
6950		31.250000
6951		27.343750
6952		31.250000
6953		27.343750
6954		31.250000
6955		27.343750
6956		31.250000
6957		27.343750
6958		31.250000
6959		27.343750
6960		29.296875
6961		27.343750
6962		31.250000
6963		27.343750
6964		29.296875
6965		27.343750
6966		29.296875
6967		27.343750
6968		29.296875
6969		27.343750
6970		29.296875
6971		27.343750
6972		29.296875
6973		25.390625
6974		29.296875
6975		25.390625
6976		29.296875
6977		25.390625
6978		29.296875
6979		25.390625
6980		29.296875
6981		25.390625
6982		27.343750
6983		25.390625
6984		27.343750
6985		25.390625
6986		27.343750
6987		23.437500
6988		27.343750
6989		23.437500
6990		27.343750
6991		23.437500
6992		27.343750
6993		23.437500
6994		25.390625
6995		23.437500
6996		25.390625
6997		21.484375
6998		25.390625
6999		21.484375
7000		25.390625
7001		21.484375
7002		23.437500
7003		19.531250
7004		23.437500
7005		19.531250
7006		23.437500
7007		19.531250
7008		23.437500
7009		19.531250
7010		21.484375
7011		17.578125
7012		21.484375
7013		17.578125
7014		21.484375
7015		17.578125
7016		21.484375
7017		17.578125
7018		19.531250
7019		15.625000
7020		19.531250
7021		15.625000
7022		19.531250
7023		13.671875
7024		17.578125
7025		13.671875
7026		17.578125
7027		13.671875
7028		17.578125
7029		13.671875
7030		15.625000
7031		11.718750
7032		15.625000
7033		11.718750
7034		15.625000
7035		11.718750
7036		13.671875
7037		9.765625
7038		13.671875
7039		9.765625
7040		13.671875
7041		9.765625
7042		11.718750
7043		7.812500
7044		11.718750
7045		7.812500
7046		11.718750
7047		5.859375
7048		9.765625
7049		5.859375
7050		9.765625
7051		5.859375
7052		7.812500
7053		3.906250
7054		7.812500
7055		3.906250
7056		7.812500
7057		3.906250
7058		5.859375
7059		1.953125
7060		5.859375
7061		1.953125
7062		3.906250
7063		0.000000
7064		3.906250
7065		0.000000
7066		3.906250
7067		0.000000
7068		1.953125
7069		-1.953125
7070		1.953125
7071		-1.953125
7072		1.953125
7073		-3.906250
7074		0.000000
7075		-3.906250
7076		0.000000
7077		-5.859375
7078		-1.953125
7079		-5.859375
7080		-1.953125
7081		-5.859375
7082		-3.906250
7083		-7.812500
7084		-3.906250
7085		-7.812500
7086		-3.906250
7087		-7.812500
7088		-5.859375
7089		-9.765625
7090		-5.859375
7091		-9.765625
7092		-7.812500
7093		-11.718750
7094		-7.812500
7095		-11.718750
7096		-7.812500
7097		-11.718750
7098		-9.765625
7099		-13.671875
7100		-9.765625
7101		-13.671875
7102		-9.765625
7103		-15.625000
7104		-11.718750
7105		-15.625000
7106		-11.718750
7107		-15.625000
7108		-13.671875
7109		-17.578125
7110		-13.671875
7111		-17.578125
7112		-13.671875
7113		-17.578125
7114		-15.625000
7115		-19.531250
7116		-15.625000
7117		-19.531250
7118		-15.625000
7119		-19.531250
7120		-17.578125
7121		-21.484375
7122		-17.578125
7123		-21.484375
7124		-17.578125
7125		-21.484375
7126		-19.531250
7127		-23.437500
7128		-19.531250
7129		-23.437500
7130		-19.531250
7131		-23.437500
7132		-19.531250
7133		-23.437500
7134		-21.484375
7135		-25.390625
7136		-21.484375
7137		-25.390625
7138		-21.484375
7139		-25.390625
7140		-21.484375
7141		-25.390625
7142		-23.437500
7143		-25.390625
7144		-23.437500
7145		-27.343750
7146		-23.437500
7147		-27.343750
7148		-23.437500
7149		-27.343750
7150		-23.437500
7151		-27.343750
7152		-25.390625
7153		-27.343750
7154		-25.390625
7155		-27.343750
7156		-25.390625
7157		-29.296875
7158		-25.390625
7159		-29.296875
7160		-25.390625
7161		-29.296875
7162		-25.390625
7163		-29.296875
7164		-27.343750
7165		-29.296875
7166		-25.390625
7167		-29.296875
7168		-27.343750
7169		-29.296875
7170		-27.343750
7171		-29.296875
7172		-27.343750
7173		-29.296875
7174		-27.343750
7175		-31.250000
7176		-27.343750
7177		-31.250000
7178		-27.343750
7179		-31.250000
7180		-27.343750
7181		-31.250000
7182		-27.343750
7183		-31.250000
7184		-27.343750
7185		-31.250000
7186		-27.343750
7187		-31.250000
7188		-27.343750
7189		-29.296875
7190		-27.343750
7191		-29.296875
7192		-27.343750
7193		-31.250000
7194		-27.343750
7195		-29.296875
7196		-27.343750
7197		-31.250000
7198		-27.343750
7199		-29.296875
7200		-27.343750
7201		-29.296875
7202		-27.343750
7203		-29.296875
7204		-25.390625
7205		-29.296875
7206		-25.390625
7207		-29.296875
7208		-25.390625
7209		-29.296875
7210		-25.390625
7211		-29.296875
7212		-25.390625
7213		-27.343750
7214		-25.390625
7215		-27.343750
7216		-25.390625
7217		-27.343750
7218		-23.437500
7219		-27.343750
7220		-23.437500
7221		-27.343750
7222		-23.437500
7223		-25.390625
7224		-23.437500
7225		-25.390625
7226		-21.484375
7227		-25.390625
7228		-21.484375
7229		-25.390625
7230		-21.484375
7231		-23.437500
7232		-21.484375
7233		-23.437500
7234		-21.484375
7235		-23.437500
7236		-19.531250
7237		-23.437500
7238		-17.578125
7239		-21.484375
7240		-19.531250
7241		-21.484375
7242		-17.578125
7243		-21.484375
7244		-17.578125
7245		-19.531250
7246		-17.578125
7247		-19.531250
7248		-17.578125
7249		-19.531250
7250		-15.625000
7251		-17.578125
7252		-15.625000
7253		-17.578125
7254		-13.671875
7255		-17.578125
7256		-13.671875
7257		-15.625000
7258		-13.671875
7259		-15.625000
7260		-11.718750
7261		-15.625000
7262		-11.718750
7263		-13.671875
7264		-11.718750
7265		-13.671875
7266		-9.765625
7267		-11.718750
7268		-9.765625
7269		-11.718750
7270		-9.765625
7271		-11.718750
7272		-7.812500
7273		-9.765625
7274		-7.812500
7275		-9.765625
7276		-5.859375
7277		-9.765625
7278		-5.859375
7279		-7.812500
7280		-3.906250
7281		-7.812500
7282		-3.906250
7283		-5.859375
7284		-3.906250
7285		-5.859375
7286		-1.953125
7287		-5.859375
7288		-1.953125
7289		-3.906250
7290		-1.953125
7291		-3.906250
7292		0.000000
7293		-1.953125
7294		0.000000
7295		-1.953125
7296		1.953125
7297		-1.953125
7298		1.953125
7299		0.000000
7300		1.953125
7301		0.000000
7302		3.906250
7303		1.953125
7304		3.906250
7305		1.953125
7306		5.859375
7307		1.953125
7308		5.859375
7309		3.906250
7310		5.859375
7311		3.906250
7312		7.812500
7313		3.906250
7314		7.812500
7315		5.859375
7316		7.812500
7317		5.859375
7318		9.765625
7319		5.859375
7320		9.765625
7321		7.812500
7322		11.718750
7323		7.812500
7324		11.718750
7325		9.765625
7326		11.718750
7327		9.765625
7328		13.671875
7329		9.765625
7330		13.671875
7331		11.718750
7332		13.671875
7333		11.718750
7334		15.625000
7335		13.671875
7336		15.625000
7337		13.671875
7338		17.578125
7339		13.671875
7340		17.578125
7341		15.625000
7342		17.578125
7343		15.625000
7344		17.578125
7345		15.625000
7346		19.531250
7347		15.625000
7348		19.531250
7349		17.578125
7350		19.531250
7351		17.578125
7352		21.484375
7353		17.578125
7354		21.484375
7355		19.531250
7356		21.484375
7357		19.531250
7358		23.437500
7359		19.531250
7360		23.437500
7361		19.531250
7362		23.437500
7363		21.484375
7364		23.437500
7365		21.484375
7366		25.390625
7367		21.484375
7368		25.390625
7369		21.484375
7370		25.390625
7371		23.437500
7372		25.390625
7373		23.437500
7374		25.390625
7375		23.437500
7376		27.343750
7377		23.437500
7378		27.343750
7379		23.437500
7380		27.343750
7381		23.437500
7382		27.343750
7383		25.390625
7384		27.343750
7385		25.390625
7386		29.296875
7387		25.390625
7388		29.296875
7389		25.390625
7390		29.296875
7391		25.390625
7392		29.296875
7393		27.343750
7394		29.296875
7395		27.343750
7396		29.296875
7397		27.343750
7398		29.296875
7399		27.343750
7400		29.296875
7401		27.343750
7402		31.250000
7403		27.343750
7404		31.250000
7405		27.343750
7406		31.250000
7407		27.343750
7408		31.250000
7409		27.343750
7410		31.250000
7411		27.343750
7412		31.250000
7413		27.343750
7414		31.250000
7415		27.343750
7416		31.250000
7417		27.343750
7418		31.250000
7419		27.343750
7420		31.250000
7421		27.343750
7422		31.250000
7423		27.343750
7424		31.250000
7425		27.343750
7426		31.250000
7427		27.343750
7428		31.250000
7429		27.343750
7430		31.250000
7431		27.343750
7432		31.250000
7433		27.343750
7434		31.250000
7435		27.343750
7436		29.296875
7437		27.343750
7438		31.250000
7439		27.343750
7440		31.250000
7441		27.343750
7442		29.296875
7443		27.343750
7444		29.296875
7445		27.343750
7446		29.296875
7447		25.390625
7448		29.296875
7449		25.390625
7450		29.296875
7451		25.390625
7452		29.296875
7453		25.390625
7454		27.343750
7455		25.390625
7456		27.343750
7457		25.390625
7458		27.343750
7459		23.437500
7460		27.343750
7461		23.437500
7462		27.343750
7463		23.437500
7464		25.390625
7465		23.437500
7466		25.390625
7467		21.484375
7468		25.390625
7469		21.484375
7470		25.390625
7471		21.484375
7472		25.390625
7473		21.484375
7474		23.437500
7475		21.484375
7476		23.437500
7477		19.531250
7478		23.437500
7479		19.531250
7480		23.437500
7481		19.531250
7482		21.484375
7483		17.578125
7484		21.484375
7485		17.578125
7486		21.484375
7487		17.578125
7488		21.484375
7489		17.578125
7490		19.531250
7491		15.625000
7492		19.531250
7493		15.625000
7494		19.531250
7495		15.625000
7496		17.578125
7497		13.671875
7498		17.578125
7499		13.671875
7500		17.578125
7501		13.671875
7502		15.625000
7503		11.718750
7504		15.625000
7505		11.718750
7506		15.625000
7507		9.765625
7508		15.625000
7509		9.765625
7510		13.671875
7511		7.812500
7512		13.671875
7513		7.812500
7514		13.671875
7515		7.812500
7516		11.718750
7517		7.812500
7518		9.765625
7519		5.859375
7520		9.765625
7521		5.859375
7522		9.765625
7523		5.859375
7524		7.812500
7525		1.953125
7526		7.812500
7527		3.906250
7528		7.812500
7529		1.953125
7530		7.812500
7531		1.953125
7532		5.859375
7533		-1.953125
7534		5.859375
7535		0.000000
7536		3.906250
7537		0.000000
7538		3.906250
7539		-1.953125
7540		1.953125
7541		-3.906250
7542		1.953125
7543		-3.906250
7544		0.000000
7545		-5.859375
7546		0.000000
7547		-3.906250
7548		0.000000
7549		-7.812500
7550		0.000000
7551		-5.859375
7552		-1.953125
7553		-5.859375
7554		-3.906250
7555		-9.765625
7556		-3.906250
7557		-9.765625
7558		-3.906250
7559		-9.765625
7560		-3.906250
7561		-9.765625
7562		-5.859375
7563		-11.718750
7564		-5.859375
7565		-13.671875
7566		-5.859375
7567		-11.718750
7568		-7.812500
7569		-11.718750
7570		-9.765625
7571		-15.625000
7572		-9.765625
7573		-17.578125
7574		-7.812500
7575		-15.625000
7576		-9.765625
7577		-15.625000
7578		-11.718750
7579		-17.578125
7580		-11.718750
7581		-17.578125
7582		-13.671875
7583		-17.578125
7584		-13.671875
7585		-19.531250
7586		-15.625000
7587		-19.531250
7588		-15.625000
7589		-21.484375
7590		-15.625000
7591		-21.484375
7592		-15.625000
7593		-21.484375
7594		-17.578125
7595		-21.484375
7596		-17.578125
7597		-25.390625
7598		-15.625000
7599		-25.390625
7600		-17.578125
7601		-23.437500
7602		-19.531250
7603		-23.437500
7604		-19.531250
7605		-25.390625
7606		-19.531250
7607		-25.390625
7608		-19.531250
7609		-27.343750
7610		-21.484375
7611		-25.390625
7612		-21.484375
7613		-29.296875
7614		-19.531250
7615		-25.390625
7616		-23.437500
7617		-29.296875
7618		-19.531250
7619		-27.343750
7620		-23.437500
7621		-29.296875
7622		-23.437500
7623		-29.296875
7624		-21.484375
7625		-29.296875
7626		-23.437500
7627		-29.296875
7628		-25.390625
7629		-31.250000
7630		-23.437500
7631		-31.250000
7632		-23.437500
7633		-33.203125
7634		-25.390625
7635		-29.296875
7636		-25.390625
7637		-29.296875
7638		-27.343750
7639		-31.250000
7640		-25.390625
7641		-33.203125
7642		-23.437500
7643		-31.250000
7644		-25.390625
7645		-31.250000
7646		-27.343750
7647		-33.203125
7648		-23.437500
7649		-33.203125
7650		-25.390625
7651		-31.250000
7652		-27.343750
7653		-31.250000
7654		-27.343750
7655		-31.250000
7656		-25.390625
7657		-33.203125
7658		-23.437500
7659		-31.250000
7660		-27.343750
7661		-29.296875
7662		-27.343750
7663		-33.203125
7664		-25.390625
7665		-33.203125
7666		-23.437500
7667		-33.203125
7668		-23.437500
7669		-29.296875
7670		-27.343750
7671		-29.296875
7672		-25.390625
7673		-31.250000
7674		-23.437500
7675		-31.250000
7676		-23.437500
7677		-29.296875
7678		-25.390625
7679		-27.343750
7680		-25.390625
7681		-31.250000
7682		-21.484375
7683		-31.250000
7684		-23.437500
7685		-27.343750
7686		-25.390625
7687		-27.343750
7688		-23.437500
7689		-27.343750
7690		-23.437500
7691		-29.296875
7692		-21.484375
7693		-27.343750
7694		-21.484375
7695		-25.390625
7696		-23.437500
7697		-27.343750
7698		-19.531250
7699		-27.343750
7700		-19.531250
7701		-27.343750
7702		-19.531250
7703		-23.437500
7704		-19.531250
7705		-23.437500
7706		-19.531250
7707		-25.390625
7708		-17.578125
7709		-23.437500
7710		-17.578125
7711		-21.484375
7712		-17.578125
7713		-21.484375
7714		-15.625000
7715		-23.437500
7716		-13.671875
7717		-21.484375
7718		-13.671875
7719		-19.531250
7720		-15.625000
7721		-19.531250
7722		-15.625000
7723		-19.531250
7724		-13.671875
7725		-21.484375
7726		-11.718750
7727		-17.578125
7728		-11.718750
7729		-15.625000
7730		-11.718750
7731		-17.578125
7732		-9.765625
7733		-15.625000
7734		-9.765625
7735		-13.671875
7736		-9.765625
7737		-13.671875
7738		-9.765625
7739		-13.671875
7740		-7.812500
7741		-13.671875
7742		-5.859375
7743		-13.671875
7744		-7.812500
7745		-9.765625
7746		-7.812500
7747		-11.718750
7748		-3.906250
7749		-11.718750
7750		-3.906250
7751		-9.765625
7752		-1.953125
7753		-7.812500
7754		-3.906250
7755		-5.859375
7756		-3.906250
7757		-5.859375
7758		-1.953125
7759		-5.859375
7760		0.000000
7761		-5.859375
7762		0.000000
7763		-3.906250
7764		0.000000
7765		-5.859375
7766		3.906250
7767		-3.906250
7768		3.906250
7769		-1.953125
7770		1.953125
7771		0.000000
7772		3.906250
7773		0.000000
7774		5.859375
7775		0.000000
7776		7.812500
7777		1.953125
7778		5.859375
7779		3.906250
7780		5.859375
7781		3.906250
7782		7.812500
7783		3.906250
7784		7.812500
7785		3.906250
7786		11.718750
7787		5.859375
7788		9.765625
7789		5.859375
7790		9.765625
7791		5.859375
7792		13.671875
7793		7.812500
7794		11.718750
7795		7.812500
7796		11.718750
7797		9.765625
7798		15.625000
7799		9.765625
7800		13.671875
7801		11.718750
7802		13.671875
7803		11.718750
7804		15.625000
7805		11.718750
7806		15.625000
7807		13.671875
7808		15.625000
7809		13.671875
7810		17.578125
7811		13.671875
7812		19.531250
7813		15.625000
7814		17.578125
7815		13.671875
7816		19.531250
7817		15.625000
7818		19.531250
7819		17.578125
7820		19.531250
7821		17.578125
7822		21.484375
7823		17.578125
7824		21.484375
7825		19.531250
7826		21.484375
7827		19.531250
7828		23.437500
7829		19.531250
7830		23.437500
7831		19.531250
7832		23.437500
7833		21.484375
7834		23.437500
7835		21.484375
7836		25.390625
7837		21.484375
7838		25.390625
7839		21.484375
7840		25.390625
7841		21.484375
7842		25.390625
7843		23.437500
7844		27.343750
7845		23.437500
7846		27.343750
7847		23.437500
7848		27.343750
7849		23.437500
7850		27.343750
7851		23.437500
7852		27.343750
7853		25.390625
7854		29.296875
7855		25.390625
7856		27.343750
7857		25.390625
7858		29.296875
7859		23.437500
7860		31.250000
7861		25.390625
7862		29.296875
7863		23.437500
7864		31.250000
7865		25.390625
7866		31.250000
7867		25.390625
7868		31.250000
7869		27.343750
7870		31.250000
7871		27.343750
7872		31.250000
7873		27.343750
7874		31.250000
7875		27.343750
7876		31.250000
7877		27.343750
7878		31.250000
7879		27.343750
7880		33.203125
7881		27.343750
7882		33.203125
7883		27.343750
7884		33.203125
7885		27.343750
7886		31.250000
7887		27.343750
7888		31.250000
7889		27.343750
7890		31.250000
7891		27.343750
7892		33.203125
7893		27.343750
7894		31.250000
7895		27.343750
7896		31.250000
7897		27.343750
7898		31.250000
7899		27.343750
7900		31.250000
7901		27.343750
7902		31.250000
7903		27.343750
7904		31.250000
7905		27.343750
7906		31.250000
7907		27.343750
7908		31.250000
7909		25.390625
7910		31.250000
7911		27.343750
7912		31.250000
7913		25.390625
7914		31.250000
7915		25.390625
7916		31.250000
7917		25.390625
7918		31.250000
7919		25.390625
7920		31.250000
7921		25.390625
7922		29.296875
7923		25.390625
7924		29.296875
7925		25.390625
7926		29.296875
7927		23.437500
7928		27.343750
7929		23.437500
7930		29.296875
7931		23.437500
7932		27.343750
7933		23.437500
7934		27.343750
7935		23.437500
7936		27.343750
7937		23.437500
7938		25.390625
7939		21.484375
7940		25.390625
7941		21.484375
7942		25.390625
7943		21.484375
7944		25.390625
7945		21.484375
7946		25.390625
7947		19.531250
7948		25.390625
7949		19.531250
7950		23.437500
7951		19.531250
7952		23.437500
7953		17.578125
7954		23.437500
7955		17.578125
7956		21.484375
7957		17.578125
7958		21.484375
7959		17.578125
7960		21.484375
7961		15.625000
7962		19.531250
7963		15.625000
7964		19.531250
7965		15.625000
7966		19.531250
7967		13.671875
7968		17.578125
7969		13.671875
7970		17.578125
7971		13.671875
7972		17.578125
7973		13.671875
7974		15.625000
7975		11.718750
7976		15.625000
7977		11.718750
7978		15.625000
7979		9.765625
7980		13.671875
7981		7.812500
7982		13.671875
7983		9.765625
7984		13.671875
7985		7.812500
7986		11.718750
7987		7.812500
7988		11.718750
7989		7.812500
7990		9.765625
7991		5.859375
7992		9.765625
7993		5.859375
7994		9.765625
7995		3.906250
7996		7.812500
7997		3.906250
7998		7.812500
7999		3.906250
8000		7.812500
8001		1.953125
8002		5.859375
8003		1.953125
8004		5.859375
8005		1.953125
8006		3.906250
8007		0.000000
8008		3.906250
8009		0.000000
8010		3.906250
8011		-1.953125
8012		1.953125
8013		-1.953125
8014		1.953125
8015		-3.906250
8016		1.953125
8017		-3.906250
8018		0.000000
8019		-3.906250
8020		0.000000
8021		-5.859375
8022		-1.953125
8023		-5.859375
8024		-1.953125
8025		-7.812500
8026		-3.906250
8027		-7.812500
8028		-3.906250
8029		-7.812500
8030		-3.906250
8031		-9.765625
8032		-3.906250
8033		-9.765625
8034		-5.859375
8035		-9.765625
8036		-7.812500
8037		-11.718750
8038		-7.812500
8039		-11.718750
8040		-7.812500
8041		-13.671875
8042		-9.765625
8043		-13.671875
8044		-9.765625
8045		-15.625000
8046		-9.765625
8047		-15.625000
8048		-11.718750
8049		-15.625000
8050		-11.718750
8051		-17.578125
8052		-11.718750
8053		-17.578125
8054		-13.671875
8055		-17.578125
8056		-13.671875
8057		-17.578125
8058		-13.671875
8059		-19.531250
8060		-15.625000
8061		-19.531250
8062		-15.625000
8063		-19.531250
8064		-15.625000
8065		-21.484375
8066		-15.625000
8067		-21.484375
8068		-17.578125
8069		-21.484375
8070		-17.578125
8071		-23.437500
8072		-19.531250
8073		-23.437500
8074		-19.531250
8075		-25.390625
8076		-19.531250
8077		-23.437500
8078		-21.484375
8079		-25.390625
8080		-21.484375
8081		-25.390625
8082		-21.484375
8083		-25.390625
8084		-21.484375
8085		-25.390625
8086		-21.484375
8087		-25.390625
8088		-23.437500
8089		-27.343750
8090		-23.437500
8091		-27.343750
8092		-23.437500
8093		-27.343750
8094		-23.437500
8095		-27.343750
8096		-25.390625
8097		-27.343750
8098		-25.390625
8099		-29.296875
8100		-23.437500
8101		-29.296875
8102		-25.390625
8103		-29.296875
8104		-25.390625
8105		-29.296875
8106		-25.390625
8107		-29.296875
8108		-25.390625
8109		-29.296875
8110		-25.390625
8111		-29.296875
8112		-27.343750
8113		-31.250000
8114		-25.390625
8115		-31.250000
8116		-27.343750
8117		-29.296875
8118		-27.343750
8119		-31.250000
8120		-27.343750
8121		-31.250000
8122		-25.390625
8123		-29.296875
8124		-27.343750
8125		-31.250000
8126		-27.343750
8127		-31.250000
8128		-27.343750
8129		-29.296875
8130		-27.343750
8131		-31.250000
8132		-27.343750
8133		-29.296875
8134		-27.343750
8135		-29.296875
8136		-27.343750
8137		-31.250000
8138		-25.390625
8139		-29.296875
8140		-25.390625
8141		-29.296875
8142		-27.343750
8143		-29.296875
8144		-25.390625
8145		-29.296875
8146		-25.390625
8147		-29.296875
8148		-25.390625
8149		-29.296875
8150		-25.390625
8151		-29.296875
8152		-23.437500
8153		-29.296875
8154		-25.390625
8155		-27.343750
8156		-25.390625
8157		-27.343750
8158		-23.437500
8159		-27.343750
8160		-23.437500
8161		-27.343750
8162		-23.437500
8163		-25.390625
8164		-23.437500
8165		-25.390625
8166		-23.437500
8167		-25.390625
8168		-21.484375
8169		-25.390625
8170		-21.484375
8171		-25.390625
8172		-21.484375
8173		-23.437500
8174		-21.484375
8175		-23.437500
8176		-19.531250
8177		-23.437500
8178		-19.531250
8179		-23.437500
8180		-19.531250
8181		-21.484375
8182		-19.531250
8183		-21.484375
8184		-17.578125
8185		-21.484375
8186		-17.578125
8187		-19.531250
8188		-15.625000
8189		-19.531250
8190		-15.625000
8191		-19.531250
8192		-15.625000
8193		-17.578125
8194		-15.625000
8195		-17.578125
8196		-13.671875
8197		-17.578125
8198		-13.671875
8199		-15.625000
8200		-11.718750
8201		-15.625000
8202		-11.718750
8203		-15.625000
8204		-11.718750
8205		-13.671875
8206		-9.765625
8207		-13.671875
8208		-9.765625
8209		-13.671875
8210		-9.765625
8211		-13.671875
8212		-7.812500
8213		-11.718750
8214		-7.812500
8215		-11.718750
8216		-7.812500
8217		-9.765625
8218		-5.859375
8219		-9.765625
8220		-5.859375
8221		-7.812500
8222		-3.906250
8223		-7.812500
8224		-3.906250
8225		-5.859375
8226		-3.906250
8227		-5.859375
8228		-1.953125
8229		-3.906250
8230		-1.953125
8231		-3.906250
8232		0.000000
8233		-3.906250
8234		0.000000
8235		-1.953125
8236		0.000000
8237		-1.953125
8238		1.953125
8239		-1.953125
8240		1.953125
8241		0.000000
8242		3.906250
8243		0.000000
8244		3.906250
8245		0.000000
8246		3.906250
8247		1.953125
8248		5.859375
8249		1.953125
8250		5.859375
8251		1.953125
8252		7.812500
8253		3.906250
8254		7.812500
8255		3.906250
8256		9.765625
8257		5.859375
8258		9.765625
8259		5.859375
8260		9.765625
8261		7.812500
8262		9.765625
8263		7.812500
8264		11.718750
8265		7.812500
8266		11.718750
8267		9.765625
8268		13.671875
8269		9.765625
8270		13.671875
8271		9.765625
8272		13.671875
8273		11.718750
8274		15.625000
8275		11.718750
8276		15.625000
8277		11.718750
8278		17.578125
8279		13.671875
8280		17.578125
8281		13.671875
8282		17.578125
8283		15.625000
8284		17.578125
8285		15.625000
8286		19.531250
8287		15.625000
8288		19.531250
8289		17.578125
8290		19.531250
8291		17.578125
8292		21.484375
8293		17.578125
8294		21.484375
8295		19.531250
8296		21.484375
8297		19.531250
8298		23.437500
8299		19.531250
8300		23.437500
8301		19.531250
8302		23.437500
8303		19.531250
8304		23.437500
8305		21.484375
8306		25.390625
8307		21.484375
8308		25.390625
8309		21.484375
8310		25.390625
8311		21.484375
8312		25.390625
8313		23.437500
8314		27.343750
8315		23.437500
8316		27.343750
8317		23.437500
8318		27.343750
8319		23.437500
8320		27.343750
8321		23.437500
8322		29.296875
8323		25.390625
8324		29.296875
8325		25.390625
8326		29.296875
8327		25.390625
8328		29.296875
8329		25.390625
8330		29.296875
8331		25.390625
8332		29.296875
8333		27.343750
8334		29.296875
8335		27.343750
8336		29.296875
8337		27.343750
8338		31.250000
8339		25.390625
8340		31.250000
8341		27.343750
8342		31.250000
8343		27.343750
8344		31.250000
8345		25.390625
8346		31.250000
8347		27.343750
8348		31.250000
8349		27.343750
8350		31.250000
8351		27.343750
8352		31.250000
8353		27.343750
8354		31.250000
8355		27.343750
8356		31.250000
8357		29.296875
8358		33.203125
8359		27.343750
8360		31.250000
8361		27.343750
8362		33.203125
8363		27.343750
8364		31.250000
8365		29.296875
8366		31.250000
8367		27.343750
8368		33.203125
8369		27.343750
8370		31.250000
8371		27.343750
8372		31.250000
8373		27.343750
8374		31.250000
8375		27.343750
8376		31.250000
8377		27.343750
8378		31.250000
8379		27.343750
8380		31.250000
8381		27.343750
8382		31.250000
8383		27.343750
8384		31.250000
8385		27.343750
8386		31.250000
8387		25.390625
8388		29.296875
8389		25.390625
8390		29.296875
8391		25.390625
8392		29.296875
8393		25.390625
8394		29.296875
8395		25.390625
8396		29.296875
8397		25.390625
8398		29.296875
8399		25.390625
8400		27.343750
8401		23.437500
8402		27.343750
8403		23.437500
8404		27.343750
8405		23.437500
8406		27.343750
8407		23.437500
8408		27.343750
8409		23.437500
8410		25.390625
8411		21.484375
8412		25.390625
8413		21.484375
8414		25.390625
8415		21.484375
8416		25.390625
8417		21.484375
8418		23.437500
8419		19.531250
8420		23.437500
8421		19.531250
8422		23.437500
8423		19.531250
8424		23.437500
8425		19.531250
8426		23.437500
8427		19.531250
8428		21.484375
8429		17.578125
8430		21.484375
8431		17.578125
8432		21.484375
8433		17.578125
8434		19.531250
8435		15.625000
8436		19.531250
8437		15.625000
8438		19.531250
8439		13.671875
8440		19.531250
8441		13.671875
8442		17.578125
8443		13.671875
8444		17.578125
8445		11.718750
8446		17.578125
8447		11.718750
8448		15.625000
8449		11.718750
8450		15.625000
8451		9.765625
8452		13.671875
8453		9.765625
8454		13.671875
8455		9.765625
8456		13.671875
8457		7.812500
8458		13.671875
8459		7.812500
8460		11.718750
8461		7.812500
8462		11.718750
8463		5.859375
8464		9.765625
8465		5.859375
8466		9.765625
8467		3.906250
8468		9.765625
8469		3.906250
8470		7.812500
8471		1.953125
8472		7.812500
8473		1.953125
8474		5.859375
8475		1.953125
8476		5.859375
8477		0.000000
8478		3.906250
8479		0.000000
8480		3.906250
8481		0.000000
8482		3.906250
8483		-1.953125
8484		1.953125
8485		-1.953125
8486		1.953125
8487		-3.906250
8488		0.000000
8489		-3.906250
8490		0.000000
8491		-3.906250
8492		-1.953125
8493		-5.859375
8494		-1.953125
8495		-5.859375
8496		-1.953125
8497		-5.859375
8498		-3.906250
8499		-7.812500
8500		-3.906250
8501		-7.812500
8502		-5.859375
8503		-9.765625
8504		-5.859375
8505		-9.765625
8506		-5.859375
8507		-11.718750
8508		-5.859375
8509		-11.718750
8510		-7.812500
8511		-11.718750
8512		-7.812500
8513		-13.671875
8514		-9.765625
8515		-13.671875
8516		-9.765625
8517		-13.671875
8518		-11.718750
8519		-15.625000
8520		-11.718750
8521		-15.625000
8522		-11.718750
8523		-17.578125
8524		-13.671875
8525		-17.578125
8526		-13.671875
8527		-17.578125
8528		-13.671875
8529		-17.578125
8530		-15.625000
8531		-19.531250
8532		-15.625000
8533		-19.531250
8534		-15.625000
8535		-19.531250
8536		-15.625000
8537		-21.484375
8538		-17.578125
8539		-21.484375
8540		-17.578125
8541		-21.484375
8542		-17.578125
8543		-21.484375
8544		-19.531250
8545		-23.437500
8546		-19.531250
8547		-23.437500
8548		-19.531250
8549		-23.437500
8550		-19.531250
8551		-23.437500
8552		-21.484375
8553		-25.390625
8554		-21.484375
8555		-25.390625
8556		-21.484375
8557		-27.343750
8558		-21.484375
8559		-25.390625
8560		-23.437500
8561		-27.343750
8562		-23.437500
8563		-27.343750
8564		-23.437500
8565		-27.343750
8566		-23.437500
8567		-27.343750
8568		-23.437500
8569		-27.343750
8570		-23.437500
8571		-27.343750
8572		-25.390625
8573		-27.343750
8574		-25.390625
8575		-29.296875
8576		-25.390625
8577		-29.296875
8578		-25.390625
8579		-29.296875
8580		-25.390625
8581		-29.296875
8582		-25.390625
8583		-29.296875
8584		-25.390625
8585		-29.296875
8586		-25.390625
8587		-29.296875
8588		-25.390625
8589		-29.296875
8590		-25.390625
8591		-31.250000
8592		-25.390625
8593		-29.296875
8594		-27.343750
8595		-29.296875
8596		-27.343750
8597		-29.296875
8598		-25.390625
8599		-29.296875
8600		-25.390625
8601		-29.296875
8602		-25.390625
8603		-29.296875
8604		-25.390625
8605		-29.296875
8606		-27.343750
8607		-29.296875
8608		-25.390625
8609		-29.296875
8610		-25.390625
8611		-29.296875
8612		-25.390625
8613		-29.296875
8614		-25.390625
8615		-29.296875
8616		-25.390625
8617		-29.296875
8618		-25.390625
8619		-27.343750
8620		-25.390625
8621		-27.343750
8622		-25.390625
8623		-27.343750
8624		-23.437500
8625		-27.343750
8626		-23.437500
8627		-27.343750
8628		-23.437500
8629		-27.343750
8630		-23.437500
8631		-27.343750
8632		-23.437500
8633		-25.390625
8634		-23.437500
8635		-25.390625
8636		-21.484375
8637		-25.390625
8638		-21.484375
8639		-25.390625
8640		-21.484375
8641		-25.390625
8642		-19.531250
8643		-23.437500
8644		-19.531250
8645		-23.437500
8646		-19.531250
8647		-23.437500
8648		-19.531250
8649		-21.484375
8650		-19.531250
8651		-21.484375
8652		-17.578125
8653		-21.484375
8654		-17.578125
8655		-21.484375
8656		-17.578125
8657		-19.531250
8658		-15.625000
8659		-19.531250
8660		-15.625000
8661		-19.531250
8662		-15.625000
8663		-17.578125
8664		-13.671875
8665		-17.578125
8666		-13.671875
8667		-17.578125
8668		-13.671875
8669		-15.625000
8670		-11.718750
8671		-15.625000
8672		-11.718750
8673		-13.671875
8674		-11.718750
8675		-13.671875
8676		-9.765625
8677		-13.671875
8678		-9.765625
8679		-11.718750
8680		-9.765625
8681		-11.718750
8682		-7.812500
8683		-11.718750
8684		-7.812500
8685		-9.765625
8686		-5.859375
8687		-9.765625
8688		-5.859375
8689		-7.812500
8690		-5.859375
8691		-7.812500
8692		-3.906250
8693		-7.812500
8694		-3.906250
8695		-5.859375
8696		-1.953125
8697		-5.859375
8698		-1.953125
8699		-3.906250
8700		-1.953125
8701		-3.906250
8702		0.000000
8703		-3.906250
8704		0.000000
8705		-1.953125
8706		0.000000
8707		-1.953125
8708		1.953125
8709		-1.953125
8710		1.953125
8711		0.000000
8712		3.906250
8713		0.000000
8714		3.906250
8715		0.000000
8716		5.859375
8717		1.953125
8718		5.859375
8719		1.953125
8720		5.859375
8721		3.906250
8722		7.812500
8723		3.906250
8724		7.812500
8725		5.859375
8726		7.812500
8727		3.906250
8728		9.765625
8729		5.859375
8730		9.765625
8731		7.812500
8732		11.718750
8733		7.812500
8734		11.718750
8735		9.765625
8736		11.718750
8737		9.765625
8738		13.671875
8739		9.765625
8740		13.671875
8741		11.718750
8742		13.671875
8743		11.718750
8744		15.625000
8745		11.718750
8746		15.625000
8747		13.671875
8748		15.625000
8749		13.671875
8750		17.578125
8751		13.671875
8752		17.578125
8753		15.625000
8754		17.578125
8755		15.625000
8756		19.531250
8757		15.625000
8758		19.531250
8759		17.578125
8760		19.531250
8761		17.578125
8762		21.484375
8763		17.578125
8764		21.484375
8765		17.578125
8766		21.484375
8767		19.531250
8768		23.437500
8769		19.531250
8770		23.437500
8771		19.531250
8772		23.437500
8773		21.484375
8774		25.390625
8775		21.484375
8776		25.390625
8777		21.484375
8778		25.390625
8779		23.437500
8780		25.390625
8781		23.437500
8782		27.343750
8783		23.437500
8784		27.343750
8785		23.437500
8786		27.343750
8787		23.437500
8788		27.343750
8789		25.390625
8790		27.343750
8791		25.390625
8792		29.296875
8793		25.390625
8794		29.296875
8795		25.390625
8796		29.296875
8797		25.390625
8798		29.296875
8799		25.390625
8800		29.296875
8801		27.343750
8802		29.296875
8803		27.343750
8804		29.296875
8805		27.343750
8806		31.250000
8807		27.343750
8808		31.250000
8809		27.343750
8810		31.250000
8811		27.343750
8812		31.250000
8813		27.343750
8814		31.250000
8815		29.296875
8816		31.250000
8817		29.296875
8818		31.250000
8819		29.296875
8820		31.250000
8821		29.296875
8822		31.250000
8823		29.296875
8824		33.203125
8825		29.296875
8826		33.203125
8827		29.296875
8828		33.203125
8829		29.296875
8830		31.250000
8831		29.296875
8832		31.250000
8833		29.296875
8834		33.203125
8835		29.296875
8836		33.203125
8837		29.296875
8838		33.203125
8839		29.296875
8840		31.250000
8841		29.296875
8842		33.203125
8843		27.343750
8844		31.250000
8845		29.296875
8846		31.250000
8847		29.296875
8848		31.250000
8849		27.343750
8850		31.250000
8851		27.343750
8852		31.250000
8853		27.343750
8854		31.250000
8855		27.343750
8856		31.250000
8857		27.343750
8858		31.250000
8859		27.343750
8860		31.250000
8861		27.343750
8862		31.250000
8863		27.343750
8864		29.296875
8865		27.343750
8866		29.296875
8867		25.390625
8868		29.296875
8869		25.390625
8870		29.296875
8871		25.390625
8872		29.296875
8873		25.390625
8874		29.296875
8875		25.390625
8876		27.343750
8877		23.437500
8878		27.343750
8879		23.437500
8880		27.343750
8881		23.437500
8882		27.343750
8883		23.437500
8884		27.343750
8885		21.484375
8886		25.390625
8887		21.484375
8888		25.390625
8889		21.484375
8890		25.390625
8891		21.484375
8892		25.390625
8893		21.484375
8894		23.437500
8895		19.531250
8896		23.437500
8897		19.531250
8898		23.437500
8899		19.531250
8900		23.437500
8901		17.578125
8902		21.484375
8903		17.578125
8904		21.484375
8905		17.578125
8906		21.484375
8907		17.578125
8908		19.531250
8909		15.625000
8910		19.531250
8911		15.625000
8912		19.531250
8913		13.671875
8914		17.578125
8915		13.671875
8916		17.578125
8917		13.671875
8918		15.625000
8919		11.718750
8920		15.625000
8921		11.718750
8922		15.625000
8923		11.718750
8924		13.671875
8925		9.765625
8926		13.671875
8927		9.765625
8928		13.671875
8929		9.765625
8930		11.718750
8931		7.812500
8932		11.718750
8933		7.812500
8934		11.718750
8935		5.859375
8936		9.765625
8937		5.859375
8938		9.765625
8939		5.859375
8940		9.765625
8941		3.906250
8942		7.812500
8943		3.906250
8944		7.812500
8945		3.906250
8946		5.859375
8947		1.953125
8948		5.859375
8949		1.953125
8950		5.859375
8951		0.000000
8952		3.906250
8953		-1.953125
8954		3.906250
8955		-1.953125
8956		1.953125
8957		-1.953125
8958		1.953125
8959		-1.953125
8960		1.953125
8961		-3.906250
8962		0.000000
8963		-3.906250
8964		0.000000
8965		-3.906250
8966		-1.953125
8967		-5.859375
8968		-1.953125
8969		-7.812500
8970		-1.953125
8971		-7.812500
8972		-3.906250
8973		-7.812500
8974		-3.906250
8975		-7.812500
8976		-5.859375
8977		-9.765625
8978		-5.859375
8979		-9.765625
8980		-5.859375
8981		-9.765625
8982		-7.812500
8983		-11.718750
8984		-7.812500
8985		-13.671875
8986		-7.812500
8987		-13.671875
8988		-9.765625
8989		-13.671875
8990		-9.765625
8991		-13.671875
8992		-11.718750
8993		-15.625000
8994		-11.718750
8995		-15.625000
8996		-11.718750
8997		-15.625000
8998		-13.671875
8999		-17.578125
9000		-13.671875
9001		-17.578125
9002		-13.671875
9003		-17.578125
9004		-13.671875
9005		-19.531250
9006		-15.625000
9007		-19.531250
9008		-15.625000
9009		-19.531250
9010		-17.578125
9011		-21.484375
9012		-15.625000
9013		-21.484375
9014		-17.578125
9015		-21.484375
9016		-17.578125
9017		-23.437500
9018		-19.531250
9019		-23.437500
9020		-19.531250
9021		-23.437500
9022		-19.531250
9023		-23.437500
9024		-21.484375
9025		-25.390625
9026		-19.531250
9027		-25.390625
9028		-21.484375
9029		-25.390625
9030		-21.484375
9031		-25.390625
9032		-21.484375
9033		-25.390625
9034		-23.437500
9035		-25.390625
9036		-23.437500
9037		-27.343750
9038		-23.437500
9039		-27.343750
9040		-23.437500
9041		-27.343750
9042		-23.437500
9043		-27.343750
9044		-23.437500
9045		-27.343750
9046		-23.437500
9047		-27.343750
9048		-25.390625
9049		-27.343750
9050		-25.390625
9051		-29.296875
9052		-25.390625
9053		-29.296875
9054		-25.390625
9055		-29.296875
9056		-25.390625
9057		-29.296875
9058		-25.390625
9059		-29.296875
9060		-25.390625
9061		-29.296875
9062		-25.390625
9063		-29.296875
9064		-25.390625
9065		-29.296875
9066		-25.390625
9067		-29.296875
9068		-25.390625
9069		-29.296875
9070		-25.390625
9071		-29.296875
9072		-25.390625
9073		-29.296875
9074		-25.390625
9075		-29.296875
9076		-25.390625
9077		-29.296875
9078		-25.390625
9079		-29.296875
9080		-25.390625
9081		-29.296875
9082		-25.390625
9083		-29.296875
9084		-25.390625
9085		-29.296875
9086		-25.390625
9087		-29.296875
9088		-25.390625
9089		-27.343750
9090		-23.437500
9091		-27.343750
9092		-23.437500
9093		-27.343750
9094		-23.437500
9095		-27.343750
9096		-23.437500
9097		-25.390625
9098		-23.437500
9099		-25.390625
9100		-23.437500
9101		-25.390625
9102		-21.484375
9103		-25.390625
9104		-21.484375
9105		-25.390625
9106		-21.484375
9107		-25.390625
9108		-21.484375
9109		-25.390625
9110		-19.531250
9111		-23.437500
9112		-19.531250
9113		-23.437500
9114		-19.531250
9115		-23.437500
9116		-19.531250
9117		-23.437500
9118		-17.578125
9119		-21.484375
9120		-17.578125
9121		-21.484375
9122		-17.578125
9123		-21.484375
9124		-17.578125
9125		-19.531250
9126		-17.578125
9127		-19.531250
9128		-15.625000
9129		-19.531250
9130		-15.625000
9131		-19.531250
9132		-15.625000
9133		-17.578125
9134		-13.671875
9135		-17.578125
9136		-13.671875
9137		-17.578125
9138		-11.718750
9139		-15.625000
9140		-11.718750
9141		-15.625000
9142		-11.718750
9143		-13.671875
9144		-11.718750
9145		-13.671875
9146		-9.765625
9147		-13.671875
9148		-9.765625
9149		-11.718750
9150		-9.765625
9151		-11.718750
9152		-7.812500
9153		-11.718750
9154		-7.812500
9155		-9.765625
9156		-5.859375
9157		-9.765625
9158		-5.859375
9159		-9.765625
9160		-5.859375
9161		-7.812500
9162		-3.906250
9163		-7.812500
9164		-3.906250
9165		-5.859375
9166		-3.906250
9167		-5.859375
9168		-1.953125
9169		-5.859375
9170		-1.953125
9171		-3.906250
9172		0.000000
9173		-3.906250
9174		0.000000
9175		-1.953125
9176		1.953125
9177		-1.953125
9178		1.953125
9179		-1.953125
9180		3.906250
9181		0.000000
9182		3.906250
9183		0.000000
9184		3.906250
9185		1.953125
9186		3.906250
9187		1.953125
9188		5.859375
9189		1.953125
9190		5.859375
9191		3.906250
9192		7.812500
9193		3.906250
9194		7.812500
9195		5.859375
9196		9.765625
9197		5.859375
9198		9.765625
9199		7.812500
9200		9.765625
9201		7.812500
9202		11.718750
9203		7.812500
9204		11.718750
9205		9.765625
9206		11.718750
9207		9.765625
9208		13.671875
9209		9.765625
9210		13.671875
9211		9.765625
9212		15.625000
9213		11.718750
9214		15.625000
9215		11.718750
9216		15.625000
9217		13.671875
9218		15.625000
9219		13.671875
9220		17.578125
9221		13.671875
9222		19.531250
9223		15.625000
9224		17.578125
9225		15.625000
9226		19.531250
9227		15.625000
9228		19.531250
9229		17.578125
9230		19.531250
9231		17.578125
9232		21.484375
9233		17.578125
9234		21.484375
9235		19.531250
9236		21.484375
9237		19.531250
9238		23.437500
9239		19.531250
9240		23.437500
9241		21.484375
9242		23.437500
9243		21.484375
9244		25.390625
9245		21.484375
9246		25.390625
9247		21.484375
9248		25.390625
9249		23.437500
9250		25.390625
9251		23.437500
9252		25.390625
9253		23.437500
9254		27.343750
9255		23.437500
9256		27.343750
9257		25.390625
9258		27.343750
9259		25.390625
9260		29.296875
9261		23.437500
9262		29.296875
9263		25.390625
9264		29.296875
9265		25.390625
9266		29.296875
9267		27.343750
9268		29.296875
9269		25.390625
9270		29.296875
9271		27.343750
9272		31.250000
9273		27.343750
9274		31.250000
9275		27.343750
9276		31.250000
9277		27.343750
9278		31.250000
9279		27.343750
9280		31.250000
9281		27.343750
9282		31.250000
9283		29.296875
9284		31.250000
9285		29.296875
9286		33.203125
9287		29.296875
9288		33.203125
9289		29.296875
9290		33.203125
9291		29.296875
9292		33.203125
9293		29.296875
9294		33.203125
9295		29.296875
9296		33.203125
9297		29.296875
9298		33.203125
9299		29.296875
9300		33.203125
9301		29.296875
9302		33.203125
9303		29.296875
9304		33.203125
9305		29.296875
9306		33.203125
9307		29.296875
9308		33.203125
9309		29.296875
9310		33.203125
9311		29.296875
9312		33.203125
9313		29.296875
9314		33.203125
9315		29.296875
9316		33.203125
9317		29.296875
9318		33.203125
9319		29.296875
9320		33.203125
9321		29.296875
9322		33.203125
9323		29.296875
9324		31.250000
9325		29.296875
9326		31.250000
9327		27.343750
9328		31.250000
9329		27.343750
9330		31.250000
9331		27.343750
9332		31.250000
9333		27.343750
9334		31.250000
9335		27.343750
9336		31.250000
9337		27.343750
9338		31.250000
9339		27.343750
9340		29.296875
9341		27.343750
9342		29.296875
9343		25.390625
9344		29.296875
9345		25.390625
9346		29.296875
9347		25.390625
9348		29.296875
9349		25.390625
9350		27.343750
9351		25.390625
9352		27.343750
9353		23.437500
9354		27.343750
9355		23.437500
9356		27.343750
9357		23.437500
9358		25.390625
9359		21.484375
9360		25.390625
9361		21.484375
9362		25.390625
9363		21.484375
9364		25.390625
9365		21.484375
9366		25.390625
9367		21.484375
9368		23.437500
9369		19.531250
9370		23.437500
9371		19.531250
9372		23.437500
9373		17.578125
9374		21.484375
9375		17.578125
9376		21.484375
9377		17.578125
9378		21.484375
9379		17.578125
9380		19.531250
9381		15.625000
9382		19.531250
9383		15.625000
9384		19.531250
9385		15.625000
9386		17.578125
9387		13.671875
9388		17.578125
9389		13.671875
9390		17.578125
9391		13.671875
9392		15.625000
9393		11.718750
9394		15.625000
9395		11.718750
9396		15.625000
9397		11.718750
9398		13.671875
9399		9.765625
9400		13.671875
9401		9.765625
9402		13.671875
9403		7.812500
9404		11.718750
9405		7.812500
9406		11.718750
9407		7.812500
9408		9.765625
9409		5.859375
9410		9.765625
9411		5.859375
9412		9.765625
9413		5.859375
9414		7.812500
9415		3.906250
9416		7.812500
9417		3.906250
9418		7.812500
9419		1.953125
9420		5.859375
9421		1.953125
9422		5.859375
9423		0.000000
9424		3.906250
9425		0.000000
9426		3.906250
9427		0.000000
9428		3.906250
9429		-1.953125
9430		1.953125
9431		-1.953125
9432		1.953125
9433		-3.906250
9434		1.953125
9435		-3.906250
9436		0.000000
9437		-3.906250
9438		-1.953125
9439		-5.859375
9440		-1.953125
9441		-7.812500
9442		-1.953125
9443		-7.812500
9444		-3.906250
9445		-7.812500
9446		-3.906250
9447		-7.812500
9448		-5.859375
9449		-9.765625
9450		-5.859375
9451		-9.765625
9452		-5.859375
9453		-11.718750
9454		-7.812500
9455		-11.718750
9456		-7.812500
9457		-11.718750
9458		-9.765625
9459		-13.671875
9460		-9.765625
9461		-13.671875
9462		-9.765625
9463		-13.671875
9464		-11.718750
9465		-15.625000
9466		-9.765625
9467		-15.625000
9468		-11.718750
9469		-15.625000
9470		-13.671875
9471		-17.578125
9472		-13.671875
9473		-17.578125
9474		-13.671875
9475		-19.531250
9476		-13.671875
9477		-19.531250
9478		-15.625000
9479		-19.531250
9480		-15.625000
9481		-19.531250
9482		-15.625000
9483		-21.484375
9484		-17.578125
9485		-21.484375
9486		-17.578125
9487		-21.484375
9488		-17.578125
9489		-21.484375
9490		-19.531250
9491		-21.484375
9492		-19.531250
9493		-23.437500
9494		-19.531250
9495		-23.437500
9496		-19.531250
9497		-23.437500
9498		-21.484375
9499		-25.390625
9500		-21.484375
9501		-25.390625
9502		-21.484375
9503		-25.390625
9504		-21.484375
9505		-25.390625
9506		-23.437500
9507		-25.390625
9508		-23.437500
9509		-27.343750
9510		-23.437500
9511		-27.343750
9512		-23.437500
9513		-27.343750
9514		-23.437500
9515		-27.343750
9516		-23.437500
9517		-27.343750
9518		-23.437500
9519		-27.343750
9520		-25.390625
9521		-29.296875
9522		-23.437500
9523		-27.343750
9524		-23.437500
9525		-29.296875
9526		-25.390625
9527		-29.296875
9528		-25.390625
9529		-29.296875
9530		-25.390625
9531		-29.296875
9532		-25.390625
9533		-29.296875
9534		-25.390625
9535		-29.296875
9536		-25.390625
9537		-29.296875
9538		-25.390625
9539		-29.296875
9540		-25.390625
9541		-29.296875
9542		-25.390625
9543		-29.296875
9544		-25.390625
9545		-27.343750
9546		-25.390625
9547		-29.296875
9548		-25.390625
9549		-29.296875
9550		-23.437500
9551		-27.343750
9552		-25.390625
9553		-27.343750
9554		-25.390625
9555		-29.296875
9556		-23.437500
9557		-27.343750
9558		-25.390625
9559		-27.343750
9560		-23.437500
9561		-27.343750
9562		-23.437500
9563		-27.343750
9564		-23.437500
9565		-27.343750
9566		-23.437500
9567		-27.343750
9568		-23.437500
9569		-25.390625
9570		-23.437500
9571		-25.390625
9572		-21.484375
9573		-25.390625
9574		-21.484375
9575		-25.390625
9576		-21.484375
9577		-25.390625
9578		-21.484375
9579		-23.437500
9580		-19.531250
9581		-23.437500
9582		-19.531250
9583		-23.437500
9584		-19.531250
9585		-23.437500
9586		-19.531250
9587		-21.484375
9588		-19.531250
9589		-21.484375
9590		-17.578125
9591		-21.484375
9592		-17.578125
9593		-21.484375
9594		-17.578125
9595		-19.531250
9596		-17.578125
9597		-19.531250
9598		-15.625000
9599		-19.531250
9600		-15.625000
9601		-19.531250
9602		-15.625000
9603		-17.578125
9604		-13.671875
9605		-17.578125
9606		-13.671875
9607		-17.578125
9608		-13.671875
9609		-15.625000
9610		-11.718750
9611		-15.625000
9612		-11.718750
9613		-13.671875
9614		-11.718750
9615		-13.671875
9616		-9.765625
9617		-13.671875
9618		-9.765625
9619		-11.718750
9620		-9.765625
9621		-11.718750
9622		-7.812500
9623		-11.718750
9624		-7.812500
9625		-9.765625
9626		-5.859375
9627		-9.765625
9628		-5.859375
9629		-7.812500
9630		-5.859375
9631		-7.812500
9632		-3.906250
9633		-7.812500
9634		-3.906250
9635		-5.859375
9636		-3.906250
9637		-5.859375
9638		-1.953125
9639		-5.859375
9640		0.000000
9641		-3.906250
9642		0.000000
9643		-3.906250
9644		0.000000
9645		-1.953125
9646		1.953125
9647		-1.953125
9648		1.953125
9649		0.000000
9650		1.953125
9651		-1.953125
9652		3.906250
9653		0.000000
9654		3.906250
9655		1.953125
9656		5.859375
9657		1.953125
9658		5.859375
9659		1.953125
9660		5.859375
9661		3.906250
9662		7.812500
9663		3.906250
9664		7.812500
9665		5.859375
9666		7.812500
9667		5.859375
9668		9.765625
9669		5.859375
9670		9.765625
9671		7.812500
9672		9.765625
9673		7.812500
9674		11.718750
9675		9.765625
9676		11.718750
9677		9.765625
9678		13.671875
9679		9.765625
9680		13.671875
9681		11.718750
9682		13.671875
9683		11.718750
9684		15.625000
9685		11.718750
9686		15.625000
9687		13.671875
9688		15.625000
9689		11.718750
9690		17.578125
9691		13.671875
9692		17.578125
9693		15.625000
9694		19.531250
9695		15.625000
9696		19.531250
9697		15.625000
9698		19.531250
9699		17.578125
9700		19.531250
9701		17.578125
9702		21.484375
9703		17.578125
9704		21.484375
9705		19.531250
9706		21.484375
9707		19.531250
9708		23.437500
9709		19.531250
9710		23.437500
9711		19.531250
9712		25.390625
9713		21.484375
9714		25.390625
9715		21.484375
9716		25.390625
9717		21.484375
9718		25.390625
9719		23.437500
9720		27.343750
9721		23.437500
9722		27.343750
9723		23.437500
9724		27.343750
9725		23.437500
9726		27.343750
9727		23.437500
9728		27.343750
9729		25.390625
9730		29.296875
9731		25.390625
9732		29.296875
9733		25.390625
9734		29.296875
9735		25.390625
9736		29.296875
9737		25.390625
9738		29.296875
9739		27.343750
9740		31.250000
9741		27.343750
9742		31.250000
9743		27.343750
9744		31.250000
9745		27.343750
9746		31.250000
9747		27.343750
9748		31.250000
9749		29.296875
9750		31.250000
9751		29.296875
9752		31.250000
9753		29.296875
9754		31.250000
9755		29.296875
9756		31.250000
9757		29.296875
9758		33.203125
9759		29.296875
9760		33.203125
9761		29.296875
9762		33.203125
9763		29.296875
9764		33.203125
9765		29.296875
9766		33.203125
9767		29.296875
9768		33.203125
9769		29.296875
9770		33.203125
9771		29.296875
9772		33.203125
9773		29.296875
9774		33.203125
9775		29.296875
9776		33.203125
9777		29.296875
9778		33.203125
9779		29.296875
9780		33.203125
9781		29.296875
9782		33.203125
9783		29.296875
9784		33.203125
9785		29.296875
9786		33.203125
9787		29.296875
9788		33.203125
9789		29.296875
9790		33.203125
9791		29.296875
9792		33.203125
9793		29.296875
9794		33.203125
9795		29.296875
9796		33.203125
9797		29.296875
9798		31.250000
9799		29.296875
9800		31.250000
9801		27.343750
9802		33.203125
9803		27.343750
9804		31.250000
9805		27.343750
9806		31.250000
9807		27.343750
9808		31.250000
9809		27.343750
9810		31.250000
9811		27.343750
9812		29.296875
9813		27.343750
9814		29.296875
9815		25.390625
9816		29.296875
9817		25.390625
9818		29.296875
9819		25.390625
9820		29.296875
9821		25.390625
9822		27.343750
9823		23.437500
9824		27.343750
9825		23.437500
9826		27.343750
9827		23.437500
9828		27.343750
9829		23.437500
9830		27.343750
9831		21.484375
9832		25.390625
9833		21.484375
9834		25.390625
9835		21.484375
9836		25.390625
9837		21.484375
9838		23.437500
9839		19.531250
9840		23.437500
9841		19.531250
9842		25.390625
9843		19.531250
9844		23.437500
9845		17.578125
9846		23.437500
9847		17.578125
9848		21.484375
9849		17.578125
9850		21.484375
9851		17.578125
9852		21.484375
9853		15.625000
9854		19.531250
9855		15.625000
9856		19.531250
9857		15.625000
9858		19.531250
9859		13.671875
9860		17.578125
9861		13.671875
9862		17.578125
9863		13.671875
9864		15.625000
9865		11.718750
9866		15.625000
9867		11.718750
9868		15.625000
9869		9.765625
9870		13.671875
9871		9.765625
9872		13.671875
9873		9.765625
9874		13.671875
9875		7.812500
9876		13.671875
9877		7.812500
9878		11.718750
9879		7.812500
9880		11.718750
9881		5.859375
9882		9.765625
9883		5.859375
9884		9.765625
9885		3.906250
9886		9.765625
9887		3.906250
9888		7.812500
9889		3.906250
9890		5.859375
9891		1.953125
9892		5.859375
9893		1.953125
9894		5.859375
9895		1.953125
9896		3.906250
9897		0.000000
9898		3.906250
9899		-1.953125
9900		3.906250
9901		-1.953125
9902		1.953125
9903		-1.953125
9904		1.953125
9905		-3.906250
9906		0.000000
9907		-3.906250
9908		0.000000
9909		-3.906250
9910		0.000000
9911		-5.859375
9912		-1.953125
9913		-5.859375
9914		-1.953125
9915		-7.812500
9916		-3.906250
9917		-7.812500
9918		-3.906250
9919		-9.765625
9920		-3.906250
9921		-9.765625
9922		-5.859375
9923		-9.765625
9924		-5.859375
9925		-11.718750
9926		-7.812500
9927		-11.718750
9928		-7.812500
9929		-11.718750
9930		-7.812500
9931		-13.671875
9932		-9.765625
9933		-13.671875
9934		-9.765625
9935		-13.671875
9936		-9.765625
9937		-15.625000
9938		-11.718750
9939		-15.625000
9940		-11.718750
9941		-15.625000
9942		-11.718750
9943		-17.578125
9944		-13.671875
9945		-17.578125
9946		-13.671875
9947		-17.578125
9948		-13.671875
9949		-19.531250
9950		-15.625000
9951		-19.531250
9952		-15.625000
9953		-19.531250
9954		-15.625000
9955		-19.531250
9956		-17.578125
9957		-19.531250
9958		-17.578125
9959		-21.484375
9960		-17.578125
9961		-21.484375
9962		-17.578125
9963		-21.484375
9964		-19.531250
9965		-23.437500
9966		-19.531250
9967		-23.437500
9968		-19.531250
9969		-23.437500
9970		-19.531250
9971		-23.437500
9972		-21.484375
9973		-25.390625
9974		-21.484375
9975		-25.390625
9976		-21.484375
9977		-25.390625
9978		-21.484375
9979		-25.390625
9980		-21.484375
9981		-27.343750
9982		-21.484375
9983		-25.390625
9984		-23.437500
9985		-27.343750
9986		-23.437500
9987		-27.343750
9988		-23.437500
9989		-27.343750
9990		-23.437500
9991		-27.343750
9992		-23.437500
9993		-27.343750
9994		-23.437500
9995		-27.343750
9996		-23.437500
9997		-27.343750
9998		-25.390625
9999		-27.343750
10000		-23.437500
