Channel              :		CH1
Frequency            :		  ?
Period               :		  ?
PK-PK                :		937.5mV
Probe attenuation    :		1X
Voltage per ADC value:		2.441406mV
Time interval        :		1000.00000us

index		CH1_Voltage(mV)
1		-1679.687500
2		-1679.687500
3		-1679.687500
4		-1679.687500
5		-1679.687500
6		-1679.687500
7		-1679.687500
8		-1679.687500
9		-1679.687500
10		-1679.687500
11		-1679.687500
12		-1679.687500
13		-1679.687500
14		-1679.687500
15		-1679.687500
16		-1640.625000
17		-1640.625000
18		-1679.687500
19		-1640.625000
20		-1679.687500
21		-1679.687500
22		-1640.625000
23		-1679.687500
24		-1679.687500
25		-1679.687500
26		-1679.687500
27		-1679.687500
28		-1679.687500
29		-1679.687500
30		-1679.687500
31		-1640.625000
32		-1640.625000
33		-1640.625000
34		-1640.625000
35		-1640.625000
36		-1640.625000
37		-1640.625000
38		-1640.625000
39		-1640.625000
40		-1640.625000
41		-1640.625000
42		-1640.625000
43		-1640.625000
44		-1640.625000
45		-1640.625000
46		-1640.625000
47		-1640.625000
48		-1640.625000
49		-1679.687500
50		-1640.625000
51		-1640.625000
52		-1640.625000
53		-1640.625000
54		-1640.625000
55		-1640.625000
56		-1640.625000
57		-1640.625000
58		-1640.625000
59		-1640.625000
60		-1640.625000
61		-1640.625000
62		-1640.625000
63		-1640.625000
64		-1640.625000
65		-1640.625000
66		-1640.625000
67		-1640.625000
68		-1640.625000
69		-1640.625000
70		-1640.625000
71		-1640.625000
72		-1640.625000
73		-1601.562500
74		-1640.625000
75		-1640.625000
76		-1640.625000
77		-1640.625000
78		-1640.625000
79		-1640.625000
80		-1640.625000
81		-1640.625000
82		-1640.625000
83		-1640.625000
84		-1640.625000
85		-1640.625000
86		-1640.625000
87		-1640.625000
88		-1640.625000
89		-1640.625000
90		-1601.562500
91		-1601.562500
92		-1601.562500
93		-1601.562500
94		-1601.562500
95		-1601.562500
96		-1601.562500
97		-1601.562500
98		-1601.562500
99		-1601.562500
100		-1601.562500
101		-1601.562500
102		-1601.562500
103		-1601.562500
104		-1601.562500
105		-1601.562500
106		-1601.562500
107		-1601.562500
108		-1601.562500
109		-1601.562500
110		-1601.562500
111		-1601.562500
112		-1601.562500
113		-1601.562500
114		-1601.562500
115		-1601.562500
116		-1601.562500
117		-1601.562500
118		-1601.562500
119		-1601.562500
120		-1601.562500
121		-1601.562500
122		-1601.562500
123		-1601.562500
124		-1601.562500
125		-1601.562500
126		-1601.562500
127		-1562.500000
128		-1562.500000
129		-1562.500000
130		-1562.500000
131		-1562.500000
132		-1562.500000
133		-1562.500000
134		-1562.500000
135		-1562.500000
136		-1562.500000
137		-1562.500000
138		-1562.500000
139		-1523.437500
140		-1562.500000
141		-1562.500000
142		-1562.500000
143		-1562.500000
144		-1562.500000
145		-1562.500000
146		-1562.500000
147		-1562.500000
148		-1562.500000
149		-1562.500000
150		-1562.500000
151		-1562.500000
152		-1562.500000
153		-1562.500000
154		-1562.500000
155		-1562.500000
156		-1562.500000
157		-1562.500000
158		-1562.500000
159		-1562.500000
160		-1562.500000
161		-1562.500000
162		-1562.500000
163		-1562.500000
164		-1562.500000
165		-1562.500000
166		-1562.500000
167		-1562.500000
168		-1523.437500
169		-1562.500000
170		-1523.437500
171		-1562.500000
172		-1562.500000
173		-1523.437500
174		-1523.437500
175		-1523.437500
176		-1523.437500
177		-1523.437500
178		-1523.437500
179		-1523.437500
180		-1523.437500
181		-1523.437500
182		-1523.437500
183		-1523.437500
184		-1523.437500
185		-1523.437500
186		-1523.437500
187		-1523.437500
188		-1523.437500
189		-1523.437500
190		-1523.437500
191		-1523.437500
192		-1523.437500
193		-1523.437500
194		-1523.437500
195		-1523.437500
196		-1523.437500
197		-1523.437500
198		-1523.437500
199		-1523.437500
200		-1484.375000
201		-1523.437500
202		-1523.437500
203		-1484.375000
204		-1523.437500
205		-1523.437500
206		-1523.437500
207		-1523.437500
208		-1523.437500
209		-1484.375000
210		-1523.437500
211		-1523.437500
212		-1484.375000
213		-1484.375000
214		-1484.375000
215		-1484.375000
216		-1484.375000
217		-1484.375000
218		-1484.375000
219		-1484.375000
220		-1484.375000
221		-1484.375000
222		-1484.375000
223		-1484.375000
224		-1484.375000
225		-1484.375000
226		-1484.375000
227		-1484.375000
228		-1484.375000
229		-1484.375000
230		-1484.375000
231		-1484.375000
232		-1484.375000
233		-1445.312500
234		-1445.312500
235		-1484.375000
236		-1445.312500
237		-1445.312500
238		-1445.312500
239		-1445.312500
240		-1445.312500
241		-1445.312500
242		-1445.312500
243		-1445.312500
244		-1484.375000
245		-1445.312500
246		-1445.312500
247		-1445.312500
248		-1445.312500
249		-1445.312500
250		-1445.312500
251		-1445.312500
252		-1445.312500
253		-1445.312500
254		-1445.312500
255		-1406.250000
256		-1445.312500
257		-1406.250000
258		-1445.312500
259		-1445.312500
260		-1445.312500
261		-1445.312500
262		-1445.312500
263		-1445.312500
264		-1484.375000
265		-1445.312500
266		-1445.312500
267		-1406.250000
268		-1445.312500
269		-1406.250000
270		-1406.250000
271		-1406.250000
272		-1406.250000
273		-1406.250000
274		-1406.250000
275		-1406.250000
276		-1406.250000
277		-1406.250000
278		-1406.250000
279		-1406.250000
280		-1406.250000
281		-1406.250000
282		-1406.250000
283		-1406.250000
284		-1406.250000
285		-1406.250000
286		-1406.250000
287		-1406.250000
288		-1406.250000
289		-1367.187500
290		-1406.250000
291		-1367.187500
292		-1367.187500
293		-1367.187500
294		-1367.187500
295		-1367.187500
296		-1367.187500
297		-1367.187500
298		-1367.187500
299		-1367.187500
300		-1367.187500
301		-1367.187500
302		-1367.187500
303		-1367.187500
304		-1367.187500
305		-1367.187500
306		-1367.187500
307		-1367.187500
308		-1367.187500
309		-1367.187500
310		-1367.187500
311		-1367.187500
312		-1367.187500
313		-1367.187500
314		-1367.187500
315		-1367.187500
316		-1367.187500
317		-1328.125000
318		-1328.125000
319		-1328.125000
320		-1367.187500
321		-1367.187500
322		-1328.125000
323		-1328.125000
324		-1328.125000
325		-1328.125000
326		-1328.125000
327		-1328.125000
328		-1328.125000
329		-1328.125000
330		-1328.125000
331		-1328.125000
332		-1328.125000
333		-1328.125000
334		-1328.125000
335		-1328.125000
336		-1328.125000
337		-1328.125000
338		-1328.125000
339		-1328.125000
340		-1289.062500
341		-1289.062500
342		-1289.062500
343		-1289.062500
344		-1289.062500
345		-1289.062500
346		-1289.062500
347		-1289.062500
348		-1289.062500
349		-1289.062500
350		-1289.062500
351		-1289.062500
352		-1289.062500
353		-1289.062500
354		-1289.062500
355		-1289.062500
356		-1289.062500
357		-1289.062500
358		-1289.062500
359		-1250.000000
360		-1250.000000
361		-1250.000000
362		-1289.062500
363		-1250.000000
364		-1250.000000
365		-1250.000000
366		-1250.000000
367		-1250.000000
368		-1250.000000
369		-1250.000000
370		-1250.000000
371		-1250.000000
372		-1250.000000
373		-1250.000000
374		-1250.000000
375		-1250.000000
376		-1250.000000
377		-1250.000000
378		-1250.000000
379		-1250.000000
380		-1250.000000
381		-1250.000000
382		-1210.937500
383		-1210.937500
384		-1210.937500
385		-1210.937500
386		-1210.937500
387		-1210.937500
388		-1210.937500
389		-1210.937500
390		-1210.937500
391		-1210.937500
392		-1210.937500
393		-1210.937500
394		-1210.937500
395		-1210.937500
396		-1210.937500
397		-1210.937500
398		-1210.937500
399		-1210.937500
400		-1171.875000
401		-1210.937500
402		-1171.875000
403		-1171.875000
404		-1171.875000
405		-1171.875000
406		-1171.875000
407		-1171.875000
408		-1171.875000
409		-1171.875000
410		-1171.875000
411		-1171.875000
412		-1171.875000
413		-1171.875000
414		-1171.875000
415		-1171.875000
416		-1171.875000
417		-1171.875000
418		-1171.875000
419		-1171.875000
420		-1171.875000
421		-1171.875000
422		-1171.875000
423		-1171.875000
424		-1171.875000
425		-1171.875000
426		-1132.812500
427		-1132.812500
428		-1132.812500
429		-1132.812500
430		-1132.812500
431		-1132.812500
432		-1132.812500
433		-1132.812500
434		-1132.812500
435		-1132.812500
436		-1132.812500
437		-1132.812500
438		-1132.812500
439		-1132.812500
440		-1132.812500
441		-1132.812500
442		-1132.812500
443		-1132.812500
444		-1132.812500
445		-1093.750000
446		-1132.812500
447		-1093.750000
448		-1132.812500
449		-1093.750000
450		-1093.750000
451		-1093.750000
452		-1093.750000
453		-1093.750000
454		-1054.687500
455		-1093.750000
456		-1093.750000
457		-1093.750000
458		-1093.750000
459		-1093.750000
460		-1093.750000
461		-1093.750000
462		-1093.750000
463		-1093.750000
464		-1093.750000
465		-1093.750000
466		-1093.750000
467		-1093.750000
468		-1054.687500
469		-1054.687500
470		-1054.687500
471		-1054.687500
472		-1054.687500
473		-1054.687500
474		-1054.687500
475		-1054.687500
476		-1054.687500
477		-1054.687500
478		-1054.687500
479		-1054.687500
480		-1054.687500
481		-1054.687500
482		-1054.687500
483		-1054.687500
484		-1015.625000
485		-1054.687500
486		-1054.687500
487		-1054.687500
488		-1054.687500
489		-1015.625000
490		-1015.625000
491		-1015.625000
492		-1015.625000
493		-1015.625000
494		-1015.625000
495		-1015.625000
496		-1015.625000
497		-1015.625000
498		-1015.625000
499		-1015.625000
500		-1015.625000
501		-1015.625000
502		-1015.625000
503		-1015.625000
504		-1015.625000
505		-1015.625000
506		-1015.625000
507		-1015.625000
508		-976.562500
509		-976.562500
510		-976.562500
511		-976.562500
512		-976.562500
513		-976.562500
514		-976.562500
515		-976.562500
516		-976.562500
517		-976.562500
518		-976.562500
519		-976.562500
520		-976.562500
521		-976.562500
522		-976.562500
523		-976.562500
524		-976.562500
525		-976.562500
526		-976.562500
527		-976.562500
528		-976.562500
529		-976.562500
530		-976.562500
531		-976.562500
532		-976.562500
533		-937.500000
534		-937.500000
535		-937.500000
536		-937.500000
537		-937.500000
538		-937.500000
539		-937.500000
540		-937.500000
541		-937.500000
542		-937.500000
543		-937.500000
544		-937.500000
545		-937.500000
546		-937.500000
547		-937.500000
548		-937.500000
549		-937.500000
550		-937.500000
551		-937.500000
552		-937.500000
553		-937.500000
554		-937.500000
555		-937.500000
556		-937.500000
557		-898.437500
558		-898.437500
559		-898.437500
560		-898.437500
561		-898.437500
562		-898.437500
563		-898.437500
564		-898.437500
565		-898.437500
566		-898.437500
567		-898.437500
568		-898.437500
569		-898.437500
570		-898.437500
571		-898.437500
572		-898.437500
573		-898.437500
574		-898.437500
575		-898.437500
576		-898.437500
577		-859.375000
578		-898.437500
579		-898.437500
580		-898.437500
581		-898.437500
582		-898.437500
583		-898.437500
584		-898.437500
585		-898.437500
586		-898.437500
587		-898.437500
588		-898.437500
589		-859.375000
590		-898.437500
591		-898.437500
592		-859.375000
593		-859.375000
594		-859.375000
595		-859.375000
596		-859.375000
597		-859.375000
598		-859.375000
599		-859.375000
600		-859.375000
601		-859.375000
602		-859.375000
603		-859.375000
604		-859.375000
605		-859.375000
606		-859.375000
607		-859.375000
608		-859.375000
609		-859.375000
610		-859.375000
611		-859.375000
612		-859.375000
613		-859.375000
614		-859.375000
615		-859.375000
616		-859.375000
617		-859.375000
618		-859.375000
619		-859.375000
620		-859.375000
621		-859.375000
622		-859.375000
623		-859.375000
624		-859.375000
625		-820.312500
626		-859.375000
627		-859.375000
628		-859.375000
629		-859.375000
630		-859.375000
631		-859.375000
632		-859.375000
633		-820.312500
634		-820.312500
635		-820.312500
636		-820.312500
637		-820.312500
638		-820.312500
639		-820.312500
640		-820.312500
641		-859.375000
642		-859.375000
643		-820.312500
644		-859.375000
645		-859.375000
646		-820.312500
647		-859.375000
648		-820.312500
649		-820.312500
650		-820.312500
651		-820.312500
652		-820.312500
653		-820.312500
654		-820.312500
655		-820.312500
656		-820.312500
657		-820.312500
658		-820.312500
659		-820.312500
660		-820.312500
661		-820.312500
662		-820.312500
663		-820.312500
664		-820.312500
665		-820.312500
666		-820.312500
667		-820.312500
668		-820.312500
669		-820.312500
670		-820.312500
671		-820.312500
672		-820.312500
673		-820.312500
674		-820.312500
675		-820.312500
676		-820.312500
677		-820.312500
678		-820.312500
679		-820.312500
680		-820.312500
681		-820.312500
682		-820.312500
683		-820.312500
684		-820.312500
685		-820.312500
686		-820.312500
687		-820.312500
688		-820.312500
689		-820.312500
690		-820.312500
691		-820.312500
692		-820.312500
693		-820.312500
694		-820.312500
695		-820.312500
696		-820.312500
697		-820.312500
698		-820.312500
699		-820.312500
700		-820.312500
701		-820.312500
702		-820.312500
703		-820.312500
704		-820.312500
705		-820.312500
706		-820.312500
707		-820.312500
708		-820.312500
709		-820.312500
710		-820.312500
711		-820.312500
712		-820.312500
713		-820.312500
714		-820.312500
715		-820.312500
716		-820.312500
717		-820.312500
718		-820.312500
719		-820.312500
720		-820.312500
721		-820.312500
722		-820.312500
723		-820.312500
724		-820.312500
725		-820.312500
726		-820.312500
727		-820.312500
728		-820.312500
729		-820.312500
730		-820.312500
731		-820.312500
732		-820.312500
733		-820.312500
734		-820.312500
735		-859.375000
736		-820.312500
737		-820.312500
738		-820.312500
739		-820.312500
740		-820.312500
741		-820.312500
742		-820.312500
743		-820.312500
744		-820.312500
745		-820.312500
746		-820.312500
747		-820.312500
748		-820.312500
749		-820.312500
750		-820.312500
751		-859.375000
752		-820.312500
753		-820.312500
754		-820.312500
755		-820.312500
756		-820.312500
757		-820.312500
758		-820.312500
759		-820.312500
760		-859.375000
761		-820.312500
762		-859.375000
763		-859.375000
764		-859.375000
765		-859.375000
766		-859.375000
767		-859.375000
768		-859.375000
769		-859.375000
770		-859.375000
771		-859.375000
772		-859.375000
773		-859.375000
774		-859.375000
775		-859.375000
776		-859.375000
777		-859.375000
778		-859.375000
779		-859.375000
780		-859.375000
781		-859.375000
782		-859.375000
783		-859.375000
784		-859.375000
785		-859.375000
786		-859.375000
787		-859.375000
788		-859.375000
789		-859.375000
790		-859.375000
791		-859.375000
792		-859.375000
793		-898.437500
794		-859.375000
795		-859.375000
796		-859.375000
797		-859.375000
798		-859.375000
799		-898.437500
800		-859.375000
801		-859.375000
802		-898.437500
803		-898.437500
804		-898.437500
805		-898.437500
806		-898.437500
807		-898.437500
808		-898.437500
809		-898.437500
810		-898.437500
811		-898.437500
812		-898.437500
813		-898.437500
814		-898.437500
815		-898.437500
816		-898.437500
817		-898.437500
818		-898.437500
819		-898.437500
820		-898.437500
821		-898.437500
822		-898.437500
823		-937.500000
824		-898.437500
825		-898.437500
826		-898.437500
827		-898.437500
828		-898.437500
829		-898.437500
830		-898.437500
831		-898.437500
832		-898.437500
833		-898.437500
834		-898.437500
835		-898.437500
836		-898.437500
837		-898.437500
838		-937.500000
839		-937.500000
840		-937.500000
841		-937.500000
842		-937.500000
843		-937.500000
844		-937.500000
845		-937.500000
846		-937.500000
847		-937.500000
848		-937.500000
849		-937.500000
850		-937.500000
851		-937.500000
852		-937.500000
853		-937.500000
854		-937.500000
855		-937.500000
856		-937.500000
857		-937.500000
858		-937.500000
859		-976.562500
860		-976.562500
861		-976.562500
862		-976.562500
863		-976.562500
864		-976.562500
865		-976.562500
866		-976.562500
867		-976.562500
868		-976.562500
869		-976.562500
870		-976.562500
871		-976.562500
872		-976.562500
873		-976.562500
874		-976.562500
875		-976.562500
876		-976.562500
877		-976.562500
878		-976.562500
879		-976.562500
880		-976.562500
881		-976.562500
882		-976.562500
883		-976.562500
884		-976.562500
885		-976.562500
886		-1015.625000
887		-976.562500
888		-976.562500
889		-976.562500
890		-976.562500
891		-976.562500
892		-976.562500
893		-1015.625000
894		-1015.625000
895		-1015.625000
896		-1015.625000
897		-1015.625000
898		-1015.625000
899		-1015.625000
900		-1015.625000
901		-1015.625000
902		-1015.625000
903		-1015.625000
904		-1015.625000
905		-1015.625000
906		-1015.625000
907		-1015.625000
908		-1015.625000
909		-1015.625000
910		-1015.625000
911		-1015.625000
912		-1015.625000
913		-1054.687500
914		-1054.687500
915		-1054.687500
916		-1054.687500
917		-1054.687500
918		-1054.687500
919		-1054.687500
920		-1054.687500
921		-1054.687500
922		-1054.687500
923		-1054.687500
924		-1054.687500
925		-1054.687500
926		-1054.687500
927		-1054.687500
928		-1054.687500
929		-1054.687500
930		-1054.687500
931		-1054.687500
932		-1054.687500
933		-1054.687500
934		-1093.750000
935		-1093.750000
936		-1093.750000
937		-1093.750000
938		-1093.750000
939		-1093.750000
940		-1093.750000
941		-1093.750000
942		-1093.750000
943		-1093.750000
944		-1093.750000
945		-1093.750000
946		-1093.750000
947		-1093.750000
948		-1093.750000
949		-1093.750000
950		-1093.750000
951		-1093.750000
952		-1093.750000
953		-1093.750000
954		-1093.750000
955		-1093.750000
956		-1132.812500
957		-1093.750000
958		-1132.812500
959		-1132.812500
960		-1132.812500
961		-1132.812500
962		-1132.812500
963		-1132.812500
964		-1132.812500
965		-1132.812500
966		-1132.812500
967		-1132.812500
968		-1132.812500
969		-1132.812500
970		-1132.812500
971		-1132.812500
972		-1132.812500
973		-1132.812500
974		-1171.875000
975		-1132.812500
976		-1132.812500
977		-1132.812500
978		-1132.812500
979		-1171.875000
980		-1171.875000
981		-1171.875000
982		-1171.875000
983		-1171.875000
984		-1171.875000
985		-1171.875000
986		-1171.875000
987		-1171.875000
988		-1171.875000
989		-1171.875000
990		-1171.875000
991		-1171.875000
992		-1171.875000
993		-1171.875000
994		-1171.875000
995		-1171.875000
996		-1171.875000
997		-1171.875000
998		-1210.937500
999		-1210.937500
1000		-1210.937500
1001		-1210.937500
1002		-1210.937500
1003		-1210.937500
1004		-1210.937500
1005		-1210.937500
1006		-1210.937500
1007		-1210.937500
1008		-1210.937500
1009		-1210.937500
1010		-1210.937500
1011		-1210.937500
1012		-1210.937500
1013		-1210.937500
1014		-1210.937500
1015		-1210.937500
1016		-1210.937500
1017		-1210.937500
1018		-1210.937500
1019		-1250.000000
1020		-1250.000000
1021		-1250.000000
1022		-1250.000000
1023		-1250.000000
1024		-1250.000000
1025		-1250.000000
1026		-1250.000000
1027		-1250.000000
1028		-1250.000000
1029		-1250.000000
1030		-1250.000000
1031		-1250.000000
1032		-1250.000000
1033		-1250.000000
1034		-1250.000000
1035		-1250.000000
1036		-1250.000000
1037		-1250.000000
1038		-1250.000000
1039		-1289.062500
1040		-1289.062500
1041		-1289.062500
1042		-1289.062500
1043		-1289.062500
1044		-1289.062500
1045		-1289.062500
1046		-1289.062500
1047		-1328.125000
1048		-1289.062500
1049		-1289.062500
1050		-1289.062500
1051		-1289.062500
1052		-1289.062500
1053		-1289.062500
1054		-1289.062500
1055		-1289.062500
1056		-1289.062500
1057		-1289.062500
1058		-1328.125000
1059		-1328.125000
1060		-1328.125000
1061		-1328.125000
1062		-1328.125000
1063		-1328.125000
1064		-1328.125000
1065		-1328.125000
1066		-1328.125000
1067		-1328.125000
1068		-1328.125000
1069		-1328.125000
1070		-1328.125000
1071		-1328.125000
1072		-1328.125000
1073		-1328.125000
1074		-1328.125000
1075		-1328.125000
1076		-1328.125000
1077		-1328.125000
1078		-1328.125000
1079		-1328.125000
1080		-1328.125000
1081		-1328.125000
1082		-1328.125000
1083		-1367.187500
1084		-1328.125000
1085		-1367.187500
1086		-1328.125000
1087		-1367.187500
1088		-1367.187500
1089		-1367.187500
1090		-1328.125000
1091		-1367.187500
1092		-1367.187500
1093		-1367.187500
1094		-1367.187500
1095		-1367.187500
1096		-1367.187500
1097		-1367.187500
1098		-1367.187500
1099		-1367.187500
1100		-1367.187500
1101		-1367.187500
1102		-1367.187500
1103		-1367.187500
1104		-1367.187500
1105		-1367.187500
1106		-1367.187500
1107		-1367.187500
1108		-1367.187500
1109		-1367.187500
1110		-1406.250000
1111		-1406.250000
1112		-1406.250000
1113		-1406.250000
1114		-1406.250000
1115		-1406.250000
1116		-1406.250000
1117		-1406.250000
1118		-1406.250000
1119		-1406.250000
1120		-1406.250000
1121		-1406.250000
1122		-1406.250000
1123		-1406.250000
1124		-1406.250000
1125		-1367.187500
1126		-1406.250000
1127		-1406.250000
1128		-1406.250000
1129		-1406.250000
1130		-1406.250000
1131		-1406.250000
1132		-1406.250000
1133		-1406.250000
1134		-1406.250000
1135		-1406.250000
1136		-1406.250000
1137		-1445.312500
1138		-1445.312500
1139		-1445.312500
1140		-1445.312500
1141		-1445.312500
1142		-1445.312500
1143		-1445.312500
1144		-1445.312500
1145		-1445.312500
1146		-1445.312500
1147		-1445.312500
1148		-1445.312500
1149		-1445.312500
1150		-1445.312500
1151		-1445.312500
1152		-1445.312500
1153		-1445.312500
1154		-1445.312500
1155		-1445.312500
1156		-1445.312500
1157		-1445.312500
1158		-1445.312500
1159		-1445.312500
1160		-1445.312500
1161		-1445.312500
1162		-1445.312500
1163		-1484.375000
1164		-1484.375000
1165		-1445.312500
1166		-1484.375000
1167		-1484.375000
1168		-1484.375000
1169		-1484.375000
1170		-1484.375000
1171		-1484.375000
1172		-1484.375000
1173		-1484.375000
1174		-1484.375000
1175		-1484.375000
1176		-1484.375000
1177		-1484.375000
1178		-1484.375000
1179		-1484.375000
1180		-1484.375000
1181		-1484.375000
1182		-1484.375000
1183		-1484.375000
1184		-1484.375000
1185		-1484.375000
1186		-1523.437500
1187		-1484.375000
1188		-1484.375000
1189		-1484.375000
1190		-1484.375000
1191		-1484.375000
1192		-1484.375000
1193		-1484.375000
1194		-1484.375000
1195		-1484.375000
1196		-1484.375000
1197		-1484.375000
1198		-1484.375000
1199		-1523.437500
1200		-1523.437500
1201		-1523.437500
1202		-1523.437500
1203		-1523.437500
1204		-1523.437500
1205		-1523.437500
1206		-1523.437500
1207		-1523.437500
1208		-1523.437500
1209		-1523.437500
1210		-1523.437500
1211		-1523.437500
1212		-1523.437500
1213		-1523.437500
1214		-1523.437500
1215		-1523.437500
1216		-1523.437500
1217		-1523.437500
1218		-1523.437500
1219		-1523.437500
1220		-1523.437500
1221		-1562.500000
1222		-1523.437500
1223		-1562.500000
1224		-1562.500000
1225		-1562.500000
1226		-1562.500000
1227		-1562.500000
1228		-1523.437500
1229		-1562.500000
1230		-1523.437500
1231		-1562.500000
1232		-1523.437500
1233		-1562.500000
1234		-1523.437500
1235		-1562.500000
1236		-1562.500000
1237		-1562.500000
1238		-1562.500000
1239		-1562.500000
1240		-1562.500000
1241		-1562.500000
1242		-1562.500000
1243		-1562.500000
1244		-1562.500000
1245		-1562.500000
1246		-1562.500000
1247		-1562.500000
1248		-1562.500000
1249		-1562.500000
1250		-1562.500000
1251		-1562.500000
1252		-1562.500000
1253		-1562.500000
1254		-1562.500000
1255		-1562.500000
1256		-1562.500000
1257		-1562.500000
1258		-1562.500000
1259		-1601.562500
1260		-1562.500000
1261		-1562.500000
1262		-1562.500000
1263		-1601.562500
1264		-1601.562500
1265		-1562.500000
1266		-1562.500000
1267		-1562.500000
1268		-1562.500000
1269		-1562.500000
1270		-1562.500000
1271		-1562.500000
1272		-1562.500000
1273		-1601.562500
1274		-1562.500000
1275		-1601.562500
1276		-1601.562500
1277		-1601.562500
1278		-1601.562500
1279		-1601.562500
1280		-1601.562500
1281		-1601.562500
1282		-1601.562500
1283		-1601.562500
1284		-1601.562500
1285		-1601.562500
1286		-1601.562500
1287		-1601.562500
1288		-1601.562500
1289		-1601.562500
1290		-1601.562500
1291		-1601.562500
1292		-1601.562500
1293		-1601.562500
1294		-1601.562500
1295		-1601.562500
1296		-1601.562500
1297		-1601.562500
1298		-1601.562500
1299		-1601.562500
1300		-1601.562500
1301		-1601.562500
1302		-1601.562500
1303		-1601.562500
1304		-1601.562500
1305		-1601.562500
1306		-1601.562500
1307		-1601.562500
1308		-1601.562500
1309		-1601.562500
1310		-1601.562500
1311		-1601.562500
1312		-1640.625000
1313		-1601.562500
1314		-1601.562500
1315		-1640.625000
1316		-1640.625000
1317		-1640.625000
1318		-1640.625000
1319		-1640.625000
1320		-1601.562500
1321		-1640.625000
1322		-1640.625000
1323		-1640.625000
1324		-1640.625000
1325		-1640.625000
1326		-1640.625000
1327		-1640.625000
1328		-1640.625000
1329		-1640.625000
1330		-1640.625000
1331		-1640.625000
1332		-1640.625000
1333		-1640.625000
1334		-1640.625000
1335		-1640.625000
1336		-1640.625000
1337		-1640.625000
1338		-1640.625000
1339		-1640.625000
1340		-1640.625000
1341		-1640.625000
1342		-1640.625000
1343		-1640.625000
1344		-1640.625000
1345		-1640.625000
1346		-1640.625000
1347		-1640.625000
1348		-1640.625000
1349		-1640.625000
1350		-1640.625000
1351		-1640.625000
1352		-1640.625000
1353		-1640.625000
1354		-1640.625000
1355		-1640.625000
1356		-1640.625000
1357		-1640.625000
1358		-1640.625000
1359		-1640.625000
1360		-1640.625000
1361		-1640.625000
1362		-1640.625000
1363		-1640.625000
1364		-1640.625000
1365		-1640.625000
1366		-1640.625000
1367		-1640.625000
1368		-1640.625000
1369		-1640.625000
1370		-1640.625000
1371		-1640.625000
1372		-1640.625000
1373		-1640.625000
1374		-1640.625000
1375		-1640.625000
1376		-1640.625000
1377		-1640.625000
1378		-1640.625000
1379		-1640.625000
1380		-1640.625000
1381		-1640.625000
1382		-1640.625000
1383		-1640.625000
1384		-1679.687500
1385		-1679.687500
1386		-1679.687500
1387		-1679.687500
1388		-1679.687500
1389		-1679.687500
1390		-1679.687500
1391		-1640.625000
1392		-1679.687500
1393		-1640.625000
1394		-1640.625000
1395		-1640.625000
1396		-1640.625000
1397		-1640.625000
1398		-1679.687500
1399		-1679.687500
1400		-1679.687500
1401		-1679.687500
1402		-1679.687500
1403		-1679.687500
1404		-1679.687500
1405		-1679.687500
1406		-1679.687500
1407		-1679.687500
1408		-1679.687500
1409		-1679.687500
1410		-1679.687500
1411		-1679.687500
1412		-1640.625000
1413		-1679.687500
1414		-1679.687500
1415		-1679.687500
1416		-1679.687500
1417		-1679.687500
1418		-1679.687500
1419		-1679.687500
1420		-1679.687500
1421		-1679.687500
1422		-1679.687500
1423		-1679.687500
1424		-1679.687500
1425		-1679.687500
1426		-1679.687500
1427		-1679.687500
1428		-1679.687500
1429		-1679.687500
1430		-1679.687500
1431		-1679.687500
1432		-1679.687500
1433		-1679.687500
1434		-1679.687500
1435		-1679.687500
1436		-1679.687500
1437		-1679.687500
1438		-1679.687500
1439		-1679.687500
1440		-1679.687500
1441		-1679.687500
1442		-1679.687500
1443		-1679.687500
1444		-1679.687500
1445		-1679.687500
1446		-1679.687500
1447		-1679.687500
1448		-1679.687500
1449		-1679.687500
1450		-1679.687500
1451		-1679.687500
1452		-1679.687500
1453		-1679.687500
1454		-1679.687500
1455		-1679.687500
1456		-1679.687500
1457		-1679.687500
1458		-1679.687500
1459		-1679.687500
1460		-1679.687500
1461		-1679.687500
1462		-1679.687500
1463		-1679.687500
1464		-1679.687500
1465		-1679.687500
1466		-1679.687500
1467		-1679.687500
1468		-1679.687500
1469		-1679.687500
1470		-1679.687500
1471		-1679.687500
1472		-1679.687500
1473		-1679.687500
1474		-1679.687500
1475		-1679.687500
1476		-1679.687500
1477		-1679.687500
1478		-1679.687500
1479		-1679.687500
1480		-1679.687500
1481		-1679.687500
1482		-1679.687500
1483		-1679.687500
1484		-1679.687500
1485		-1679.687500
1486		-1679.687500
1487		-1679.687500
1488		-1679.687500
1489		-1679.687500
1490		-1679.687500
1491		-1679.687500
1492		-1679.687500
1493		-1679.687500
1494		-1679.687500
1495		-1679.687500
1496		-1679.687500
1497		-1679.687500
1498		-1679.687500
1499		-1679.687500
1500		-1679.687500
1501		-1718.750000
1502		-1679.687500
1503		-1679.687500
1504		-1679.687500
1505		-1679.687500
1506		-1679.687500
1507		-1679.687500
1508		-1679.687500
1509		-1679.687500
1510		-1679.687500
1511		-1679.687500
1512		-1679.687500
1513		-1679.687500
1514		-1679.687500
1515		-1679.687500
1516		-1679.687500
1517		-1679.687500
1518		-1679.687500
1519		-1679.687500
1520		-1679.687500
1521		-1679.687500
1522		-1679.687500
1523		-1679.687500
1524		-1679.687500
1525		-1679.687500
1526		-1679.687500
1527		-1679.687500
1528		-1679.687500
1529		-1679.687500
1530		-1679.687500
1531		-1679.687500
1532		-1679.687500
1533		-1679.687500
1534		-1679.687500
1535		-1679.687500
1536		-1679.687500
1537		-1679.687500
1538		-1679.687500
1539		-1679.687500
1540		-1679.687500
1541		-1679.687500
1542		-1679.687500
1543		-1679.687500
1544		-1679.687500
1545		-1679.687500
1546		-1679.687500
1547		-1679.687500
1548		-1679.687500
1549		-1679.687500
1550		-1679.687500
1551		-1679.687500
1552		-1679.687500
1553		-1679.687500
1554		-1679.687500
1555		-1679.687500
1556		-1679.687500
1557		-1679.687500
1558		-1679.687500
1559		-1679.687500
1560		-1679.687500
1561		-1679.687500
1562		-1679.687500
1563		-1679.687500
1564		-1679.687500
1565		-1679.687500
1566		-1679.687500
1567		-1679.687500
1568		-1679.687500
1569		-1679.687500
1570		-1679.687500
1571		-1679.687500
1572		-1679.687500
1573		-1679.687500
1574		-1679.687500
1575		-1679.687500
1576		-1679.687500
1577		-1679.687500
1578		-1679.687500
1579		-1679.687500
1580		-1679.687500
1581		-1679.687500
1582		-1679.687500
1583		-1679.687500
1584		-1679.687500
1585		-1679.687500
1586		-1679.687500
1587		-1679.687500
1588		-1679.687500
1589		-1679.687500
1590		-1679.687500
1591		-1679.687500
1592		-1679.687500
1593		-1679.687500
1594		-1679.687500
1595		-1679.687500
1596		-1679.687500
1597		-1679.687500
1598		-1679.687500
1599		-1679.687500
1600		-1679.687500
1601		-1679.687500
1602		-1679.687500
1603		-1679.687500
1604		-1679.687500
1605		-1679.687500
1606		-1679.687500
1607		-1679.687500
1608		-1679.687500
1609		-1679.687500
1610		-1679.687500
1611		-1679.687500
1612		-1679.687500
1613		-1640.625000
1614		-1679.687500
1615		-1679.687500
1616		-1679.687500
1617		-1679.687500
1618		-1679.687500
1619		-1679.687500
1620		-1679.687500
1621		-1679.687500
1622		-1679.687500
1623		-1679.687500
1624		-1679.687500
1625		-1679.687500
1626		-1679.687500
1627		-1679.687500
1628		-1679.687500
1629		-1640.625000
1630		-1640.625000
1631		-1640.625000
1632		-1640.625000
1633		-1679.687500
1634		-1640.625000
1635		-1640.625000
1636		-1640.625000
1637		-1679.687500
1638		-1679.687500
1639		-1679.687500
1640		-1679.687500
1641		-1640.625000
1642		-1679.687500
1643		-1679.687500
1644		-1679.687500
1645		-1640.625000
1646		-1679.687500
1647		-1640.625000
1648		-1640.625000
1649		-1640.625000
1650		-1640.625000
1651		-1640.625000
1652		-1640.625000
1653		-1640.625000
1654		-1640.625000
1655		-1640.625000
1656		-1640.625000
1657		-1640.625000
1658		-1640.625000
1659		-1679.687500
1660		-1640.625000
1661		-1640.625000
1662		-1640.625000
1663		-1640.625000
1664		-1640.625000
1665		-1640.625000
1666		-1640.625000
1667		-1640.625000
1668		-1640.625000
1669		-1640.625000
1670		-1640.625000
1671		-1640.625000
1672		-1640.625000
1673		-1640.625000
1674		-1640.625000
1675		-1640.625000
1676		-1640.625000
1677		-1640.625000
1678		-1640.625000
1679		-1640.625000
1680		-1640.625000
1681		-1640.625000
1682		-1640.625000
1683		-1640.625000
1684		-1640.625000
1685		-1640.625000
1686		-1640.625000
1687		-1640.625000
1688		-1640.625000
1689		-1640.625000
1690		-1640.625000
1691		-1640.625000
1692		-1640.625000
1693		-1640.625000
1694		-1640.625000
1695		-1640.625000
1696		-1640.625000
1697		-1640.625000
1698		-1640.625000
1699		-1640.625000
1700		-1640.625000
1701		-1640.625000
1702		-1640.625000
1703		-1640.625000
1704		-1640.625000
1705		-1640.625000
1706		-1640.625000
1707		-1640.625000
1708		-1640.625000
1709		-1640.625000
1710		-1640.625000
1711		-1640.625000
1712		-1640.625000
1713		-1640.625000
1714		-1601.562500
1715		-1601.562500
1716		-1601.562500
1717		-1640.625000
1718		-1640.625000
1719		-1601.562500
1720		-1601.562500
1721		-1601.562500
1722		-1640.625000
1723		-1601.562500
1724		-1601.562500
1725		-1640.625000
1726		-1601.562500
1727		-1601.562500
1728		-1601.562500
1729		-1601.562500
1730		-1601.562500
1731		-1601.562500
1732		-1601.562500
1733		-1601.562500
1734		-1601.562500
1735		-1601.562500
1736		-1601.562500
1737		-1640.625000
1738		-1601.562500
1739		-1601.562500
1740		-1601.562500
1741		-1601.562500
1742		-1601.562500
1743		-1601.562500
1744		-1601.562500
1745		-1601.562500
1746		-1601.562500
1747		-1601.562500
1748		-1601.562500
1749		-1601.562500
1750		-1601.562500
1751		-1601.562500
1752		-1601.562500
1753		-1601.562500
1754		-1601.562500
1755		-1601.562500
1756		-1562.500000
1757		-1601.562500
1758		-1601.562500
1759		-1601.562500
1760		-1601.562500
1761		-1601.562500
1762		-1601.562500
1763		-1601.562500
1764		-1601.562500
1765		-1601.562500
1766		-1601.562500
1767		-1601.562500
1768		-1601.562500
1769		-1601.562500
1770		-1601.562500
1771		-1601.562500
1772		-1562.500000
1773		-1562.500000
1774		-1562.500000
1775		-1562.500000
1776		-1562.500000
1777		-1562.500000
1778		-1562.500000
1779		-1562.500000
1780		-1562.500000
1781		-1562.500000
1782		-1601.562500
1783		-1562.500000
1784		-1562.500000
1785		-1562.500000
1786		-1562.500000
1787		-1562.500000
1788		-1562.500000
1789		-1562.500000
1790		-1562.500000
1791		-1562.500000
1792		-1562.500000
1793		-1562.500000
1794		-1562.500000
1795		-1562.500000
1796		-1562.500000
1797		-1562.500000
1798		-1562.500000
1799		-1562.500000
1800		-1562.500000
1801		-1562.500000
1802		-1562.500000
1803		-1562.500000
1804		-1562.500000
1805		-1562.500000
1806		-1562.500000
1807		-1562.500000
1808		-1562.500000
1809		-1562.500000
1810		-1523.437500
1811		-1523.437500
1812		-1523.437500
1813		-1523.437500
1814		-1523.437500
1815		-1562.500000
1816		-1523.437500
1817		-1523.437500
1818		-1523.437500
1819		-1523.437500
1820		-1562.500000
1821		-1562.500000
1822		-1562.500000
1823		-1523.437500
1824		-1523.437500
1825		-1523.437500
1826		-1523.437500
1827		-1523.437500
1828		-1523.437500
1829		-1523.437500
1830		-1523.437500
1831		-1523.437500
1832		-1523.437500
1833		-1523.437500
1834		-1523.437500
1835		-1523.437500
1836		-1523.437500
1837		-1484.375000
1838		-1523.437500
1839		-1523.437500
1840		-1523.437500
1841		-1523.437500
1842		-1523.437500
1843		-1523.437500
1844		-1523.437500
1845		-1523.437500
1846		-1484.375000
1847		-1523.437500
1848		-1523.437500
1849		-1484.375000
1850		-1484.375000
1851		-1484.375000
1852		-1484.375000
1853		-1484.375000
1854		-1484.375000
1855		-1484.375000
1856		-1484.375000
1857		-1484.375000
1858		-1523.437500
1859		-1484.375000
1860		-1484.375000
1861		-1484.375000
1862		-1484.375000
1863		-1484.375000
1864		-1484.375000
1865		-1484.375000
1866		-1484.375000
1867		-1484.375000
1868		-1484.375000
1869		-1484.375000
1870		-1484.375000
1871		-1484.375000
1872		-1484.375000
1873		-1484.375000
1874		-1484.375000
1875		-1445.312500
1876		-1484.375000
1877		-1484.375000
1878		-1445.312500
1879		-1445.312500
1880		-1445.312500
1881		-1445.312500
1882		-1445.312500
1883		-1445.312500
1884		-1445.312500
1885		-1445.312500
1886		-1445.312500
1887		-1445.312500
1888		-1445.312500
1889		-1445.312500
1890		-1445.312500
1891		-1445.312500
1892		-1445.312500
1893		-1445.312500
1894		-1445.312500
1895		-1445.312500
1896		-1445.312500
1897		-1445.312500
1898		-1445.312500
1899		-1445.312500
1900		-1445.312500
1901		-1445.312500
1902		-1445.312500
1903		-1445.312500
1904		-1445.312500
1905		-1406.250000
1906		-1406.250000
1907		-1406.250000
1908		-1406.250000
1909		-1406.250000
1910		-1406.250000
1911		-1406.250000
1912		-1406.250000
1913		-1406.250000
1914		-1406.250000
1915		-1406.250000
1916		-1406.250000
1917		-1406.250000
1918		-1406.250000
1919		-1406.250000
1920		-1406.250000
1921		-1406.250000
1922		-1406.250000
1923		-1406.250000
1924		-1406.250000
1925		-1406.250000
1926		-1406.250000
1927		-1406.250000
1928		-1406.250000
1929		-1406.250000
1930		-1406.250000
1931		-1367.187500
1932		-1367.187500
1933		-1367.187500
1934		-1367.187500
1935		-1367.187500
1936		-1367.187500
1937		-1367.187500
1938		-1367.187500
1939		-1367.187500
1940		-1367.187500
1941		-1367.187500
1942		-1367.187500
1943		-1367.187500
1944		-1367.187500
1945		-1367.187500
1946		-1367.187500
1947		-1367.187500
1948		-1367.187500
1949		-1367.187500
1950		-1328.125000
1951		-1328.125000
1952		-1328.125000
1953		-1328.125000
1954		-1328.125000
1955		-1328.125000
1956		-1328.125000
1957		-1328.125000
1958		-1328.125000
1959		-1328.125000
1960		-1328.125000
1961		-1328.125000
1962		-1328.125000
1963		-1328.125000
1964		-1328.125000
1965		-1328.125000
1966		-1328.125000
1967		-1328.125000
1968		-1328.125000
1969		-1328.125000
1970		-1328.125000
1971		-1328.125000
1972		-1328.125000
1973		-1328.125000
1974		-1289.062500
1975		-1289.062500
1976		-1289.062500
1977		-1289.062500
1978		-1289.062500
1979		-1289.062500
1980		-1289.062500
1981		-1289.062500
1982		-1289.062500
1983		-1289.062500
1984		-1289.062500
1985		-1289.062500
1986		-1289.062500
1987		-1289.062500
1988		-1289.062500
1989		-1289.062500
1990		-1289.062500
1991		-1289.062500
1992		-1289.062500
1993		-1250.000000
1994		-1250.000000
1995		-1289.062500
1996		-1250.000000
1997		-1250.000000
1998		-1250.000000
1999		-1250.000000
2000		-1250.000000
2001		-1250.000000
2002		-1250.000000
2003		-1250.000000
2004		-1250.000000
2005		-1250.000000
2006		-1250.000000
2007		-1250.000000
2008		-1250.000000
2009		-1250.000000
2010		-1250.000000
2011		-1250.000000
2012		-1210.937500
2013		-1250.000000
2014		-1250.000000
2015		-1210.937500
2016		-1210.937500
2017		-1250.000000
2018		-1210.937500
2019		-1210.937500
2020		-1250.000000
2021		-1210.937500
2022		-1210.937500
2023		-1210.937500
2024		-1210.937500
2025		-1210.937500
2026		-1210.937500
2027		-1210.937500
2028		-1171.875000
2029		-1210.937500
2030		-1210.937500
2031		-1210.937500
2032		-1210.937500
2033		-1210.937500
2034		-1171.875000
2035		-1210.937500
2036		-1171.875000
2037		-1210.937500
2038		-1171.875000
2039		-1171.875000
2040		-1171.875000
2041		-1171.875000
2042		-1171.875000
2043		-1171.875000
2044		-1171.875000
2045		-1171.875000
2046		-1171.875000
2047		-1171.875000
2048		-1171.875000
2049		-1171.875000
2050		-1171.875000
2051		-1171.875000
2052		-1171.875000
2053		-1171.875000
2054		-1132.812500
2055		-1132.812500
2056		-1171.875000
2057		-1132.812500
2058		-1132.812500
2059		-1132.812500
2060		-1132.812500
2061		-1132.812500
2062		-1132.812500
2063		-1132.812500
2064		-1132.812500
2065		-1132.812500
2066		-1132.812500
2067		-1132.812500
2068		-1132.812500
2069		-1132.812500
2070		-1132.812500
2071		-1132.812500
2072		-1093.750000
2073		-1132.812500
2074		-1132.812500
2075		-1093.750000
2076		-1093.750000
2077		-1093.750000
2078		-1093.750000
2079		-1093.750000
2080		-1093.750000
2081		-1093.750000
2082		-1093.750000
2083		-1093.750000
2084		-1093.750000
2085		-1093.750000
2086		-1093.750000
2087		-1093.750000
2088		-1093.750000
2089		-1093.750000
2090		-1093.750000
2091		-1093.750000
2092		-1093.750000
2093		-1093.750000
2094		-1093.750000
2095		-1093.750000
2096		-1054.687500
2097		-1054.687500
2098		-1054.687500
2099		-1054.687500
2100		-1054.687500
2101		-1054.687500
2102		-1054.687500
2103		-1054.687500
2104		-1054.687500
2105		-1054.687500
2106		-1054.687500
2107		-1054.687500
2108		-1054.687500
2109		-1054.687500
2110		-1054.687500
2111		-1054.687500
2112		-1054.687500
2113		-1054.687500
2114		-1054.687500
2115		-1015.625000
2116		-1015.625000
2117		-1015.625000
2118		-1015.625000
2119		-1015.625000
2120		-1015.625000
2121		-1015.625000
2122		-1015.625000
2123		-1015.625000
2124		-1015.625000
2125		-1015.625000
2126		-1015.625000
2127		-1015.625000
2128		-1015.625000
2129		-1015.625000
2130		-1015.625000
2131		-1015.625000
2132		-1015.625000
2133		-1015.625000
2134		-976.562500
2135		-1015.625000
2136		-976.562500
2137		-976.562500
2138		-976.562500
2139		-976.562500
2140		-976.562500
2141		-976.562500
2142		-976.562500
2143		-976.562500
2144		-976.562500
2145		-976.562500
2146		-976.562500
2147		-976.562500
2148		-976.562500
2149		-976.562500
2150		-976.562500
2151		-976.562500
2152		-976.562500
2153		-976.562500
2154		-976.562500
2155		-976.562500
2156		-976.562500
2157		-937.500000
2158		-937.500000
2159		-976.562500
2160		-976.562500
2161		-976.562500
2162		-976.562500
2163		-937.500000
2164		-937.500000
2165		-937.500000
2166		-937.500000
2167		-937.500000
2168		-937.500000
2169		-937.500000
2170		-937.500000
2171		-937.500000
2172		-937.500000
2173		-937.500000
2174		-937.500000
2175		-937.500000
2176		-937.500000
2177		-937.500000
2178		-937.500000
2179		-937.500000
2180		-937.500000
2181		-937.500000
2182		-937.500000
2183		-937.500000
2184		-937.500000
2185		-898.437500
2186		-937.500000
2187		-898.437500
2188		-898.437500
2189		-898.437500
2190		-898.437500
2191		-898.437500
2192		-898.437500
2193		-898.437500
2194		-898.437500
2195		-898.437500
2196		-898.437500
2197		-898.437500
2198		-898.437500
2199		-898.437500
2200		-898.437500
2201		-898.437500
2202		-898.437500
2203		-898.437500
2204		-898.437500
2205		-898.437500
2206		-898.437500
2207		-898.437500
2208		-898.437500
2209		-859.375000
2210		-859.375000
2211		-859.375000
2212		-898.437500
2213		-859.375000
2214		-859.375000
2215		-898.437500
2216		-898.437500
2217		-859.375000
2218		-859.375000
2219		-859.375000
2220		-859.375000
2221		-859.375000
2222		-859.375000
2223		-859.375000
2224		-859.375000
2225		-859.375000
2226		-859.375000
2227		-859.375000
2228		-859.375000
2229		-859.375000
2230		-859.375000
2231		-859.375000
2232		-859.375000
2233		-859.375000
2234		-859.375000
2235		-859.375000
2236		-859.375000
2237		-859.375000
2238		-859.375000
2239		-859.375000
2240		-859.375000
2241		-859.375000
2242		-859.375000
2243		-859.375000
2244		-820.312500
2245		-859.375000
2246		-820.312500
2247		-820.312500
2248		-820.312500
2249		-820.312500
2250		-820.312500
2251		-820.312500
2252		-820.312500
2253		-820.312500
2254		-820.312500
2255		-820.312500
2256		-820.312500
2257		-820.312500
2258		-820.312500
2259		-820.312500
2260		-820.312500
2261		-820.312500
2262		-820.312500
2263		-820.312500
2264		-820.312500
2265		-820.312500
2266		-820.312500
2267		-820.312500
2268		-820.312500
2269		-820.312500
2270		-820.312500
2271		-820.312500
2272		-820.312500
2273		-820.312500
2274		-820.312500
2275		-820.312500
2276		-820.312500
2277		-820.312500
2278		-820.312500
2279		-820.312500
2280		-820.312500
2281		-820.312500
2282		-781.250000
2283		-820.312500
2284		-820.312500
2285		-820.312500
2286		-820.312500
2287		-820.312500
2288		-820.312500
2289		-781.250000
2290		-820.312500
2291		-820.312500
2292		-781.250000
2293		-781.250000
2294		-781.250000
2295		-781.250000
2296		-781.250000
2297		-781.250000
2298		-781.250000
2299		-781.250000
2300		-781.250000
2301		-781.250000
2302		-781.250000
2303		-781.250000
2304		-820.312500
2305		-820.312500
2306		-781.250000
2307		-781.250000
2308		-781.250000
2309		-781.250000
2310		-781.250000
2311		-781.250000
2312		-781.250000
2313		-781.250000
2314		-781.250000
2315		-781.250000
2316		-781.250000
2317		-781.250000
2318		-781.250000
2319		-781.250000
2320		-781.250000
2321		-781.250000
2322		-781.250000
2323		-781.250000
2324		-781.250000
2325		-781.250000
2326		-781.250000
2327		-820.312500
2328		-781.250000
2329		-781.250000
2330		-781.250000
2331		-781.250000
2332		-781.250000
2333		-781.250000
2334		-781.250000
2335		-781.250000
2336		-781.250000
2337		-781.250000
2338		-781.250000
2339		-781.250000
2340		-781.250000
2341		-781.250000
2342		-781.250000
2343		-781.250000
2344		-781.250000
2345		-781.250000
2346		-781.250000
2347		-781.250000
2348		-781.250000
2349		-781.250000
2350		-781.250000
2351		-781.250000
2352		-781.250000
2353		-781.250000
2354		-781.250000
2355		-781.250000
2356		-781.250000
2357		-781.250000
2358		-781.250000
2359		-781.250000
2360		-781.250000
2361		-781.250000
2362		-781.250000
2363		-781.250000
2364		-820.312500
2365		-781.250000
2366		-781.250000
2367		-781.250000
2368		-781.250000
2369		-781.250000
2370		-781.250000
2371		-781.250000
2372		-781.250000
2373		-781.250000
2374		-781.250000
2375		-781.250000
2376		-781.250000
2377		-781.250000
2378		-781.250000
2379		-781.250000
2380		-781.250000
2381		-820.312500
2382		-820.312500
2383		-781.250000
2384		-820.312500
2385		-820.312500
2386		-781.250000
2387		-781.250000
2388		-781.250000
2389		-781.250000
2390		-781.250000
2391		-781.250000
2392		-781.250000
2393		-781.250000
2394		-781.250000
2395		-781.250000
2396		-820.312500
2397		-820.312500
2398		-781.250000
2399		-820.312500
2400		-820.312500
2401		-820.312500
2402		-820.312500
2403		-820.312500
2404		-820.312500
2405		-820.312500
2406		-820.312500
2407		-820.312500
2408		-820.312500
2409		-820.312500
2410		-781.250000
2411		-781.250000
2412		-820.312500
2413		-820.312500
2414		-820.312500
2415		-820.312500
2416		-820.312500
2417		-820.312500
2418		-820.312500
2419		-820.312500
2420		-820.312500
2421		-820.312500
2422		-820.312500
2423		-820.312500
2424		-820.312500
2425		-820.312500
2426		-820.312500
2427		-820.312500
2428		-820.312500
2429		-820.312500
2430		-820.312500
2431		-820.312500
2432		-820.312500
2433		-820.312500
2434		-820.312500
2435		-820.312500
2436		-820.312500
2437		-820.312500
2438		-859.375000
2439		-859.375000
2440		-820.312500
2441		-820.312500
2442		-859.375000
2443		-820.312500
2444		-859.375000
2445		-859.375000
2446		-820.312500
2447		-859.375000
2448		-859.375000
2449		-859.375000
2450		-859.375000
2451		-859.375000
2452		-859.375000
2453		-859.375000
2454		-859.375000
2455		-859.375000
2456		-859.375000
2457		-859.375000
2458		-859.375000
2459		-859.375000
2460		-859.375000
2461		-859.375000
2462		-859.375000
2463		-859.375000
2464		-859.375000
2465		-859.375000
2466		-859.375000
2467		-859.375000
2468		-859.375000
2469		-859.375000
2470		-859.375000
2471		-859.375000
2472		-859.375000
2473		-859.375000
2474		-859.375000
2475		-859.375000
2476		-859.375000
2477		-859.375000
2478		-859.375000
2479		-859.375000
2480		-898.437500
2481		-898.437500
2482		-898.437500
2483		-898.437500
2484		-898.437500
2485		-898.437500
2486		-898.437500
2487		-898.437500
2488		-898.437500
2489		-898.437500
2490		-898.437500
2491		-898.437500
2492		-898.437500
2493		-898.437500
2494		-898.437500
2495		-898.437500
2496		-898.437500
2497		-898.437500
2498		-898.437500
2499		-898.437500
2500		-898.437500
2501		-898.437500
2502		-898.437500
2503		-937.500000
2504		-937.500000
2505		-937.500000
2506		-937.500000
2507		-937.500000
2508		-937.500000
2509		-937.500000
2510		-937.500000
2511		-937.500000
2512		-937.500000
2513		-937.500000
2514		-937.500000
2515		-937.500000
2516		-937.500000
2517		-937.500000
2518		-937.500000
2519		-937.500000
2520		-937.500000
2521		-937.500000
2522		-937.500000
2523		-937.500000
2524		-937.500000
2525		-937.500000
2526		-937.500000
2527		-937.500000
2528		-937.500000
2529		-976.562500
2530		-976.562500
2531		-937.500000
2532		-937.500000
2533		-976.562500
2534		-976.562500
2535		-937.500000
2536		-976.562500
2537		-976.562500
2538		-976.562500
2539		-976.562500
2540		-976.562500
2541		-976.562500
2542		-976.562500
2543		-976.562500
2544		-976.562500
2545		-976.562500
2546		-976.562500
2547		-976.562500
2548		-1015.625000
2549		-976.562500
2550		-976.562500
2551		-976.562500
2552		-976.562500
2553		-976.562500
2554		-976.562500
2555		-1015.625000
2556		-1015.625000
2557		-1015.625000
2558		-1015.625000
2559		-1015.625000
2560		-1015.625000
2561		-1015.625000
2562		-1015.625000
2563		-1015.625000
2564		-1015.625000
2565		-1015.625000
2566		-1015.625000
2567		-1015.625000
2568		-1015.625000
2569		-1015.625000
2570		-1015.625000
2571		-1015.625000
2572		-1015.625000
2573		-1015.625000
2574		-1015.625000
2575		-1015.625000
2576		-1054.687500
2577		-1054.687500
2578		-1054.687500
2579		-1054.687500
2580		-1054.687500
2581		-1054.687500
2582		-1015.625000
2583		-1054.687500
2584		-1054.687500
2585		-1054.687500
2586		-1054.687500
2587		-1054.687500
2588		-1054.687500
2589		-1054.687500
2590		-1054.687500
2591		-1054.687500
2592		-1054.687500
2593		-1054.687500
2594		-1054.687500
2595		-1093.750000
2596		-1093.750000
2597		-1054.687500
2598		-1093.750000
2599		-1093.750000
2600		-1093.750000
2601		-1093.750000
2602		-1093.750000
2603		-1093.750000
2604		-1093.750000
2605		-1093.750000
2606		-1093.750000
2607		-1093.750000
2608		-1093.750000
2609		-1093.750000
2610		-1093.750000
2611		-1093.750000
2612		-1093.750000
2613		-1093.750000
2614		-1132.812500
2615		-1132.812500
2616		-1132.812500
2617		-1132.812500
2618		-1132.812500
2619		-1132.812500
2620		-1132.812500
2621		-1132.812500
2622		-1132.812500
2623		-1132.812500
2624		-1132.812500
2625		-1132.812500
2626		-1132.812500
2627		-1132.812500
2628		-1132.812500
2629		-1132.812500
2630		-1132.812500
2631		-1132.812500
2632		-1132.812500
2633		-1171.875000
2634		-1132.812500
2635		-1132.812500
2636		-1132.812500
2637		-1132.812500
2638		-1171.875000
2639		-1171.875000
2640		-1171.875000
2641		-1171.875000
2642		-1171.875000
2643		-1171.875000
2644		-1171.875000
2645		-1171.875000
2646		-1171.875000
2647		-1171.875000
2648		-1171.875000
2649		-1171.875000
2650		-1171.875000
2651		-1171.875000
2652		-1171.875000
2653		-1171.875000
2654		-1171.875000
2655		-1171.875000
2656		-1171.875000
2657		-1171.875000
2658		-1171.875000
2659		-1210.937500
2660		-1171.875000
2661		-1210.937500
2662		-1210.937500
2663		-1210.937500
2664		-1210.937500
2665		-1210.937500
2666		-1210.937500
2667		-1210.937500
2668		-1210.937500
2669		-1210.937500
2670		-1210.937500
2671		-1210.937500
2672		-1210.937500
2673		-1210.937500
2674		-1210.937500
2675		-1210.937500
2676		-1210.937500
2677		-1210.937500
2678		-1210.937500
2679		-1210.937500
2680		-1250.000000
2681		-1250.000000
2682		-1250.000000
2683		-1250.000000
2684		-1250.000000
2685		-1250.000000
2686		-1250.000000
2687		-1250.000000
2688		-1250.000000
2689		-1250.000000
2690		-1250.000000
2691		-1250.000000
2692		-1250.000000
2693		-1250.000000
2694		-1250.000000
2695		-1250.000000
2696		-1250.000000
2697		-1250.000000
2698		-1250.000000
2699		-1250.000000
2700		-1250.000000
2701		-1289.062500
2702		-1289.062500
2703		-1289.062500
2704		-1289.062500
2705		-1289.062500
2706		-1289.062500
2707		-1289.062500
2708		-1289.062500
2709		-1289.062500
2710		-1289.062500
2711		-1289.062500
2712		-1289.062500
2713		-1289.062500
2714		-1289.062500
2715		-1289.062500
2716		-1289.062500
2717		-1289.062500
2718		-1289.062500
2719		-1289.062500
2720		-1289.062500
2721		-1328.125000
2722		-1289.062500
2723		-1328.125000
2724		-1328.125000
2725		-1328.125000
2726		-1328.125000
2727		-1289.062500
2728		-1328.125000
2729		-1328.125000
2730		-1289.062500
2731		-1289.062500
2732		-1289.062500
2733		-1328.125000
2734		-1289.062500
2735		-1328.125000
2736		-1328.125000
2737		-1328.125000
2738		-1328.125000
2739		-1328.125000
2740		-1328.125000
2741		-1328.125000
2742		-1328.125000
2743		-1328.125000
2744		-1328.125000
2745		-1328.125000
2746		-1328.125000
2747		-1328.125000
2748		-1367.187500
2749		-1328.125000
2750		-1328.125000
2751		-1328.125000
2752		-1328.125000
2753		-1328.125000
2754		-1367.187500
2755		-1328.125000
2756		-1328.125000
2757		-1367.187500
2758		-1367.187500
2759		-1367.187500
2760		-1367.187500
2761		-1367.187500
2762		-1367.187500
2763		-1367.187500
2764		-1367.187500
2765		-1367.187500
2766		-1367.187500
2767		-1367.187500
2768		-1367.187500
2769		-1367.187500
2770		-1367.187500
2771		-1367.187500
2772		-1367.187500
2773		-1367.187500
2774		-1367.187500
2775		-1367.187500
2776		-1367.187500
2777		-1406.250000
2778		-1406.250000
2779		-1406.250000
2780		-1406.250000
2781		-1406.250000
2782		-1406.250000
2783		-1406.250000
2784		-1406.250000
2785		-1406.250000
2786		-1367.187500
2787		-1406.250000
2788		-1406.250000
2789		-1406.250000
2790		-1406.250000
2791		-1406.250000
2792		-1406.250000
2793		-1406.250000
2794		-1406.250000
2795		-1406.250000
2796		-1406.250000
2797		-1406.250000
2798		-1406.250000
2799		-1406.250000
2800		-1406.250000
2801		-1406.250000
2802		-1406.250000
2803		-1406.250000
2804		-1406.250000
2805		-1406.250000
2806		-1406.250000
2807		-1406.250000
2808		-1406.250000
2809		-1406.250000
2810		-1445.312500
2811		-1445.312500
2812		-1445.312500
2813		-1445.312500
2814		-1445.312500
2815		-1445.312500
2816		-1445.312500
2817		-1445.312500
2818		-1445.312500
2819		-1445.312500
2820		-1445.312500
2821		-1445.312500
2822		-1445.312500
2823		-1445.312500
2824		-1445.312500
2825		-1445.312500
2826		-1445.312500
2827		-1445.312500
2828		-1445.312500
2829		-1445.312500
2830		-1445.312500
2831		-1445.312500
2832		-1445.312500
2833		-1445.312500
2834		-1445.312500
2835		-1445.312500
2836		-1445.312500
2837		-1484.375000
2838		-1445.312500
2839		-1484.375000
2840		-1484.375000
2841		-1484.375000
2842		-1484.375000
2843		-1484.375000
2844		-1484.375000
2845		-1484.375000
2846		-1484.375000
2847		-1484.375000
2848		-1484.375000
2849		-1484.375000
2850		-1484.375000
2851		-1484.375000
2852		-1484.375000
2853		-1484.375000
2854		-1484.375000
2855		-1484.375000
2856		-1484.375000
2857		-1484.375000
2858		-1484.375000
2859		-1484.375000
2860		-1484.375000
2861		-1484.375000
2862		-1484.375000
2863		-1523.437500
2864		-1484.375000
2865		-1484.375000
2866		-1484.375000
2867		-1484.375000
2868		-1484.375000
2869		-1484.375000
2870		-1484.375000
2871		-1484.375000
2872		-1484.375000
2873		-1523.437500
2874		-1484.375000
2875		-1523.437500
2876		-1484.375000
2877		-1484.375000
2878		-1523.437500
2879		-1523.437500
2880		-1523.437500
2881		-1523.437500
2882		-1523.437500
2883		-1523.437500
2884		-1523.437500
2885		-1523.437500
2886		-1523.437500
2887		-1523.437500
2888		-1523.437500
2889		-1523.437500
2890		-1523.437500
2891		-1523.437500
2892		-1523.437500
2893		-1523.437500
2894		-1523.437500
2895		-1523.437500
2896		-1523.437500
2897		-1523.437500
2898		-1523.437500
2899		-1523.437500
2900		-1523.437500
2901		-1523.437500
2902		-1523.437500
2903		-1523.437500
2904		-1562.500000
2905		-1562.500000
2906		-1523.437500
2907		-1523.437500
2908		-1523.437500
2909		-1523.437500
2910		-1523.437500
2911		-1523.437500
2912		-1523.437500
2913		-1523.437500
2914		-1523.437500
2915		-1523.437500
2916		-1523.437500
2917		-1523.437500
2918		-1562.500000
2919		-1562.500000
2920		-1562.500000
2921		-1562.500000
2922		-1562.500000
2923		-1562.500000
2924		-1562.500000
2925		-1562.500000
2926		-1562.500000
2927		-1562.500000
2928		-1562.500000
2929		-1562.500000
2930		-1562.500000
2931		-1562.500000
2932		-1562.500000
2933		-1562.500000
2934		-1562.500000
2935		-1562.500000
2936		-1562.500000
2937		-1562.500000
2938		-1562.500000
2939		-1562.500000
2940		-1562.500000
2941		-1562.500000
2942		-1562.500000
2943		-1562.500000
2944		-1562.500000
2945		-1562.500000
2946		-1562.500000
2947		-1601.562500
2948		-1562.500000
2949		-1562.500000
2950		-1562.500000
2951		-1562.500000
2952		-1562.500000
2953		-1562.500000
2954		-1562.500000
2955		-1562.500000
2956		-1601.562500
2957		-1601.562500
2958		-1601.562500
2959		-1601.562500
2960		-1601.562500
2961		-1601.562500
2962		-1601.562500
2963		-1601.562500
2964		-1601.562500
2965		-1601.562500
2966		-1601.562500
2967		-1562.500000
2968		-1601.562500
2969		-1601.562500
2970		-1601.562500
2971		-1601.562500
2972		-1601.562500
2973		-1601.562500
2974		-1601.562500
2975		-1601.562500
2976		-1601.562500
2977		-1601.562500
2978		-1601.562500
2979		-1601.562500
2980		-1601.562500
2981		-1601.562500
2982		-1601.562500
2983		-1601.562500
2984		-1601.562500
2985		-1601.562500
2986		-1601.562500
2987		-1601.562500
2988		-1601.562500
2989		-1601.562500
2990		-1601.562500
2991		-1601.562500
2992		-1601.562500
2993		-1601.562500
2994		-1601.562500
2995		-1601.562500
2996		-1640.625000
2997		-1601.562500
2998		-1601.562500
2999		-1601.562500
3000		-1601.562500
3001		-1601.562500
3002		-1601.562500
3003		-1601.562500
3004		-1601.562500
3005		-1601.562500
3006		-1601.562500
3007		-1601.562500
3008		-1601.562500
3009		-1601.562500
3010		-1601.562500
3011		-1601.562500
3012		-1601.562500
3013		-1601.562500
3014		-1601.562500
3015		-1601.562500
3016		-1601.562500
3017		-1601.562500
3018		-1601.562500
3019		-1601.562500
3020		-1601.562500
3021		-1601.562500
3022		-1601.562500
3023		-1601.562500
3024		-1640.625000
3025		-1601.562500
3026		-1601.562500
3027		-1601.562500
3028		-1601.562500
3029		-1640.625000
3030		-1640.625000
3031		-1640.625000
3032		-1640.625000
3033		-1601.562500
3034		-1601.562500
3035		-1601.562500
3036		-1640.625000
3037		-1640.625000
3038		-1640.625000
3039		-1640.625000
3040		-1601.562500
3041		-1601.562500
3042		-1640.625000
3043		-1640.625000
3044		-1640.625000
3045		-1640.625000
3046		-1640.625000
3047		-1640.625000
3048		-1640.625000
3049		-1640.625000
3050		-1640.625000
3051		-1640.625000
3052		-1601.562500
3053		-1640.625000
3054		-1640.625000
3055		-1640.625000
3056		-1640.625000
3057		-1640.625000
3058		-1601.562500
3059		-1640.625000
3060		-1640.625000
3061		-1640.625000
3062		-1640.625000
3063		-1640.625000
3064		-1640.625000
3065		-1640.625000
3066		-1640.625000
3067		-1640.625000
3068		-1640.625000
3069		-1640.625000
3070		-1640.625000
3071		-1640.625000
3072		-1640.625000
3073		-1640.625000
3074		-1640.625000
3075		-1640.625000
3076		-1640.625000
3077		-1640.625000
3078		-1640.625000
3079		-1640.625000
3080		-1640.625000
3081		-1640.625000
3082		-1640.625000
3083		-1640.625000
3084		-1640.625000
3085		-1640.625000
3086		-1640.625000
3087		-1640.625000
3088		-1640.625000
3089		-1640.625000
3090		-1640.625000
3091		-1640.625000
3092		-1640.625000
3093		-1640.625000
3094		-1640.625000
3095		-1640.625000
3096		-1640.625000
3097		-1640.625000
3098		-1640.625000
3099		-1640.625000
3100		-1640.625000
3101		-1640.625000
3102		-1640.625000
3103		-1640.625000
3104		-1640.625000
3105		-1640.625000
3106		-1640.625000
3107		-1640.625000
3108		-1640.625000
3109		-1640.625000
3110		-1640.625000
3111		-1640.625000
3112		-1640.625000
3113		-1640.625000
3114		-1640.625000
3115		-1640.625000
3116		-1640.625000
3117		-1640.625000
3118		-1640.625000
3119		-1640.625000
3120		-1640.625000
3121		-1640.625000
3122		-1640.625000
3123		-1679.687500
3124		-1640.625000
3125		-1640.625000
3126		-1640.625000
3127		-1640.625000
3128		-1640.625000
3129		-1640.625000
3130		-1640.625000
3131		-1640.625000
3132		-1640.625000
3133		-1640.625000
3134		-1640.625000
3135		-1640.625000
3136		-1640.625000
3137		-1640.625000
3138		-1640.625000
3139		-1640.625000
3140		-1640.625000
3141		-1640.625000
3142		-1640.625000
3143		-1640.625000
3144		-1640.625000
3145		-1640.625000
3146		-1640.625000
3147		-1640.625000
3148		-1640.625000
3149		-1640.625000
3150		-1640.625000
3151		-1640.625000
3152		-1640.625000
3153		-1679.687500
3154		-1640.625000
3155		-1640.625000
3156		-1640.625000
3157		-1640.625000
3158		-1640.625000
3159		-1640.625000
3160		-1640.625000
3161		-1640.625000
3162		-1640.625000
3163		-1640.625000
3164		-1640.625000
3165		-1640.625000
3166		-1640.625000
3167		-1640.625000
3168		-1640.625000
3169		-1640.625000
3170		-1640.625000
3171		-1640.625000
3172		-1640.625000
3173		-1640.625000
3174		-1640.625000
3175		-1640.625000
3176		-1640.625000
3177		-1640.625000
3178		-1640.625000
3179		-1640.625000
3180		-1640.625000
3181		-1640.625000
3182		-1640.625000
3183		-1640.625000
3184		-1640.625000
3185		-1640.625000
3186		-1640.625000
3187		-1640.625000
3188		-1640.625000
3189		-1640.625000
3190		-1640.625000
3191		-1640.625000
3192		-1640.625000
3193		-1640.625000
3194		-1640.625000
3195		-1640.625000
3196		-1640.625000
3197		-1640.625000
3198		-1640.625000
3199		-1640.625000
3200		-1640.625000
3201		-1640.625000
3202		-1640.625000
3203		-1640.625000
3204		-1640.625000
3205		-1640.625000
3206		-1640.625000
3207		-1640.625000
3208		-1640.625000
3209		-1640.625000
3210		-1640.625000
3211		-1640.625000
3212		-1640.625000
3213		-1640.625000
3214		-1640.625000
3215		-1640.625000
3216		-1640.625000
3217		-1640.625000
3218		-1640.625000
3219		-1640.625000
3220		-1640.625000
3221		-1640.625000
3222		-1640.625000
3223		-1640.625000
3224		-1640.625000
3225		-1640.625000
3226		-1679.687500
3227		-1640.625000
3228		-1640.625000
3229		-1679.687500
3230		-1640.625000
3231		-1640.625000
3232		-1640.625000
3233		-1640.625000
3234		-1640.625000
3235		-1640.625000
3236		-1640.625000
3237		-1640.625000
3238		-1640.625000
3239		-1640.625000
3240		-1640.625000
3241		-1640.625000
3242		-1640.625000
3243		-1640.625000
3244		-1640.625000
3245		-1640.625000
3246		-1640.625000
3247		-1640.625000
3248		-1640.625000
3249		-1640.625000
3250		-1640.625000
3251		-1640.625000
3252		-1640.625000
3253		-1640.625000
3254		-1640.625000
3255		-1640.625000
3256		-1640.625000
3257		-1640.625000
3258		-1640.625000
3259		-1640.625000
3260		-1640.625000
3261		-1640.625000
3262		-1640.625000
3263		-1640.625000
3264		-1640.625000
3265		-1640.625000
3266		-1640.625000
3267		-1640.625000
3268		-1640.625000
3269		-1640.625000
3270		-1640.625000
3271		-1640.625000
3272		-1640.625000
3273		-1640.625000
3274		-1640.625000
3275		-1640.625000
3276		-1640.625000
3277		-1640.625000
3278		-1640.625000
3279		-1640.625000
3280		-1640.625000
3281		-1640.625000
3282		-1640.625000
3283		-1640.625000
3284		-1640.625000
3285		-1640.625000
3286		-1640.625000
3287		-1640.625000
3288		-1601.562500
3289		-1640.625000
3290		-1640.625000
3291		-1640.625000
3292		-1640.625000
3293		-1601.562500
3294		-1601.562500
3295		-1640.625000
3296		-1601.562500
3297		-1640.625000
3298		-1640.625000
3299		-1640.625000
3300		-1640.625000
3301		-1640.625000
3302		-1640.625000
3303		-1640.625000
3304		-1640.625000
3305		-1640.625000
3306		-1640.625000
3307		-1601.562500
3308		-1601.562500
3309		-1601.562500
3310		-1601.562500
3311		-1601.562500
3312		-1601.562500
3313		-1601.562500
3314		-1601.562500
3315		-1601.562500
3316		-1601.562500
3317		-1601.562500
3318		-1601.562500
3319		-1601.562500
3320		-1601.562500
3321		-1640.625000
3322		-1640.625000
3323		-1601.562500
3324		-1601.562500
3325		-1601.562500
3326		-1601.562500
3327		-1601.562500
3328		-1601.562500
3329		-1601.562500
3330		-1601.562500
3331		-1601.562500
3332		-1601.562500
3333		-1601.562500
3334		-1601.562500
3335		-1601.562500
3336		-1601.562500
3337		-1601.562500
3338		-1601.562500
3339		-1601.562500
3340		-1601.562500
3341		-1601.562500
3342		-1601.562500
3343		-1601.562500
3344		-1601.562500
3345		-1601.562500
3346		-1601.562500
3347		-1601.562500
3348		-1601.562500
3349		-1601.562500
3350		-1601.562500
3351		-1601.562500
3352		-1601.562500
3353		-1601.562500
3354		-1601.562500
3355		-1601.562500
3356		-1601.562500
3357		-1601.562500
3358		-1601.562500
3359		-1601.562500
3360		-1601.562500
3361		-1601.562500
3362		-1601.562500
3363		-1601.562500
3364		-1601.562500
3365		-1601.562500
3366		-1562.500000
3367		-1562.500000
3368		-1562.500000
3369		-1562.500000
3370		-1562.500000
3371		-1562.500000
3372		-1562.500000
3373		-1562.500000
3374		-1601.562500
3375		-1562.500000
3376		-1562.500000
3377		-1562.500000
3378		-1562.500000
3379		-1562.500000
3380		-1562.500000
3381		-1562.500000
3382		-1562.500000
3383		-1562.500000
3384		-1562.500000
3385		-1562.500000
3386		-1562.500000
3387		-1562.500000
3388		-1562.500000
3389		-1562.500000
3390		-1562.500000
3391		-1562.500000
3392		-1562.500000
3393		-1562.500000
3394		-1562.500000
3395		-1562.500000
3396		-1562.500000
3397		-1562.500000
3398		-1562.500000
3399		-1562.500000
3400		-1562.500000
3401		-1562.500000
3402		-1562.500000
3403		-1562.500000
3404		-1562.500000
3405		-1562.500000
3406		-1562.500000
3407		-1562.500000
3408		-1562.500000
3409		-1562.500000
3410		-1562.500000
3411		-1562.500000
3412		-1562.500000
3413		-1562.500000
3414		-1523.437500
3415		-1562.500000
3416		-1523.437500
3417		-1523.437500
3418		-1562.500000
3419		-1562.500000
3420		-1523.437500
3421		-1523.437500
3422		-1562.500000
3423		-1523.437500
3424		-1523.437500
3425		-1523.437500
3426		-1523.437500
3427		-1523.437500
3428		-1523.437500
3429		-1523.437500
3430		-1523.437500
3431		-1523.437500
3432		-1523.437500
3433		-1523.437500
3434		-1523.437500
3435		-1523.437500
3436		-1523.437500
3437		-1523.437500
3438		-1523.437500
3439		-1523.437500
3440		-1523.437500
3441		-1523.437500
3442		-1523.437500
3443		-1523.437500
3444		-1523.437500
3445		-1523.437500
3446		-1523.437500
3447		-1523.437500
3448		-1523.437500
3449		-1523.437500
3450		-1523.437500
3451		-1523.437500
3452		-1523.437500
3453		-1523.437500
3454		-1523.437500
3455		-1523.437500
3456		-1523.437500
3457		-1484.375000
3458		-1484.375000
3459		-1523.437500
3460		-1523.437500
3461		-1523.437500
3462		-1523.437500
3463		-1523.437500
3464		-1523.437500
3465		-1523.437500
3466		-1484.375000
3467		-1523.437500
3468		-1484.375000
3469		-1484.375000
3470		-1484.375000
3471		-1484.375000
3472		-1484.375000
3473		-1484.375000
3474		-1484.375000
3475		-1484.375000
3476		-1484.375000
3477		-1484.375000
3478		-1484.375000
3479		-1484.375000
3480		-1484.375000
3481		-1484.375000
3482		-1484.375000
3483		-1484.375000
3484		-1484.375000
3485		-1484.375000
3486		-1484.375000
3487		-1484.375000
3488		-1484.375000
3489		-1484.375000
3490		-1484.375000
3491		-1484.375000
3492		-1445.312500
3493		-1445.312500
3494		-1445.312500
3495		-1445.312500
3496		-1445.312500
3497		-1484.375000
3498		-1445.312500
3499		-1445.312500
3500		-1484.375000
3501		-1445.312500
3502		-1445.312500
3503		-1445.312500
3504		-1445.312500
3505		-1445.312500
3506		-1445.312500
3507		-1445.312500
3508		-1445.312500
3509		-1445.312500
3510		-1445.312500
3511		-1445.312500
3512		-1445.312500
3513		-1445.312500
3514		-1445.312500
3515		-1445.312500
3516		-1445.312500
3517		-1445.312500
3518		-1445.312500
3519		-1445.312500
3520		-1445.312500
3521		-1445.312500
3522		-1445.312500
3523		-1445.312500
3524		-1445.312500
3525		-1445.312500
3526		-1445.312500
3527		-1445.312500
3528		-1406.250000
3529		-1406.250000
3530		-1406.250000
3531		-1406.250000
3532		-1406.250000
3533		-1406.250000
3534		-1406.250000
3535		-1406.250000
3536		-1406.250000
3537		-1406.250000
3538		-1406.250000
3539		-1406.250000
3540		-1406.250000
3541		-1406.250000
3542		-1406.250000
3543		-1406.250000
3544		-1406.250000
3545		-1406.250000
3546		-1406.250000
3547		-1406.250000
3548		-1406.250000
3549		-1406.250000
3550		-1406.250000
3551		-1406.250000
3552		-1367.187500
3553		-1367.187500
3554		-1406.250000
3555		-1406.250000
3556		-1406.250000
3557		-1406.250000
3558		-1367.187500
3559		-1367.187500
3560		-1367.187500
3561		-1367.187500
3562		-1367.187500
3563		-1367.187500
3564		-1367.187500
3565		-1367.187500
3566		-1367.187500
3567		-1367.187500
3568		-1367.187500
3569		-1367.187500
3570		-1367.187500
3571		-1367.187500
3572		-1367.187500
3573		-1367.187500
3574		-1367.187500
3575		-1367.187500
3576		-1367.187500
3577		-1367.187500
3578		-1367.187500
3579		-1367.187500
3580		-1367.187500
3581		-1367.187500
3582		-1367.187500
3583		-1328.125000
3584		-1328.125000
3585		-1328.125000
3586		-1328.125000
3587		-1328.125000
3588		-1328.125000
3589		-1328.125000
3590		-1328.125000
3591		-1328.125000
3592		-1328.125000
3593		-1328.125000
3594		-1328.125000
3595		-1328.125000
3596		-1328.125000
3597		-1328.125000
3598		-1328.125000
3599		-1328.125000
3600		-1328.125000
3601		-1328.125000
3602		-1328.125000
3603		-1328.125000
3604		-1289.062500
3605		-1328.125000
3606		-1289.062500
3607		-1328.125000
3608		-1289.062500
3609		-1289.062500
3610		-1289.062500
3611		-1289.062500
3612		-1289.062500
3613		-1289.062500
3614		-1289.062500
3615		-1289.062500
3616		-1289.062500
3617		-1289.062500
3618		-1289.062500
3619		-1289.062500
3620		-1289.062500
3621		-1289.062500
3622		-1289.062500
3623		-1289.062500
3624		-1289.062500
3625		-1289.062500
3626		-1289.062500
3627		-1289.062500
3628		-1250.000000
3629		-1250.000000
3630		-1289.062500
3631		-1250.000000
3632		-1250.000000
3633		-1250.000000
3634		-1250.000000
3635		-1250.000000
3636		-1250.000000
3637		-1250.000000
3638		-1250.000000
3639		-1250.000000
3640		-1250.000000
3641		-1250.000000
3642		-1250.000000
3643		-1250.000000
3644		-1250.000000
3645		-1250.000000
3646		-1250.000000
3647		-1250.000000
3648		-1250.000000
3649		-1210.937500
3650		-1210.937500
3651		-1210.937500
3652		-1210.937500
3653		-1210.937500
3654		-1210.937500
3655		-1210.937500
3656		-1210.937500
3657		-1210.937500
3658		-1210.937500
3659		-1210.937500
3660		-1210.937500
3661		-1210.937500
3662		-1210.937500
3663		-1210.937500
3664		-1210.937500
3665		-1210.937500
3666		-1210.937500
3667		-1210.937500
3668		-1210.937500
3669		-1210.937500
3670		-1171.875000
3671		-1171.875000
3672		-1171.875000
3673		-1171.875000
3674		-1171.875000
3675		-1171.875000
3676		-1171.875000
3677		-1171.875000
3678		-1171.875000
3679		-1171.875000
3680		-1171.875000
3681		-1171.875000
3682		-1171.875000
3683		-1171.875000
3684		-1171.875000
3685		-1171.875000
3686		-1171.875000
3687		-1171.875000
3688		-1132.812500
3689		-1132.812500
3690		-1132.812500
3691		-1132.812500
3692		-1132.812500
3693		-1132.812500
3694		-1132.812500
3695		-1132.812500
3696		-1132.812500
3697		-1132.812500
3698		-1132.812500
3699		-1132.812500
3700		-1132.812500
3701		-1132.812500
3702		-1132.812500
3703		-1132.812500
3704		-1132.812500
3705		-1132.812500
3706		-1132.812500
3707		-1132.812500
3708		-1132.812500
3709		-1093.750000
3710		-1093.750000
3711		-1093.750000
3712		-1093.750000
3713		-1093.750000
3714		-1093.750000
3715		-1093.750000
3716		-1093.750000
3717		-1093.750000
3718		-1093.750000
3719		-1093.750000
3720		-1093.750000
3721		-1093.750000
3722		-1093.750000
3723		-1093.750000
3724		-1093.750000
3725		-1093.750000
3726		-1093.750000
3727		-1054.687500
3728		-1054.687500
3729		-1054.687500
3730		-1093.750000
3731		-1054.687500
3732		-1054.687500
3733		-1054.687500
3734		-1054.687500
3735		-1054.687500
3736		-1054.687500
3737		-1054.687500
3738		-1054.687500
3739		-1054.687500
3740		-1054.687500
3741		-1054.687500
3742		-1054.687500
3743		-1054.687500
3744		-1054.687500
3745		-1054.687500
3746		-1054.687500
3747		-1054.687500
3748		-1054.687500
3749		-1054.687500
3750		-1054.687500
3751		-1015.625000
3752		-1015.625000
3753		-1015.625000
3754		-1015.625000
3755		-1015.625000
3756		-1015.625000
3757		-1015.625000
3758		-1015.625000
3759		-1015.625000
3760		-1015.625000
3761		-1015.625000
3762		-1015.625000
3763		-1015.625000
3764		-1015.625000
3765		-1015.625000
3766		-1015.625000
3767		-1015.625000
3768		-1015.625000
3769		-1015.625000
3770		-976.562500
3771		-1015.625000
3772		-1015.625000
3773		-1015.625000
3774		-1015.625000
3775		-976.562500
3776		-976.562500
3777		-976.562500
3778		-976.562500
3779		-976.562500
3780		-976.562500
3781		-976.562500
3782		-976.562500
3783		-976.562500
3784		-976.562500
3785		-976.562500
3786		-976.562500
3787		-976.562500
3788		-976.562500
3789		-976.562500
3790		-976.562500
3791		-976.562500
3792		-976.562500
3793		-976.562500
3794		-937.500000
3795		-937.500000
3796		-937.500000
3797		-937.500000
3798		-937.500000
3799		-937.500000
3800		-937.500000
3801		-937.500000
3802		-937.500000
3803		-937.500000
3804		-937.500000
3805		-937.500000
3806		-937.500000
3807		-937.500000
3808		-937.500000
3809		-937.500000
3810		-937.500000
3811		-937.500000
3812		-937.500000
3813		-937.500000
3814		-937.500000
3815		-937.500000
3816		-898.437500
3817		-898.437500
3818		-898.437500
3819		-898.437500
3820		-898.437500
3821		-898.437500
3822		-898.437500
3823		-898.437500
3824		-898.437500
3825		-898.437500
3826		-898.437500
3827		-898.437500
3828		-898.437500
3829		-898.437500
3830		-898.437500
3831		-898.437500
3832		-898.437500
3833		-898.437500
3834		-898.437500
3835		-898.437500
3836		-898.437500
3837		-898.437500
3838		-898.437500
3839		-898.437500
3840		-898.437500
3841		-898.437500
3842		-898.437500
3843		-898.437500
3844		-898.437500
3845		-859.375000
3846		-859.375000
3847		-859.375000
3848		-859.375000
3849		-859.375000
3850		-859.375000
3851		-859.375000
3852		-859.375000
3853		-859.375000
3854		-859.375000
3855		-859.375000
3856		-859.375000
3857		-859.375000
3858		-859.375000
3859		-859.375000
3860		-859.375000
3861		-859.375000
3862		-859.375000
3863		-859.375000
3864		-859.375000
3865		-859.375000
3866		-859.375000
3867		-859.375000
3868		-859.375000
3869		-859.375000
3870		-820.312500
3871		-859.375000
3872		-820.312500
3873		-820.312500
3874		-820.312500
3875		-820.312500
3876		-820.312500
3877		-820.312500
3878		-820.312500
3879		-820.312500
3880		-820.312500
3881		-820.312500
3882		-820.312500
3883		-820.312500
3884		-781.250000
3885		-820.312500
3886		-820.312500
3887		-820.312500
3888		-820.312500
3889		-820.312500
3890		-820.312500
3891		-820.312500
3892		-820.312500
3893		-820.312500
3894		-820.312500
3895		-820.312500
3896		-820.312500
3897		-820.312500
3898		-820.312500
3899		-820.312500
3900		-820.312500
3901		-820.312500
3902		-820.312500
3903		-820.312500
3904		-820.312500
3905		-820.312500
3906		-820.312500
3907		-820.312500
3908		-820.312500
3909		-781.250000
3910		-781.250000
3911		-781.250000
3912		-781.250000
3913		-781.250000
3914		-781.250000
3915		-781.250000
3916		-820.312500
3917		-781.250000
3918		-820.312500
3919		-820.312500
3920		-820.312500
3921		-781.250000
3922		-781.250000
3923		-781.250000
3924		-781.250000
3925		-781.250000
3926		-781.250000
3927		-781.250000
3928		-781.250000
3929		-781.250000
3930		-781.250000
3931		-781.250000
3932		-781.250000
3933		-781.250000
3934		-781.250000
3935		-781.250000
3936		-781.250000
3937		-781.250000
3938		-781.250000
3939		-781.250000
3940		-781.250000
3941		-781.250000
3942		-781.250000
3943		-781.250000
3944		-781.250000
3945		-781.250000
3946		-781.250000
3947		-781.250000
3948		-781.250000
3949		-781.250000
3950		-781.250000
3951		-781.250000
3952		-781.250000
3953		-781.250000
3954		-781.250000
3955		-781.250000
3956		-781.250000
3957		-781.250000
3958		-781.250000
3959		-781.250000
3960		-781.250000
3961		-781.250000
3962		-781.250000
3963		-781.250000
3964		-781.250000
3965		-781.250000
3966		-781.250000
3967		-781.250000
3968		-781.250000
3969		-781.250000
3970		-781.250000
3971		-742.187500
3972		-781.250000
3973		-781.250000
3974		-781.250000
3975		-781.250000
3976		-781.250000
3977		-742.187500
3978		-781.250000
3979		-781.250000
3980		-742.187500
3981		-781.250000
3982		-781.250000
3983		-781.250000
3984		-781.250000
3985		-781.250000
3986		-781.250000
3987		-781.250000
3988		-781.250000
3989		-781.250000
3990		-781.250000
3991		-781.250000
3992		-781.250000
3993		-781.250000
3994		-781.250000
3995		-781.250000
3996		-781.250000
3997		-742.187500
3998		-781.250000
3999		-781.250000
4000		-742.187500
4001		-781.250000
4002		-781.250000
4003		-781.250000
4004		-781.250000
4005		-781.250000
4006		-781.250000
4007		-781.250000
4008		-781.250000
4009		-781.250000
4010		-781.250000
4011		-781.250000
4012		-781.250000
4013		-742.187500
4014		-781.250000
4015		-781.250000
4016		-781.250000
4017		-781.250000
4018		-781.250000
4019		-781.250000
4020		-781.250000
4021		-781.250000
4022		-781.250000
4023		-781.250000
4024		-781.250000
4025		-781.250000
4026		-781.250000
4027		-781.250000
4028		-781.250000
4029		-781.250000
4030		-781.250000
4031		-781.250000
4032		-781.250000
4033		-781.250000
4034		-781.250000
4035		-781.250000
4036		-781.250000
4037		-781.250000
4038		-781.250000
4039		-781.250000
4040		-781.250000
4041		-781.250000
4042		-781.250000
4043		-781.250000
4044		-781.250000
4045		-781.250000
4046		-781.250000
4047		-781.250000
4048		-781.250000
4049		-781.250000
4050		-781.250000
4051		-781.250000
4052		-781.250000
4053		-781.250000
4054		-781.250000
4055		-781.250000
4056		-781.250000
4057		-781.250000
4058		-781.250000
4059		-781.250000
4060		-781.250000
4061		-781.250000
4062		-781.250000
4063		-781.250000
4064		-820.312500
4065		-781.250000
4066		-781.250000
4067		-781.250000
4068		-781.250000
4069		-781.250000
4070		-781.250000
4071		-781.250000
4072		-781.250000
4073		-781.250000
4074		-781.250000
4075		-781.250000
4076		-781.250000
4077		-820.312500
4078		-820.312500
4079		-820.312500
4080		-820.312500
4081		-820.312500
4082		-820.312500
4083		-820.312500
4084		-820.312500
4085		-820.312500
4086		-820.312500
4087		-820.312500
4088		-820.312500
4089		-820.312500
4090		-820.312500
4091		-820.312500
4092		-820.312500
4093		-820.312500
4094		-820.312500
4095		-820.312500
4096		-820.312500
4097		-820.312500
4098		-820.312500
4099		-820.312500
4100		-820.312500
4101		-820.312500
4102		-820.312500
4103		-820.312500
4104		-820.312500
4105		-820.312500
4106		-820.312500
4107		-820.312500
4108		-820.312500
4109		-820.312500
4110		-820.312500
4111		-820.312500
4112		-859.375000
4113		-859.375000
4114		-859.375000
4115		-859.375000
4116		-859.375000
4117		-859.375000
4118		-859.375000
4119		-859.375000
4120		-859.375000
4121		-859.375000
4122		-859.375000
4123		-859.375000
4124		-859.375000
4125		-859.375000
4126		-859.375000
4127		-859.375000
4128		-859.375000
4129		-859.375000
4130		-859.375000
4131		-859.375000
4132		-859.375000
4133		-859.375000
4134		-859.375000
4135		-859.375000
4136		-859.375000
4137		-859.375000
4138		-859.375000
4139		-898.437500
4140		-898.437500
4141		-898.437500
4142		-898.437500
4143		-898.437500
4144		-859.375000
4145		-898.437500
4146		-859.375000
4147		-898.437500
4148		-898.437500
4149		-898.437500
4150		-898.437500
4151		-898.437500
4152		-898.437500
4153		-898.437500
4154		-898.437500
4155		-898.437500
4156		-898.437500
4157		-898.437500
4158		-898.437500
4159		-898.437500
4160		-898.437500
4161		-898.437500
4162		-898.437500
4163		-898.437500
4164		-898.437500
4165		-898.437500
4166		-937.500000
4167		-937.500000
4168		-898.437500
4169		-937.500000
4170		-898.437500
4171		-937.500000
4172		-937.500000
4173		-937.500000
4174		-937.500000
4175		-937.500000
4176		-937.500000
4177		-937.500000
4178		-937.500000
4179		-937.500000
4180		-937.500000
4181		-937.500000
4182		-937.500000
4183		-937.500000
4184		-937.500000
4185		-937.500000
4186		-937.500000
4187		-937.500000
4188		-937.500000
4189		-937.500000
4190		-976.562500
4191		-937.500000
4192		-976.562500
4193		-976.562500
4194		-976.562500
4195		-976.562500
4196		-976.562500
4197		-976.562500
4198		-976.562500
4199		-976.562500
4200		-976.562500
4201		-976.562500
4202		-976.562500
4203		-976.562500
4204		-976.562500
4205		-976.562500
4206		-976.562500
4207		-976.562500
4208		-976.562500
4209		-976.562500
4210		-1015.625000
4211		-976.562500
4212		-976.562500
4213		-976.562500
4214		-1015.625000
4215		-1015.625000
4216		-1015.625000
4217		-1015.625000
4218		-1015.625000
4219		-1015.625000
4220		-1015.625000
4221		-1015.625000
4222		-1015.625000
4223		-1015.625000
4224		-1015.625000
4225		-1015.625000
4226		-1054.687500
4227		-1015.625000
4228		-1015.625000
4229		-1015.625000
4230		-1015.625000
4231		-1015.625000
4232		-1015.625000
4233		-1015.625000
4234		-1054.687500
4235		-1054.687500
4236		-1054.687500
4237		-1054.687500
4238		-1054.687500
4239		-1054.687500
4240		-1054.687500
4241		-1054.687500
4242		-1054.687500
4243		-1054.687500
4244		-1054.687500
4245		-1054.687500
4246		-1054.687500
4247		-1054.687500
4248		-1054.687500
4249		-1054.687500
4250		-1054.687500
4251		-1054.687500
4252		-1054.687500
4253		-1054.687500
4254		-1054.687500
4255		-1093.750000
4256		-1054.687500
4257		-1093.750000
4258		-1093.750000
4259		-1093.750000
4260		-1093.750000
4261		-1093.750000
4262		-1093.750000
4263		-1093.750000
4264		-1093.750000
4265		-1093.750000
4266		-1093.750000
4267		-1093.750000
4268		-1093.750000
4269		-1093.750000
4270		-1093.750000
4271		-1093.750000
4272		-1093.750000
4273		-1093.750000
4274		-1093.750000
4275		-1093.750000
4276		-1132.812500
4277		-1132.812500
4278		-1132.812500
4279		-1132.812500
4280		-1132.812500
4281		-1132.812500
4282		-1132.812500
4283		-1132.812500
4284		-1132.812500
4285		-1132.812500
4286		-1132.812500
4287		-1132.812500
4288		-1132.812500
4289		-1132.812500
4290		-1132.812500
4291		-1132.812500
4292		-1132.812500
4293		-1132.812500
4294		-1171.875000
4295		-1171.875000
4296		-1171.875000
4297		-1171.875000
4298		-1171.875000
4299		-1171.875000
4300		-1171.875000
4301		-1171.875000
4302		-1171.875000
4303		-1171.875000
4304		-1171.875000
4305		-1171.875000
4306		-1171.875000
4307		-1171.875000
4308		-1171.875000
4309		-1171.875000
4310		-1171.875000
4311		-1171.875000
4312		-1171.875000
4313		-1171.875000
4314		-1171.875000
4315		-1171.875000
4316		-1171.875000
4317		-1210.937500
4318		-1210.937500
4319		-1210.937500
4320		-1210.937500
4321		-1210.937500
4322		-1210.937500
4323		-1210.937500
4324		-1210.937500
4325		-1210.937500
4326		-1210.937500
4327		-1210.937500
4328		-1210.937500
4329		-1210.937500
4330		-1210.937500
4331		-1210.937500
4332		-1210.937500
4333		-1210.937500
4334		-1210.937500
4335		-1210.937500
4336		-1250.000000
4337		-1210.937500
4338		-1210.937500
4339		-1210.937500
4340		-1210.937500
4341		-1250.000000
4342		-1250.000000
4343		-1250.000000
4344		-1250.000000
4345		-1250.000000
4346		-1250.000000
4347		-1250.000000
4348		-1250.000000
4349		-1250.000000
4350		-1250.000000
4351		-1250.000000
4352		-1250.000000
4353		-1250.000000
4354		-1250.000000
4355		-1250.000000
4356		-1250.000000
4357		-1250.000000
4358		-1250.000000
4359		-1289.062500
4360		-1250.000000
4361		-1250.000000
4362		-1289.062500
4363		-1289.062500
4364		-1289.062500
4365		-1289.062500
4366		-1289.062500
4367		-1289.062500
4368		-1289.062500
4369		-1289.062500
4370		-1289.062500
4371		-1289.062500
4372		-1289.062500
4373		-1289.062500
4374		-1289.062500
4375		-1289.062500
4376		-1289.062500
4377		-1289.062500
4378		-1289.062500
4379		-1289.062500
4380		-1289.062500
4381		-1289.062500
4382		-1289.062500
4383		-1328.125000
4384		-1328.125000
4385		-1328.125000
4386		-1328.125000
4387		-1328.125000
4388		-1328.125000
4389		-1328.125000
4390		-1328.125000
4391		-1328.125000
4392		-1328.125000
4393		-1328.125000
4394		-1328.125000
4395		-1328.125000
4396		-1328.125000
4397		-1328.125000
4398		-1328.125000
4399		-1328.125000
4400		-1328.125000
4401		-1328.125000
4402		-1328.125000
4403		-1328.125000
4404		-1328.125000
4405		-1328.125000
4406		-1328.125000
4407		-1367.187500
4408		-1328.125000
4409		-1367.187500
4410		-1328.125000
4411		-1328.125000
4412		-1328.125000
4413		-1367.187500
4414		-1328.125000
4415		-1328.125000
4416		-1367.187500
4417		-1367.187500
4418		-1367.187500
4419		-1367.187500
4420		-1367.187500
4421		-1367.187500
4422		-1367.187500
4423		-1367.187500
4424		-1367.187500
4425		-1367.187500
4426		-1367.187500
4427		-1367.187500
4428		-1367.187500
4429		-1367.187500
4430		-1367.187500
4431		-1367.187500
4432		-1367.187500
4433		-1367.187500
4434		-1367.187500
4435		-1367.187500
4436		-1367.187500
4437		-1367.187500
4438		-1406.250000
4439		-1406.250000
4440		-1406.250000
4441		-1406.250000
4442		-1406.250000
4443		-1406.250000
4444		-1406.250000
4445		-1406.250000
4446		-1406.250000
4447		-1406.250000
4448		-1406.250000
4449		-1406.250000
4450		-1406.250000
4451		-1406.250000
4452		-1406.250000
4453		-1406.250000
4454		-1406.250000
4455		-1406.250000
4456		-1406.250000
4457		-1406.250000
4458		-1406.250000
4459		-1406.250000
4460		-1406.250000
4461		-1445.312500
4462		-1406.250000
4463		-1406.250000
4464		-1406.250000
4465		-1406.250000
4466		-1406.250000
4467		-1406.250000
4468		-1406.250000
4469		-1406.250000
4470		-1406.250000
4471		-1406.250000
4472		-1406.250000
4473		-1445.312500
4474		-1445.312500
4475		-1445.312500
4476		-1445.312500
4477		-1445.312500
4478		-1445.312500
4479		-1445.312500
4480		-1445.312500
4481		-1445.312500
4482		-1445.312500
4483		-1445.312500
4484		-1445.312500
4485		-1445.312500
4486		-1445.312500
4487		-1445.312500
4488		-1445.312500
4489		-1445.312500
4490		-1445.312500
4491		-1445.312500
4492		-1445.312500
4493		-1445.312500
4494		-1445.312500
4495		-1445.312500
4496		-1445.312500
4497		-1484.375000
4498		-1484.375000
4499		-1484.375000
4500		-1484.375000
4501		-1445.312500
4502		-1484.375000
4503		-1484.375000
4504		-1484.375000
4505		-1484.375000
4506		-1484.375000
4507		-1445.312500
4508		-1445.312500
4509		-1484.375000
4510		-1484.375000
4511		-1484.375000
4512		-1484.375000
4513		-1484.375000
4514		-1484.375000
4515		-1484.375000
4516		-1484.375000
4517		-1484.375000
4518		-1484.375000
4519		-1484.375000
4520		-1484.375000
4521		-1484.375000
4522		-1484.375000
4523		-1484.375000
4524		-1484.375000
4525		-1484.375000
4526		-1484.375000
4527		-1484.375000
4528		-1484.375000
4529		-1484.375000
4530		-1484.375000
4531		-1484.375000
4532		-1484.375000
4533		-1484.375000
4534		-1484.375000
4535		-1484.375000
4536		-1484.375000
4537		-1484.375000
4538		-1484.375000
4539		-1484.375000
4540		-1523.437500
4541		-1484.375000
4542		-1523.437500
4543		-1523.437500
4544		-1523.437500
4545		-1523.437500
4546		-1523.437500
4547		-1523.437500
4548		-1523.437500
4549		-1523.437500
4550		-1523.437500
4551		-1523.437500
4552		-1523.437500
4553		-1523.437500
4554		-1523.437500
4555		-1523.437500
4556		-1523.437500
4557		-1523.437500
4558		-1523.437500
4559		-1523.437500
4560		-1523.437500
4561		-1523.437500
4562		-1523.437500
4563		-1523.437500
4564		-1523.437500
4565		-1523.437500
4566		-1523.437500
4567		-1523.437500
4568		-1523.437500
4569		-1523.437500
4570		-1523.437500
4571		-1523.437500
4572		-1523.437500
4573		-1523.437500
4574		-1523.437500
4575		-1523.437500
4576		-1523.437500
4577		-1523.437500
4578		-1523.437500
4579		-1562.500000
4580		-1523.437500
4581		-1523.437500
4582		-1562.500000
4583		-1562.500000
4584		-1562.500000
4585		-1562.500000
4586		-1562.500000
4587		-1562.500000
4588		-1562.500000
4589		-1562.500000
4590		-1562.500000
4591		-1562.500000
4592		-1562.500000
4593		-1523.437500
4594		-1562.500000
4595		-1562.500000
4596		-1562.500000
4597		-1562.500000
4598		-1562.500000
4599		-1562.500000
4600		-1562.500000
4601		-1562.500000
4602		-1562.500000
4603		-1562.500000
4604		-1562.500000
4605		-1562.500000
4606		-1562.500000
4607		-1562.500000
4608		-1562.500000
4609		-1562.500000
4610		-1562.500000
4611		-1562.500000
4612		-1562.500000
4613		-1562.500000
4614		-1562.500000
4615		-1562.500000
4616		-1562.500000
4617		-1562.500000
4618		-1562.500000
4619		-1562.500000
4620		-1562.500000
4621		-1562.500000
4622		-1562.500000
4623		-1562.500000
4624		-1562.500000
4625		-1562.500000
4626		-1562.500000
4627		-1562.500000
4628		-1562.500000
4629		-1562.500000
4630		-1562.500000
4631		-1562.500000
4632		-1562.500000
4633		-1562.500000
4634		-1562.500000
4635		-1562.500000
4636		-1562.500000
4637		-1562.500000
4638		-1601.562500
4639		-1601.562500
4640		-1601.562500
4641		-1601.562500
4642		-1601.562500
4643		-1601.562500
4644		-1601.562500
4645		-1601.562500
4646		-1601.562500
4647		-1601.562500
4648		-1562.500000
4649		-1562.500000
4650		-1601.562500
4651		-1562.500000
4652		-1562.500000
4653		-1601.562500
4654		-1601.562500
4655		-1601.562500
4656		-1601.562500
4657		-1601.562500
4658		-1601.562500
4659		-1601.562500
4660		-1601.562500
4661		-1601.562500
4662		-1601.562500
4663		-1601.562500
4664		-1601.562500
4665		-1601.562500
4666		-1601.562500
4667		-1601.562500
4668		-1601.562500
4669		-1601.562500
4670		-1601.562500
4671		-1601.562500
4672		-1601.562500
4673		-1601.562500
4674		-1601.562500
4675		-1601.562500
4676		-1601.562500
4677		-1601.562500
4678		-1601.562500
4679		-1601.562500
4680		-1601.562500
4681		-1601.562500
4682		-1601.562500
4683		-1601.562500
4684		-1601.562500
4685		-1601.562500
4686		-1601.562500
4687		-1601.562500
4688		-1601.562500
4689		-1601.562500
4690		-1601.562500
4691		-1601.562500
4692		-1601.562500
4693		-1640.625000
4694		-1601.562500
4695		-1601.562500
4696		-1601.562500
4697		-1601.562500
4698		-1601.562500
4699		-1601.562500
4700		-1601.562500
4701		-1601.562500
4702		-1601.562500
4703		-1601.562500
4704		-1601.562500
4705		-1640.625000
4706		-1601.562500
4707		-1601.562500
4708		-1601.562500
4709		-1601.562500
4710		-1601.562500
4711		-1601.562500
4712		-1601.562500
4713		-1601.562500
4714		-1601.562500
4715		-1601.562500
4716		-1640.625000
4717		-1601.562500
4718		-1640.625000
4719		-1640.625000
4720		-1640.625000
4721		-1601.562500
4722		-1640.625000
4723		-1640.625000
4724		-1640.625000
4725		-1640.625000
4726		-1640.625000
4727		-1640.625000
4728		-1640.625000
4729		-1640.625000
4730		-1640.625000
4731		-1601.562500
4732		-1640.625000
4733		-1640.625000
4734		-1640.625000
4735		-1640.625000
4736		-1640.625000
4737		-1640.625000
4738		-1640.625000
4739		-1640.625000
4740		-1640.625000
4741		-1640.625000
4742		-1640.625000
4743		-1640.625000
4744		-1640.625000
4745		-1640.625000
4746		-1640.625000
4747		-1640.625000
4748		-1640.625000
4749		-1640.625000
4750		-1640.625000
4751		-1640.625000
4752		-1640.625000
4753		-1640.625000
4754		-1640.625000
4755		-1640.625000
4756		-1640.625000
4757		-1640.625000
4758		-1640.625000
4759		-1640.625000
4760		-1640.625000
4761		-1640.625000
4762		-1640.625000
4763		-1640.625000
4764		-1640.625000
4765		-1640.625000
4766		-1640.625000
4767		-1640.625000
4768		-1640.625000
4769		-1640.625000
4770		-1640.625000
4771		-1640.625000
4772		-1640.625000
4773		-1640.625000
4774		-1640.625000
4775		-1640.625000
4776		-1640.625000
4777		-1640.625000
4778		-1640.625000
4779		-1640.625000
4780		-1640.625000
4781		-1640.625000
4782		-1640.625000
4783		-1640.625000
4784		-1640.625000
4785		-1640.625000
4786		-1640.625000
4787		-1640.625000
4788		-1640.625000
4789		-1640.625000
4790		-1640.625000
4791		-1640.625000
4792		-1640.625000
4793		-1640.625000
4794		-1640.625000
4795		-1640.625000
4796		-1640.625000
4797		-1640.625000
4798		-1640.625000
4799		-1640.625000
4800		-1640.625000
4801		-1640.625000
4802		-1640.625000
4803		-1640.625000
4804		-1640.625000
4805		-1640.625000
4806		-1640.625000
4807		-1640.625000
4808		-1640.625000
4809		-1640.625000
4810		-1640.625000
4811		-1640.625000
4812		-1601.562500
4813		-1640.625000
4814		-1640.625000
4815		-1601.562500
4816		-1640.625000
4817		-1640.625000
4818		-1640.625000
4819		-1640.625000
4820		-1640.625000
4821		-1640.625000
4822		-1640.625000
4823		-1640.625000
4824		-1640.625000
4825		-1640.625000
4826		-1640.625000
4827		-1640.625000
4828		-1640.625000
4829		-1640.625000
4830		-1640.625000
4831		-1640.625000
4832		-1640.625000
4833		-1640.625000
4834		-1640.625000
4835		-1640.625000
4836		-1640.625000
4837		-1640.625000
4838		-1640.625000
4839		-1640.625000
4840		-1640.625000
4841		-1640.625000
4842		-1640.625000
4843		-1640.625000
4844		-1640.625000
4845		-1640.625000
4846		-1640.625000
4847		-1640.625000
4848		-1640.625000
4849		-1640.625000
4850		-1640.625000
4851		-1640.625000
4852		-1640.625000
4853		-1640.625000
4854		-1640.625000
4855		-1640.625000
4856		-1640.625000
4857		-1640.625000
4858		-1640.625000
4859		-1640.625000
4860		-1640.625000
4861		-1640.625000
4862		-1640.625000
4863		-1640.625000
4864		-1640.625000
4865		-1640.625000
4866		-1640.625000
4867		-1640.625000
4868		-1640.625000
4869		-1640.625000
4870		-1640.625000
4871		-1640.625000
4872		-1640.625000
4873		-1640.625000
4874		-1640.625000
4875		-1640.625000
4876		-1640.625000
4877		-1640.625000
4878		-1640.625000
4879		-1640.625000
4880		-1640.625000
4881		-1640.625000
4882		-1640.625000
4883		-1640.625000
4884		-1640.625000
4885		-1640.625000
4886		-1640.625000
4887		-1601.562500
4888		-1640.625000
4889		-1601.562500
4890		-1601.562500
4891		-1640.625000
4892		-1640.625000
4893		-1640.625000
4894		-1640.625000
4895		-1640.625000
4896		-1640.625000
4897		-1640.625000
4898		-1640.625000
4899		-1640.625000
4900		-1640.625000
4901		-1640.625000
4902		-1601.562500
4903		-1640.625000
4904		-1640.625000
4905		-1601.562500
4906		-1601.562500
4907		-1640.625000
4908		-1601.562500
4909		-1601.562500
4910		-1640.625000
4911		-1640.625000
4912		-1640.625000
4913		-1640.625000
4914		-1601.562500
4915		-1601.562500
4916		-1640.625000
4917		-1601.562500
4918		-1601.562500
4919		-1640.625000
4920		-1601.562500
4921		-1601.562500
4922		-1601.562500
4923		-1640.625000
4924		-1601.562500
4925		-1601.562500
4926		-1601.562500
4927		-1601.562500
4928		-1601.562500
4929		-1601.562500
4930		-1601.562500
4931		-1601.562500
4932		-1601.562500
4933		-1601.562500
4934		-1601.562500
4935		-1601.562500
4936		-1601.562500
4937		-1601.562500
4938		-1601.562500
4939		-1601.562500
4940		-1601.562500
4941		-1601.562500
4942		-1601.562500
4943		-1601.562500
4944		-1601.562500
4945		-1601.562500
4946		-1601.562500
4947		-1601.562500
4948		-1601.562500
4949		-1601.562500
4950		-1601.562500
4951		-1601.562500
4952		-1601.562500
4953		-1601.562500
4954		-1601.562500
4955		-1601.562500
4956		-1601.562500
4957		-1601.562500
4958		-1601.562500
4959		-1601.562500
4960		-1601.562500
4961		-1601.562500
4962		-1601.562500
4963		-1601.562500
4964		-1601.562500
4965		-1601.562500
4966		-1601.562500
4967		-1601.562500
4968		-1601.562500
4969		-1601.562500
4970		-1601.562500
4971		-1601.562500
4972		-1601.562500
4973		-1601.562500
4974		-1601.562500
4975		-1601.562500
4976		-1601.562500
4977		-1601.562500
4978		-1601.562500
4979		-1601.562500
4980		-1601.562500
4981		-1601.562500
4982		-1601.562500
4983		-1601.562500
4984		-1601.562500
4985		-1601.562500
4986		-1601.562500
4987		-1601.562500
4988		-1601.562500
4989		-1601.562500
4990		-1601.562500
4991		-1562.500000
4992		-1562.500000
4993		-1562.500000
4994		-1562.500000
4995		-1601.562500
4996		-1562.500000
4997		-1601.562500
4998		-1601.562500
4999		-1601.562500
5000		-1601.562500
5001		-1601.562500
5002		-1601.562500
5003		-1601.562500
5004		-1601.562500
5005		-1601.562500
5006		-1562.500000
5007		-1562.500000
5008		-1562.500000
5009		-1562.500000
5010		-1562.500000
5011		-1562.500000
5012		-1562.500000
5013		-1562.500000
5014		-1562.500000
5015		-1562.500000
5016		-1562.500000
5017		-1562.500000
5018		-1562.500000
5019		-1562.500000
5020		-1562.500000
5021		-1562.500000
5022		-1562.500000
5023		-1562.500000
5024		-1562.500000
5025		-1562.500000
5026		-1562.500000
5027		-1562.500000
5028		-1562.500000
5029		-1562.500000
5030		-1562.500000
5031		-1562.500000
5032		-1562.500000
5033		-1562.500000
5034		-1562.500000
5035		-1562.500000
5036		-1562.500000
5037		-1562.500000
5038		-1562.500000
5039		-1562.500000
5040		-1562.500000
5041		-1562.500000
5042		-1562.500000
5043		-1562.500000
5044		-1562.500000
5045		-1523.437500
5046		-1523.437500
5047		-1523.437500
5048		-1523.437500
5049		-1523.437500
5050		-1523.437500
5051		-1523.437500
5052		-1523.437500
5053		-1523.437500
5054		-1523.437500
5055		-1562.500000
5056		-1523.437500
5057		-1523.437500
5058		-1562.500000
5059		-1523.437500
5060		-1523.437500
5061		-1523.437500
5062		-1523.437500
5063		-1523.437500
5064		-1523.437500
5065		-1523.437500
5066		-1523.437500
5067		-1523.437500
5068		-1523.437500
5069		-1523.437500
5070		-1523.437500
5071		-1523.437500
5072		-1523.437500
5073		-1523.437500
5074		-1523.437500
5075		-1523.437500
5076		-1523.437500
5077		-1523.437500
5078		-1523.437500
5079		-1523.437500
5080		-1523.437500
5081		-1523.437500
5082		-1523.437500
5083		-1523.437500
5084		-1523.437500
5085		-1523.437500
5086		-1523.437500
5087		-1523.437500
5088		-1523.437500
5089		-1523.437500
5090		-1523.437500
5091		-1523.437500
5092		-1523.437500
5093		-1523.437500
5094		-1523.437500
5095		-1484.375000
5096		-1523.437500
5097		-1523.437500
5098		-1484.375000
5099		-1484.375000
5100		-1484.375000
5101		-1484.375000
5102		-1484.375000
5103		-1484.375000
5104		-1484.375000
5105		-1484.375000
5106		-1484.375000
5107		-1484.375000
5108		-1484.375000
5109		-1484.375000
5110		-1484.375000
5111		-1484.375000
5112		-1484.375000
5113		-1484.375000
5114		-1484.375000
5115		-1484.375000
5116		-1484.375000
5117		-1484.375000
5118		-1484.375000
5119		-1484.375000
5120		-1484.375000
5121		-1484.375000
5122		-1484.375000
5123		-1484.375000
5124		-1484.375000
5125		-1484.375000
5126		-1484.375000
5127		-1484.375000
5128		-1484.375000
5129		-1445.312500
5130		-1484.375000
5131		-1445.312500
5132		-1445.312500
5133		-1445.312500
5134		-1445.312500
5135		-1445.312500
5136		-1445.312500
5137		-1445.312500
5138		-1445.312500
5139		-1445.312500
5140		-1445.312500
5141		-1445.312500
5142		-1445.312500
5143		-1445.312500
5144		-1445.312500
5145		-1445.312500
5146		-1445.312500
5147		-1445.312500
5148		-1445.312500
5149		-1445.312500
5150		-1445.312500
5151		-1445.312500
5152		-1445.312500
5153		-1445.312500
5154		-1445.312500
5155		-1445.312500
5156		-1445.312500
5157		-1406.250000
5158		-1445.312500
5159		-1445.312500
5160		-1445.312500
5161		-1445.312500
5162		-1445.312500
5163		-1445.312500
5164		-1445.312500
5165		-1445.312500
5166		-1406.250000
5167		-1406.250000
5168		-1406.250000
5169		-1406.250000
5170		-1406.250000
5171		-1406.250000
5172		-1406.250000
5173		-1406.250000
5174		-1406.250000
5175		-1406.250000
5176		-1406.250000
5177		-1406.250000
5178		-1406.250000
5179		-1406.250000
5180		-1406.250000
5181		-1406.250000
5182		-1406.250000
5183		-1406.250000
5184		-1367.187500
5185		-1406.250000
5186		-1406.250000
5187		-1406.250000
5188		-1406.250000
5189		-1367.187500
5190		-1367.187500
5191		-1367.187500
5192		-1367.187500
5193		-1367.187500
5194		-1367.187500
5195		-1367.187500
5196		-1367.187500
5197		-1367.187500
5198		-1367.187500
5199		-1367.187500
5200		-1367.187500
5201		-1367.187500
5202		-1367.187500
5203		-1367.187500
5204		-1367.187500
5205		-1367.187500
5206		-1367.187500
5207		-1367.187500
5208		-1367.187500
5209		-1367.187500
5210		-1367.187500
5211		-1367.187500
5212		-1367.187500
5213		-1367.187500
5214		-1367.187500
5215		-1367.187500
5216		-1367.187500
5217		-1367.187500
5218		-1367.187500
5219		-1367.187500
5220		-1367.187500
5221		-1367.187500
5222		-1328.125000
5223		-1328.125000
5224		-1328.125000
5225		-1328.125000
5226		-1328.125000
5227		-1328.125000
5228		-1328.125000
5229		-1328.125000
5230		-1328.125000
5231		-1328.125000
5232		-1328.125000
5233		-1328.125000
5234		-1328.125000
5235		-1328.125000
5236		-1328.125000
5237		-1328.125000
5238		-1328.125000
5239		-1328.125000
5240		-1328.125000
5241		-1328.125000
5242		-1328.125000
5243		-1328.125000
5244		-1289.062500
5245		-1289.062500
5246		-1289.062500
5247		-1289.062500
5248		-1289.062500
5249		-1289.062500
5250		-1289.062500
5251		-1289.062500
5252		-1289.062500
5253		-1289.062500
5254		-1289.062500
5255		-1289.062500
5256		-1289.062500
5257		-1289.062500
5258		-1289.062500
5259		-1289.062500
5260		-1289.062500
5261		-1289.062500
5262		-1289.062500
5263		-1289.062500
5264		-1250.000000
5265		-1250.000000
5266		-1250.000000
5267		-1250.000000
5268		-1250.000000
5269		-1250.000000
5270		-1250.000000
5271		-1250.000000
5272		-1250.000000
5273		-1250.000000
5274		-1250.000000
5275		-1250.000000
5276		-1250.000000
5277		-1250.000000
5278		-1250.000000
5279		-1250.000000
5280		-1250.000000
5281		-1250.000000
5282		-1250.000000
5283		-1210.937500
5284		-1250.000000
5285		-1250.000000
5286		-1210.937500
5287		-1210.937500
5288		-1210.937500
5289		-1210.937500
5290		-1210.937500
5291		-1210.937500
5292		-1210.937500
5293		-1210.937500
5294		-1210.937500
5295		-1210.937500
5296		-1210.937500
5297		-1210.937500
5298		-1210.937500
5299		-1210.937500
5300		-1210.937500
5301		-1210.937500
5302		-1210.937500
5303		-1210.937500
5304		-1210.937500
5305		-1210.937500
5306		-1210.937500
5307		-1210.937500
5308		-1171.875000
5309		-1210.937500
5310		-1171.875000
5311		-1171.875000
5312		-1171.875000
5313		-1171.875000
5314		-1171.875000
5315		-1171.875000
5316		-1171.875000
5317		-1171.875000
5318		-1171.875000
5319		-1171.875000
5320		-1171.875000
5321		-1171.875000
5322		-1171.875000
5323		-1171.875000
5324		-1171.875000
5325		-1171.875000
5326		-1171.875000
5327		-1171.875000
5328		-1171.875000
5329		-1171.875000
5330		-1132.812500
5331		-1132.812500
5332		-1132.812500
5333		-1132.812500
5334		-1132.812500
5335		-1132.812500
5336		-1132.812500
5337		-1132.812500
5338		-1132.812500
5339		-1132.812500
5340		-1132.812500
5341		-1132.812500
5342		-1132.812500
5343		-1132.812500
5344		-1132.812500
5345		-1132.812500
5346		-1132.812500
5347		-1132.812500
5348		-1132.812500
5349		-1132.812500
5350		-1093.750000
5351		-1093.750000
5352		-1093.750000
5353		-1093.750000
5354		-1093.750000
5355		-1093.750000
5356		-1093.750000
5357		-1093.750000
5358		-1093.750000
5359		-1093.750000
5360		-1093.750000
5361		-1093.750000
5362		-1093.750000
5363		-1093.750000
5364		-1093.750000
5365		-1093.750000
5366		-1093.750000
5367		-1093.750000
5368		-1015.625000
5369		-1093.750000
5370		-1054.687500
5371		-1054.687500
5372		-1054.687500
5373		-1054.687500
5374		-1054.687500
5375		-1054.687500
5376		-1054.687500
5377		-1054.687500
5378		-1054.687500
5379		-1054.687500
5380		-1054.687500
5381		-1054.687500
5382		-1054.687500
5383		-1054.687500
5384		-1054.687500
5385		-1054.687500
5386		-1054.687500
5387		-1054.687500
5388		-1054.687500
5389		-1015.625000
5390		-1015.625000
5391		-1015.625000
5392		-1015.625000
5393		-1015.625000
5394		-1015.625000
5395		-1015.625000
5396		-1015.625000
5397		-1015.625000
5398		-1015.625000
5399		-1015.625000
5400		-1054.687500
5401		-1015.625000
5402		-1015.625000
5403		-1015.625000
5404		-1015.625000
5405		-1015.625000
5406		-1015.625000
5407		-1015.625000
5408		-1015.625000
5409		-1015.625000
5410		-976.562500
5411		-1015.625000
5412		-976.562500
5413		-976.562500
5414		-976.562500
5415		-976.562500
5416		-976.562500
5417		-1015.625000
5418		-976.562500
5419		-976.562500
5420		-976.562500
5421		-976.562500
5422		-976.562500
5423		-976.562500
5424		-976.562500
5425		-976.562500
5426		-976.562500
5427		-976.562500
5428		-976.562500
5429		-976.562500
5430		-976.562500
5431		-976.562500
5432		-976.562500
5433		-898.437500
5434		-976.562500
5435		-976.562500
5436		-976.562500
5437		-976.562500
5438		-937.500000
5439		-937.500000
5440		-976.562500
5441		-937.500000
5442		-937.500000
5443		-937.500000
5444		-937.500000
5445		-937.500000
5446		-937.500000
5447		-937.500000
5448		-937.500000
5449		-937.500000
5450		-937.500000
5451		-937.500000
5452		-937.500000
5453		-937.500000
5454		-937.500000
5455		-937.500000
5456		-937.500000
5457		-937.500000
5458		-937.500000
5459		-937.500000
5460		-898.437500
5461		-898.437500
5462		-898.437500
5463		-898.437500
5464		-898.437500
5465		-898.437500
5466		-898.437500
5467		-898.437500
5468		-898.437500
5469		-898.437500
5470		-898.437500
5471		-898.437500
5472		-898.437500
5473		-898.437500
5474		-898.437500
5475		-898.437500
5476		-898.437500
5477		-898.437500
5478		-898.437500
5479		-898.437500
5480		-898.437500
5481		-898.437500
5482		-898.437500
5483		-898.437500
5484		-859.375000
5485		-859.375000
5486		-859.375000
5487		-859.375000
5488		-859.375000
5489		-859.375000
5490		-859.375000
5491		-859.375000
5492		-859.375000
5493		-859.375000
5494		-859.375000
5495		-859.375000
5496		-859.375000
5497		-859.375000
5498		-859.375000
5499		-859.375000
5500		-859.375000
5501		-859.375000
5502		-859.375000
5503		-859.375000
5504		-859.375000
5505		-859.375000
5506		-859.375000
5507		-859.375000
5508		-859.375000
5509		-859.375000
5510		-820.312500
5511		-820.312500
5512		-820.312500
5513		-820.312500
5514		-820.312500
5515		-820.312500
5516		-820.312500
5517		-820.312500
5518		-820.312500
5519		-820.312500
5520		-820.312500
5521		-820.312500
5522		-820.312500
5523		-820.312500
5524		-820.312500
5525		-820.312500
5526		-820.312500
5527		-820.312500
5528		-820.312500
5529		-820.312500
5530		-820.312500
5531		-820.312500
5532		-820.312500
5533		-820.312500
5534		-820.312500
5535		-820.312500
5536		-820.312500
5537		-820.312500
5538		-820.312500
5539		-820.312500
5540		-820.312500
5541		-820.312500
5542		-820.312500
5543		-820.312500
5544		-820.312500
5545		-820.312500
5546		-820.312500
5547		-781.250000
5548		-781.250000
5549		-781.250000
5550		-781.250000
5551		-781.250000
5552		-781.250000
5553		-781.250000
5554		-781.250000
5555		-781.250000
5556		-781.250000
5557		-781.250000
5558		-781.250000
5559		-781.250000
5560		-781.250000
5561		-781.250000
5562		-781.250000
5563		-820.312500
5564		-781.250000
5565		-781.250000
5566		-781.250000
5567		-781.250000
5568		-781.250000
5569		-781.250000
5570		-781.250000
5571		-781.250000
5572		-781.250000
5573		-781.250000
5574		-781.250000
5575		-781.250000
5576		-781.250000
5577		-781.250000
5578		-781.250000
5579		-781.250000
5580		-781.250000
5581		-781.250000
5582		-781.250000
5583		-781.250000
5584		-781.250000
5585		-781.250000
5586		-781.250000
5587		-781.250000
5588		-781.250000
5589		-781.250000
5590		-742.187500
5591		-742.187500
5592		-781.250000
5593		-781.250000
5594		-781.250000
5595		-742.187500
5596		-781.250000
5597		-781.250000
5598		-781.250000
5599		-781.250000
5600		-781.250000
5601		-781.250000
5602		-781.250000
5603		-781.250000
5604		-781.250000
5605		-781.250000
5606		-742.187500
5607		-742.187500
5608		-742.187500
5609		-742.187500
5610		-742.187500
5611		-742.187500
5612		-742.187500
5613		-742.187500
5614		-742.187500
5615		-742.187500
5616		-781.250000
5617		-781.250000
5618		-781.250000
5619		-781.250000
5620		-781.250000
5621		-781.250000
5622		-742.187500
5623		-742.187500
5624		-742.187500
5625		-742.187500
5626		-742.187500
5627		-742.187500
5628		-742.187500
5629		-742.187500
5630		-742.187500
5631		-742.187500
5632		-742.187500
5633		-742.187500
5634		-742.187500
5635		-742.187500
5636		-742.187500
5637		-742.187500
5638		-742.187500
5639		-742.187500
5640		-742.187500
5641		-742.187500
5642		-742.187500
5643		-742.187500
5644		-742.187500
5645		-742.187500
5646		-742.187500
5647		-742.187500
5648		-742.187500
5649		-742.187500
5650		-742.187500
5651		-742.187500
5652		-742.187500
5653		-742.187500
5654		-742.187500
5655		-742.187500
5656		-742.187500
5657		-742.187500
5658		-742.187500
5659		-742.187500
5660		-742.187500
5661		-742.187500
5662		-742.187500
5663		-742.187500
5664		-742.187500
5665		-742.187500
5666		-742.187500
5667		-742.187500
5668		-742.187500
5669		-742.187500
5670		-781.250000
5671		-742.187500
5672		-781.250000
5673		-781.250000
5674		-742.187500
5675		-781.250000
5676		-781.250000
5677		-781.250000
5678		-781.250000
5679		-742.187500
5680		-781.250000
5681		-781.250000
5682		-781.250000
5683		-781.250000
5684		-781.250000
5685		-781.250000
5686		-781.250000
5687		-781.250000
5688		-781.250000
5689		-781.250000
5690		-781.250000
5691		-781.250000
5692		-781.250000
5693		-781.250000
5694		-781.250000
5695		-781.250000
5696		-781.250000
5697		-781.250000
5698		-781.250000
5699		-781.250000
5700		-781.250000
5701		-781.250000
5702		-781.250000
5703		-781.250000
5704		-781.250000
5705		-781.250000
5706		-781.250000
5707		-781.250000
5708		-781.250000
5709		-781.250000
5710		-781.250000
5711		-781.250000
5712		-781.250000
5713		-781.250000
5714		-781.250000
5715		-781.250000
5716		-781.250000
5717		-781.250000
5718		-781.250000
5719		-781.250000
5720		-820.312500
5721		-781.250000
5722		-781.250000
5723		-781.250000
5724		-820.312500
5725		-781.250000
5726		-781.250000
5727		-781.250000
5728		-781.250000
5729		-781.250000
5730		-820.312500
5731		-781.250000
5732		-781.250000
5733		-781.250000
5734		-781.250000
5735		-781.250000
5736		-820.312500
5737		-820.312500
5738		-820.312500
5739		-820.312500
5740		-820.312500
5741		-820.312500
5742		-820.312500
5743		-820.312500
5744		-820.312500
5745		-820.312500
5746		-820.312500
5747		-820.312500
5748		-820.312500
5749		-820.312500
5750		-820.312500
5751		-820.312500
5752		-820.312500
5753		-820.312500
5754		-820.312500
5755		-820.312500
5756		-820.312500
5757		-820.312500
5758		-820.312500
5759		-820.312500
5760		-859.375000
5761		-820.312500
5762		-859.375000
5763		-859.375000
5764		-820.312500
5765		-859.375000
5766		-859.375000
5767		-859.375000
5768		-820.312500
5769		-820.312500
5770		-820.312500
5771		-820.312500
5772		-820.312500
5773		-859.375000
5774		-859.375000
5775		-859.375000
5776		-859.375000
5777		-859.375000
5778		-859.375000
5779		-859.375000
5780		-859.375000
5781		-859.375000
5782		-859.375000
5783		-859.375000
5784		-859.375000
5785		-859.375000
5786		-859.375000
5787		-859.375000
5788		-859.375000
5789		-859.375000
5790		-859.375000
5791		-859.375000
5792		-859.375000
5793		-859.375000
5794		-859.375000
5795		-898.437500
5796		-898.437500
5797		-898.437500
5798		-898.437500
5799		-898.437500
5800		-898.437500
5801		-898.437500
5802		-898.437500
5803		-898.437500
5804		-898.437500
5805		-898.437500
5806		-898.437500
5807		-898.437500
5808		-898.437500
5809		-898.437500
5810		-898.437500
5811		-898.437500
5812		-898.437500
5813		-898.437500
5814		-898.437500
5815		-898.437500
5816		-937.500000
5817		-976.562500
5818		-937.500000
5819		-937.500000
5820		-937.500000
5821		-937.500000
5822		-937.500000
5823		-937.500000
5824		-937.500000
5825		-937.500000
5826		-937.500000
5827		-937.500000
5828		-937.500000
5829		-937.500000
5830		-937.500000
5831		-937.500000
5832		-937.500000
5833		-937.500000
5834		-937.500000
5835		-937.500000
5836		-937.500000
5837		-937.500000
5838		-937.500000
5839		-937.500000
5840		-976.562500
5841		-976.562500
5842		-976.562500
5843		-976.562500
5844		-976.562500
5845		-976.562500
5846		-976.562500
5847		-976.562500
5848		-976.562500
5849		-976.562500
5850		-976.562500
5851		-976.562500
5852		-976.562500
5853		-976.562500
5854		-976.562500
5855		-976.562500
5856		-976.562500
5857		-976.562500
5858		-976.562500
5859		-976.562500
5860		-976.562500
5861		-976.562500
5862		-976.562500
5863		-1015.625000
5864		-1015.625000
5865		-1015.625000
5866		-1015.625000
5867		-1015.625000
5868		-976.562500
5869		-1015.625000
5870		-1015.625000
5871		-1015.625000
5872		-1054.687500
5873		-1015.625000
5874		-1015.625000
5875		-1015.625000
5876		-1015.625000
5877		-1015.625000
5878		-1015.625000
5879		-1015.625000
5880		-1015.625000
5881		-1054.687500
5882		-1015.625000
5883		-1054.687500
5884		-1054.687500
5885		-1054.687500
5886		-1054.687500
5887		-1054.687500
5888		-1054.687500
5889		-1054.687500
5890		-1054.687500
5891		-1054.687500
5892		-1054.687500
5893		-1054.687500
5894		-1054.687500
5895		-1054.687500
5896		-1054.687500
5897		-1054.687500
5898		-1054.687500
5899		-1054.687500
5900		-1054.687500
5901		-1054.687500
5902		-1093.750000
5903		-1054.687500
5904		-1093.750000
5905		-1093.750000
5906		-1054.687500
5907		-1093.750000
5908		-1093.750000
5909		-1093.750000
5910		-1093.750000
5911		-1093.750000
5912		-1093.750000
5913		-1093.750000
5914		-1093.750000
5915		-1093.750000
5916		-1093.750000
5917		-1093.750000
5918		-1093.750000
5919		-1093.750000
5920		-1093.750000
5921		-1093.750000
5922		-1093.750000
5923		-1132.812500
5924		-1132.812500
5925		-1132.812500
5926		-1093.750000
5927		-1093.750000
5928		-1132.812500
5929		-1132.812500
5930		-1132.812500
5931		-1132.812500
5932		-1132.812500
5933		-1132.812500
5934		-1132.812500
5935		-1132.812500
5936		-1132.812500
5937		-1132.812500
5938		-1132.812500
5939		-1132.812500
5940		-1132.812500
5941		-1132.812500
5942		-1132.812500
5943		-1171.875000
5944		-1171.875000
5945		-1132.812500
5946		-1132.812500
5947		-1171.875000
5948		-1171.875000
5949		-1171.875000
5950		-1171.875000
5951		-1132.812500
5952		-1132.812500
5953		-1171.875000
5954		-1171.875000
5955		-1171.875000
5956		-1171.875000
5957		-1171.875000
5958		-1171.875000
5959		-1171.875000
5960		-1171.875000
5961		-1171.875000
5962		-1171.875000
5963		-1171.875000
5964		-1171.875000
5965		-1171.875000
5966		-1171.875000
5967		-1171.875000
5968		-1171.875000
5969		-1171.875000
5970		-1171.875000
5971		-1171.875000
5972		-1171.875000
5973		-1210.937500
5974		-1210.937500
5975		-1210.937500
5976		-1210.937500
5977		-1210.937500
5978		-1210.937500
5979		-1210.937500
5980		-1210.937500
5981		-1210.937500
5982		-1210.937500
5983		-1210.937500
5984		-1210.937500
5985		-1210.937500
5986		-1210.937500
5987		-1210.937500
5988		-1210.937500
5989		-1210.937500
5990		-1210.937500
5991		-1210.937500
5992		-1210.937500
5993		-1250.000000
5994		-1210.937500
5995		-1250.000000
5996		-1250.000000
5997		-1250.000000
5998		-1250.000000
5999		-1250.000000
6000		-1250.000000
6001		-1250.000000
6002		-1250.000000
6003		-1250.000000
6004		-1250.000000
6005		-1250.000000
6006		-1250.000000
6007		-1250.000000
6008		-1250.000000
6009		-1250.000000
6010		-1250.000000
6011		-1250.000000
6012		-1250.000000
6013		-1250.000000
6014		-1289.062500
6015		-1289.062500
6016		-1289.062500
6017		-1289.062500
6018		-1289.062500
6019		-1289.062500
6020		-1289.062500
6021		-1289.062500
6022		-1289.062500
6023		-1289.062500
6024		-1289.062500
6025		-1289.062500
6026		-1289.062500
6027		-1289.062500
6028		-1289.062500
6029		-1289.062500
6030		-1289.062500
6031		-1289.062500
6032		-1289.062500
6033		-1289.062500
6034		-1289.062500
6035		-1289.062500
6036		-1289.062500
6037		-1289.062500
6038		-1328.125000
6039		-1328.125000
6040		-1328.125000
6041		-1289.062500
6042		-1328.125000
6043		-1328.125000
6044		-1328.125000
6045		-1328.125000
6046		-1328.125000
6047		-1328.125000
6048		-1328.125000
6049		-1328.125000
6050		-1328.125000
6051		-1328.125000
6052		-1328.125000
6053		-1328.125000
6054		-1328.125000
6055		-1328.125000
6056		-1328.125000
6057		-1328.125000
6058		-1328.125000
6059		-1328.125000
6060		-1328.125000
6061		-1328.125000
6062		-1328.125000
6063		-1367.187500
6064		-1367.187500
6065		-1367.187500
6066		-1367.187500
6067		-1328.125000
6068		-1367.187500
6069		-1367.187500
6070		-1367.187500
6071		-1367.187500
6072		-1367.187500
6073		-1367.187500
6074		-1367.187500
6075		-1367.187500
6076		-1367.187500
6077		-1367.187500
6078		-1367.187500
6079		-1367.187500
6080		-1367.187500
6081		-1367.187500
6082		-1367.187500
6083		-1367.187500
6084		-1367.187500
6085		-1367.187500
6086		-1367.187500
6087		-1367.187500
6088		-1406.250000
6089		-1406.250000
6090		-1367.187500
6091		-1367.187500
6092		-1406.250000
6093		-1406.250000
6094		-1406.250000
6095		-1406.250000
6096		-1406.250000
6097		-1406.250000
6098		-1406.250000
6099		-1406.250000
6100		-1406.250000
6101		-1406.250000
6102		-1406.250000
6103		-1406.250000
6104		-1406.250000
6105		-1406.250000
6106		-1406.250000
6107		-1406.250000
6108		-1406.250000
6109		-1406.250000
6110		-1406.250000
6111		-1406.250000
6112		-1406.250000
6113		-1406.250000
6114		-1406.250000
6115		-1445.312500
6116		-1406.250000
6117		-1406.250000
6118		-1445.312500
6119		-1445.312500
6120		-1445.312500
6121		-1445.312500
6122		-1445.312500
6123		-1445.312500
6124		-1445.312500
6125		-1445.312500
6126		-1445.312500
6127		-1445.312500
6128		-1445.312500
6129		-1445.312500
6130		-1445.312500
6131		-1445.312500
6132		-1445.312500
6133		-1445.312500
6134		-1445.312500
6135		-1445.312500
6136		-1445.312500
6137		-1445.312500
6138		-1445.312500
6139		-1445.312500
6140		-1445.312500
6141		-1445.312500
6142		-1445.312500
6143		-1445.312500
6144		-1445.312500
6145		-1445.312500
6146		-1445.312500
6147		-1445.312500
6148		-1445.312500
6149		-1445.312500
6150		-1445.312500
6151		-1445.312500
6152		-1445.312500
6153		-1445.312500
6154		-1445.312500
6155		-1484.375000
6156		-1484.375000
6157		-1484.375000
6158		-1484.375000
6159		-1484.375000
6160		-1484.375000
6161		-1484.375000
6162		-1484.375000
6163		-1484.375000
6164		-1484.375000
6165		-1484.375000
6166		-1484.375000
6167		-1484.375000
6168		-1484.375000
6169		-1484.375000
6170		-1484.375000
6171		-1484.375000
6172		-1484.375000
6173		-1484.375000
6174		-1484.375000
6175		-1484.375000
6176		-1484.375000
6177		-1484.375000
6178		-1484.375000
6179		-1484.375000
6180		-1484.375000
6181		-1484.375000
6182		-1484.375000
6183		-1484.375000
6184		-1484.375000
6185		-1484.375000
6186		-1484.375000
6187		-1484.375000
6188		-1484.375000
6189		-1484.375000
6190		-1484.375000
6191		-1484.375000
6192		-1484.375000
6193		-1484.375000
6194		-1523.437500
6195		-1523.437500
6196		-1523.437500
6197		-1523.437500
6198		-1523.437500
6199		-1523.437500
6200		-1523.437500
6201		-1523.437500
6202		-1523.437500
6203		-1523.437500
6204		-1523.437500
6205		-1523.437500
6206		-1523.437500
6207		-1523.437500
6208		-1523.437500
6209		-1523.437500
6210		-1523.437500
6211		-1523.437500
6212		-1523.437500
6213		-1523.437500
6214		-1523.437500
6215		-1523.437500
6216		-1523.437500
6217		-1523.437500
6218		-1523.437500
6219		-1523.437500
6220		-1523.437500
6221		-1523.437500
6222		-1523.437500
6223		-1523.437500
6224		-1523.437500
6225		-1523.437500
6226		-1523.437500
6227		-1523.437500
6228		-1523.437500
6229		-1523.437500
6230		-1523.437500
6231		-1523.437500
6232		-1523.437500
6233		-1523.437500
6234		-1523.437500
6235		-1523.437500
6236		-1523.437500
6237		-1523.437500
6238		-1562.500000
6239		-1562.500000
6240		-1523.437500
6241		-1523.437500
6242		-1523.437500
6243		-1562.500000
6244		-1562.500000
6245		-1523.437500
6246		-1562.500000
6247		-1562.500000
6248		-1562.500000
6249		-1523.437500
6250		-1562.500000
6251		-1562.500000
6252		-1562.500000
6253		-1562.500000
6254		-1562.500000
6255		-1562.500000
6256		-1562.500000
6257		-1562.500000
6258		-1562.500000
6259		-1562.500000
6260		-1562.500000
6261		-1562.500000
6262		-1562.500000
6263		-1562.500000
6264		-1562.500000
6265		-1562.500000
6266		-1562.500000
6267		-1562.500000
6268		-1562.500000
6269		-1562.500000
6270		-1562.500000
6271		-1562.500000
6272		-1562.500000
6273		-1562.500000
6274		-1562.500000
6275		-1562.500000
6276		-1562.500000
6277		-1562.500000
6278		-1562.500000
6279		-1562.500000
6280		-1562.500000
6281		-1562.500000
6282		-1562.500000
6283		-1562.500000
6284		-1562.500000
6285		-1562.500000
6286		-1562.500000
6287		-1562.500000
6288		-1562.500000
6289		-1562.500000
6290		-1562.500000
6291		-1562.500000
6292		-1562.500000
6293		-1562.500000
6294		-1562.500000
6295		-1562.500000
6296		-1562.500000
6297		-1562.500000
6298		-1562.500000
6299		-1562.500000
6300		-1601.562500
6301		-1562.500000
6302		-1601.562500
6303		-1601.562500
6304		-1601.562500
6305		-1601.562500
6306		-1601.562500
6307		-1562.500000
6308		-1562.500000
6309		-1562.500000
6310		-1562.500000
6311		-1562.500000
6312		-1562.500000
6313		-1562.500000
6314		-1562.500000
6315		-1562.500000
6316		-1562.500000
6317		-1601.562500
6318		-1601.562500
6319		-1601.562500
6320		-1601.562500
6321		-1601.562500
6322		-1601.562500
6323		-1601.562500
6324		-1601.562500
6325		-1601.562500
6326		-1601.562500
6327		-1601.562500
6328		-1601.562500
6329		-1601.562500
6330		-1562.500000
6331		-1601.562500
6332		-1562.500000
6333		-1601.562500
6334		-1601.562500
6335		-1601.562500
6336		-1601.562500
6337		-1601.562500
6338		-1601.562500
6339		-1601.562500
6340		-1601.562500
6341		-1601.562500
6342		-1601.562500
6343		-1601.562500
6344		-1601.562500
6345		-1601.562500
6346		-1601.562500
6347		-1601.562500
6348		-1601.562500
6349		-1601.562500
6350		-1601.562500
6351		-1601.562500
6352		-1601.562500
6353		-1601.562500
6354		-1601.562500
6355		-1601.562500
6356		-1601.562500
6357		-1601.562500
6358		-1601.562500
6359		-1601.562500
6360		-1601.562500
6361		-1601.562500
6362		-1601.562500
6363		-1601.562500
6364		-1601.562500
6365		-1601.562500
6366		-1601.562500
6367		-1601.562500
6368		-1601.562500
6369		-1601.562500
6370		-1601.562500
6371		-1601.562500
6372		-1601.562500
6373		-1601.562500
6374		-1601.562500
6375		-1601.562500
6376		-1601.562500
6377		-1601.562500
6378		-1601.562500
6379		-1601.562500
6380		-1601.562500
6381		-1601.562500
6382		-1601.562500
6383		-1601.562500
6384		-1601.562500
6385		-1601.562500
6386		-1601.562500
6387		-1601.562500
6388		-1601.562500
6389		-1601.562500
6390		-1601.562500
6391		-1601.562500
6392		-1601.562500
6393		-1601.562500
6394		-1601.562500
6395		-1601.562500
6396		-1601.562500
6397		-1601.562500
6398		-1601.562500
6399		-1601.562500
6400		-1601.562500
6401		-1601.562500
6402		-1601.562500
6403		-1601.562500
6404		-1601.562500
6405		-1601.562500
6406		-1601.562500
6407		-1601.562500
6408		-1601.562500
6409		-1601.562500
6410		-1601.562500
6411		-1601.562500
6412		-1601.562500
6413		-1601.562500
6414		-1640.625000
6415		-1601.562500
6416		-1601.562500
6417		-1601.562500
6418		-1601.562500
6419		-1601.562500
6420		-1601.562500
6421		-1601.562500
6422		-1601.562500
6423		-1601.562500
6424		-1601.562500
6425		-1601.562500
6426		-1601.562500
6427		-1601.562500
6428		-1601.562500
6429		-1601.562500
6430		-1601.562500
6431		-1601.562500
6432		-1601.562500
6433		-1601.562500
6434		-1601.562500
6435		-1601.562500
6436		-1601.562500
6437		-1601.562500
6438		-1601.562500
6439		-1601.562500
6440		-1601.562500
6441		-1601.562500
6442		-1601.562500
6443		-1601.562500
6444		-1601.562500
6445		-1601.562500
6446		-1601.562500
6447		-1601.562500
6448		-1601.562500
6449		-1601.562500
6450		-1601.562500
6451		-1601.562500
6452		-1601.562500
6453		-1601.562500
6454		-1601.562500
6455		-1601.562500
6456		-1601.562500
6457		-1601.562500
6458		-1601.562500
6459		-1601.562500
6460		-1601.562500
6461		-1640.625000
6462		-1601.562500
6463		-1601.562500
6464		-1601.562500
6465		-1601.562500
6466		-1601.562500
6467		-1640.625000
6468		-1640.625000
6469		-1601.562500
6470		-1601.562500
6471		-1601.562500
6472		-1601.562500
6473		-1601.562500
6474		-1601.562500
6475		-1601.562500
6476		-1601.562500
6477		-1601.562500
6478		-1601.562500
6479		-1601.562500
6480		-1640.625000
6481		-1640.625000
6482		-1640.625000
6483		-1601.562500
6484		-1640.625000
6485		-1640.625000
6486		-1640.625000
6487		-1640.625000
6488		-1640.625000
6489		-1601.562500
6490		-1601.562500
6491		-1601.562500
6492		-1601.562500
6493		-1601.562500
6494		-1601.562500
6495		-1601.562500
6496		-1601.562500
6497		-1601.562500
6498		-1640.625000
6499		-1640.625000
6500		-1601.562500
6501		-1640.625000
6502		-1640.625000
6503		-1640.625000
6504		-1640.625000
6505		-1640.625000
6506		-1601.562500
6507		-1601.562500
6508		-1601.562500
6509		-1601.562500
6510		-1601.562500
6511		-1601.562500
6512		-1601.562500
6513		-1601.562500
6514		-1601.562500
6515		-1601.562500
6516		-1601.562500
6517		-1640.625000
6518		-1601.562500
6519		-1601.562500
6520		-1640.625000
6521		-1640.625000
6522		-1640.625000
6523		-1640.625000
6524		-1601.562500
6525		-1601.562500
6526		-1640.625000
6527		-1640.625000
6528		-1601.562500
6529		-1601.562500
6530		-1601.562500
6531		-1601.562500
6532		-1601.562500
6533		-1601.562500
6534		-1601.562500
6535		-1601.562500
6536		-1601.562500
6537		-1601.562500
6538		-1640.625000
6539		-1640.625000
6540		-1640.625000
6541		-1640.625000
6542		-1601.562500
6543		-1601.562500
6544		-1601.562500
6545		-1601.562500
6546		-1601.562500
6547		-1601.562500
6548		-1601.562500
6549		-1601.562500
6550		-1601.562500
6551		-1601.562500
6552		-1601.562500
6553		-1601.562500
6554		-1601.562500
6555		-1601.562500
6556		-1601.562500
6557		-1601.562500
6558		-1601.562500
6559		-1640.625000
6560		-1601.562500
6561		-1601.562500
6562		-1601.562500
6563		-1601.562500
6564		-1601.562500
6565		-1601.562500
6566		-1601.562500
6567		-1601.562500
6568		-1601.562500
6569		-1601.562500
6570		-1601.562500
6571		-1601.562500
6572		-1601.562500
6573		-1601.562500
6574		-1601.562500
6575		-1601.562500
6576		-1601.562500
6577		-1601.562500
6578		-1601.562500
6579		-1601.562500
6580		-1601.562500
6581		-1601.562500
6582		-1601.562500
6583		-1601.562500
6584		-1601.562500
6585		-1601.562500
6586		-1601.562500
6587		-1601.562500
6588		-1601.562500
6589		-1601.562500
6590		-1601.562500
6591		-1601.562500
6592		-1601.562500
6593		-1601.562500
6594		-1601.562500
6595		-1601.562500
6596		-1601.562500
6597		-1601.562500
6598		-1601.562500
6599		-1601.562500
6600		-1601.562500
6601		-1601.562500
6602		-1601.562500
6603		-1601.562500
6604		-1601.562500
6605		-1601.562500
6606		-1601.562500
6607		-1601.562500
6608		-1601.562500
6609		-1601.562500
6610		-1601.562500
6611		-1601.562500
6612		-1601.562500
6613		-1601.562500
6614		-1601.562500
6615		-1601.562500
6616		-1601.562500
6617		-1601.562500
6618		-1601.562500
6619		-1601.562500
6620		-1562.500000
6621		-1601.562500
6622		-1601.562500
6623		-1562.500000
6624		-1562.500000
6625		-1601.562500
6626		-1601.562500
6627		-1562.500000
6628		-1562.500000
6629		-1562.500000
6630		-1562.500000
6631		-1601.562500
6632		-1562.500000
6633		-1562.500000
6634		-1601.562500
6635		-1562.500000
6636		-1562.500000
6637		-1562.500000
6638		-1562.500000
6639		-1562.500000
6640		-1562.500000
6641		-1562.500000
6642		-1562.500000
6643		-1562.500000
6644		-1562.500000
6645		-1562.500000
6646		-1562.500000
6647		-1562.500000
6648		-1562.500000
6649		-1562.500000
6650		-1562.500000
6651		-1562.500000
6652		-1562.500000
6653		-1562.500000
6654		-1562.500000
6655		-1562.500000
6656		-1562.500000
6657		-1562.500000
6658		-1562.500000
6659		-1562.500000
6660		-1562.500000
6661		-1562.500000
6662		-1562.500000
6663		-1562.500000
6664		-1562.500000
6665		-1562.500000
6666		-1562.500000
6667		-1562.500000
6668		-1562.500000
6669		-1562.500000
6670		-1562.500000
6671		-1562.500000
6672		-1562.500000
6673		-1562.500000
6674		-1562.500000
6675		-1562.500000
6676		-1562.500000
6677		-1562.500000
6678		-1562.500000
6679		-1562.500000
6680		-1562.500000
6681		-1562.500000
6682		-1562.500000
6683		-1562.500000
6684		-1562.500000
6685		-1562.500000
6686		-1562.500000
6687		-1562.500000
6688		-1523.437500
6689		-1523.437500
6690		-1523.437500
6691		-1523.437500
6692		-1523.437500
6693		-1523.437500
6694		-1523.437500
6695		-1523.437500
6696		-1523.437500
6697		-1523.437500
6698		-1523.437500
6699		-1523.437500
6700		-1523.437500
6701		-1523.437500
6702		-1523.437500
6703		-1523.437500
6704		-1523.437500
6705		-1523.437500
6706		-1523.437500
6707		-1523.437500
6708		-1523.437500
6709		-1523.437500
6710		-1523.437500
6711		-1523.437500
6712		-1523.437500
6713		-1523.437500
6714		-1523.437500
6715		-1523.437500
6716		-1523.437500
6717		-1523.437500
6718		-1523.437500
6719		-1523.437500
6720		-1523.437500
6721		-1523.437500
6722		-1523.437500
6723		-1523.437500
6724		-1523.437500
6725		-1523.437500
6726		-1523.437500
6727		-1484.375000
6728		-1484.375000
6729		-1484.375000
6730		-1484.375000
6731		-1484.375000
6732		-1484.375000
6733		-1484.375000
6734		-1484.375000
6735		-1484.375000
6736		-1484.375000
6737		-1523.437500
6738		-1484.375000
6739		-1484.375000
6740		-1484.375000
6741		-1484.375000
6742		-1484.375000
6743		-1484.375000
6744		-1484.375000
6745		-1484.375000
6746		-1484.375000
6747		-1484.375000
6748		-1484.375000
6749		-1484.375000
6750		-1484.375000
6751		-1484.375000
6752		-1484.375000
6753		-1484.375000
6754		-1484.375000
6755		-1484.375000
6756		-1484.375000
6757		-1484.375000
6758		-1484.375000
6759		-1484.375000
6760		-1484.375000
6761		-1484.375000
6762		-1484.375000
6763		-1445.312500
6764		-1445.312500
6765		-1445.312500
6766		-1445.312500
6767		-1445.312500
6768		-1445.312500
6769		-1445.312500
6770		-1445.312500
6771		-1445.312500
6772		-1445.312500
6773		-1445.312500
6774		-1445.312500
6775		-1445.312500
6776		-1484.375000
6777		-1445.312500
6778		-1445.312500
6779		-1445.312500
6780		-1445.312500
6781		-1445.312500
6782		-1445.312500
6783		-1445.312500
6784		-1445.312500
6785		-1445.312500
6786		-1445.312500
6787		-1445.312500
6788		-1445.312500
6789		-1445.312500
6790		-1445.312500
6791		-1445.312500
6792		-1445.312500
6793		-1445.312500
6794		-1445.312500
6795		-1445.312500
6796		-1445.312500
6797		-1445.312500
6798		-1445.312500
6799		-1445.312500
6800		-1445.312500
6801		-1406.250000
6802		-1406.250000
6803		-1406.250000
6804		-1406.250000
6805		-1406.250000
6806		-1406.250000
6807		-1406.250000
6808		-1406.250000
6809		-1406.250000
6810		-1406.250000
6811		-1406.250000
6812		-1406.250000
6813		-1406.250000
6814		-1406.250000
6815		-1406.250000
6816		-1406.250000
6817		-1406.250000
6818		-1406.250000
6819		-1406.250000
6820		-1406.250000
6821		-1406.250000
6822		-1406.250000
6823		-1406.250000
6824		-1406.250000
6825		-1367.187500
6826		-1406.250000
6827		-1406.250000
6828		-1367.187500
6829		-1367.187500
6830		-1367.187500
6831		-1367.187500
6832		-1406.250000
6833		-1367.187500
6834		-1367.187500
6835		-1367.187500
6836		-1367.187500
6837		-1367.187500
6838		-1367.187500
6839		-1367.187500
6840		-1367.187500
6841		-1367.187500
6842		-1367.187500
6843		-1367.187500
6844		-1367.187500
6845		-1367.187500
6846		-1367.187500
6847		-1367.187500
6848		-1367.187500
6849		-1367.187500
6850		-1367.187500
6851		-1367.187500
6852		-1328.125000
6853		-1367.187500
6854		-1328.125000
6855		-1367.187500
6856		-1328.125000
6857		-1328.125000
6858		-1328.125000
6859		-1328.125000
6860		-1328.125000
6861		-1328.125000
6862		-1328.125000
6863		-1328.125000
6864		-1328.125000
6865		-1328.125000
6866		-1328.125000
6867		-1328.125000
6868		-1328.125000
6869		-1328.125000
6870		-1328.125000
6871		-1328.125000
6872		-1328.125000
6873		-1328.125000
6874		-1328.125000
6875		-1328.125000
6876		-1328.125000
6877		-1328.125000
6878		-1328.125000
6879		-1328.125000
6880		-1328.125000
6881		-1328.125000
6882		-1328.125000
6883		-1328.125000
6884		-1328.125000
6885		-1289.062500
6886		-1289.062500
6887		-1289.062500
6888		-1289.062500
6889		-1289.062500
6890		-1289.062500
6891		-1289.062500
6892		-1289.062500
6893		-1289.062500
6894		-1289.062500
6895		-1289.062500
6896		-1289.062500
6897		-1289.062500
6898		-1289.062500
6899		-1289.062500
6900		-1289.062500
6901		-1289.062500
6902		-1289.062500
6903		-1289.062500
6904		-1289.062500
6905		-1250.000000
6906		-1250.000000
6907		-1250.000000
6908		-1250.000000
6909		-1250.000000
6910		-1250.000000
6911		-1250.000000
6912		-1250.000000
6913		-1250.000000
6914		-1250.000000
6915		-1250.000000
6916		-1250.000000
6917		-1250.000000
6918		-1250.000000
6919		-1250.000000
6920		-1250.000000
6921		-1250.000000
6922		-1250.000000
6923		-1250.000000
6924		-1250.000000
6925		-1250.000000
6926		-1210.937500
6927		-1210.937500
6928		-1210.937500
6929		-1210.937500
6930		-1210.937500
6931		-1210.937500
6932		-1210.937500
6933		-1210.937500
6934		-1210.937500
6935		-1210.937500
6936		-1210.937500
6937		-1210.937500
6938		-1210.937500
6939		-1210.937500
6940		-1210.937500
6941		-1210.937500
6942		-1210.937500
6943		-1210.937500
6944		-1210.937500
6945		-1210.937500
6946		-1171.875000
6947		-1171.875000
6948		-1171.875000
6949		-1171.875000
6950		-1171.875000
6951		-1171.875000
6952		-1171.875000
6953		-1171.875000
6954		-1171.875000
6955		-1171.875000
6956		-1171.875000
6957		-1171.875000
6958		-1171.875000
6959		-1171.875000
6960		-1171.875000
6961		-1171.875000
6962		-1171.875000
6963		-1171.875000
6964		-1171.875000
6965		-1132.812500
6966		-1171.875000
6967		-1132.812500
6968		-1132.812500
6969		-1132.812500
6970		-1132.812500
6971		-1132.812500
6972		-1132.812500
6973		-1132.812500
6974		-1132.812500
6975		-1132.812500
6976		-1132.812500
6977		-1132.812500
6978		-1132.812500
6979		-1132.812500
6980		-1132.812500
6981		-1132.812500
6982		-1132.812500
6983		-1132.812500
6984		-1132.812500
6985		-1132.812500
6986		-1132.812500
6987		-1132.812500
6988		-1093.750000
6989		-1093.750000
6990		-1093.750000
6991		-1132.812500
6992		-1093.750000
6993		-1093.750000
6994		-1093.750000
6995		-1093.750000
6996		-1093.750000
6997		-1093.750000
6998		-1093.750000
6999		-1093.750000
7000		-1093.750000
7001		-1093.750000
7002		-1093.750000
7003		-1093.750000
7004		-1093.750000
7005		-1093.750000
7006		-1093.750000
7007		-1093.750000
7008		-1093.750000
7009		-1054.687500
7010		-1093.750000
7011		-1093.750000
7012		-1093.750000
7013		-1054.687500
7014		-1054.687500
7015		-1054.687500
7016		-1054.687500
7017		-1054.687500
7018		-1054.687500
7019		-1054.687500
7020		-1054.687500
7021		-1054.687500
7022		-1054.687500
7023		-1054.687500
7024		-1054.687500
7025		-1054.687500
7026		-1054.687500
7027		-1054.687500
7028		-1054.687500
7029		-1054.687500
7030		-1054.687500
7031		-1054.687500
7032		-1054.687500
7033		-1015.625000
7034		-1015.625000
7035		-1015.625000
7036		-1015.625000
7037		-1015.625000
7038		-1015.625000
7039		-1015.625000
7040		-1015.625000
7041		-1015.625000
7042		-1015.625000
7043		-1015.625000
7044		-1015.625000
7045		-1015.625000
7046		-1015.625000
7047		-1015.625000
7048		-1015.625000
7049		-1015.625000
7050		-1015.625000
7051		-1015.625000
7052		-1015.625000
7053		-1015.625000
7054		-976.562500
7055		-976.562500
7056		-976.562500
7057		-976.562500
7058		-976.562500
7059		-976.562500
7060		-976.562500
7061		-976.562500
7062		-976.562500
7063		-976.562500
7064		-976.562500
7065		-976.562500
7066		-976.562500
7067		-976.562500
7068		-976.562500
7069		-976.562500
7070		-976.562500
7071		-976.562500
7072		-976.562500
7073		-937.500000
7074		-937.500000
7075		-937.500000
7076		-976.562500
7077		-976.562500
7078		-976.562500
7079		-976.562500
7080		-937.500000
7081		-937.500000
7082		-937.500000
7083		-937.500000
7084		-937.500000
7085		-937.500000
7086		-937.500000
7087		-937.500000
7088		-937.500000
7089		-937.500000
7090		-937.500000
7091		-937.500000
7092		-937.500000
7093		-937.500000
7094		-937.500000
7095		-937.500000
7096		-937.500000
7097		-937.500000
7098		-937.500000
7099		-937.500000
7100		-937.500000
7101		-937.500000
7102		-937.500000
7103		-937.500000
7104		-898.437500
7105		-898.437500
7106		-898.437500
7107		-898.437500
7108		-898.437500
7109		-898.437500
7110		-898.437500
7111		-898.437500
7112		-898.437500
7113		-898.437500
7114		-898.437500
7115		-898.437500
7116		-898.437500
7117		-898.437500
7118		-898.437500
7119		-898.437500
7120		-898.437500
7121		-898.437500
7122		-898.437500
7123		-898.437500
7124		-898.437500
7125		-898.437500
7126		-859.375000
7127		-859.375000
7128		-859.375000
7129		-859.375000
7130		-859.375000
7131		-859.375000
7132		-859.375000
7133		-859.375000
7134		-859.375000
7135		-859.375000
7136		-859.375000
7137		-859.375000
7138		-859.375000
7139		-859.375000
7140		-859.375000
7141		-859.375000
7142		-859.375000
7143		-859.375000
7144		-859.375000
7145		-859.375000
7146		-859.375000
7147		-859.375000
7148		-859.375000
7149		-859.375000
7150		-859.375000
7151		-820.312500
7152		-820.312500
7153		-859.375000
7154		-859.375000
7155		-820.312500
7156		-859.375000
7157		-820.312500
7158		-820.312500
7159		-820.312500
7160		-820.312500
7161		-820.312500
7162		-820.312500
7163		-820.312500
7164		-820.312500
7165		-820.312500
7166		-820.312500
7167		-820.312500
7168		-820.312500
7169		-820.312500
7170		-820.312500
7171		-820.312500
7172		-820.312500
7173		-820.312500
7174		-820.312500
7175		-820.312500
7176		-820.312500
7177		-820.312500
7178		-820.312500
7179		-820.312500
7180		-820.312500
7181		-820.312500
7182		-781.250000
7183		-820.312500
7184		-820.312500
7185		-781.250000
7186		-820.312500
7187		-781.250000
7188		-781.250000
7189		-781.250000
7190		-781.250000
7191		-781.250000
7192		-781.250000
7193		-781.250000
7194		-781.250000
7195		-781.250000
7196		-781.250000
7197		-781.250000
7198		-781.250000
7199		-781.250000
7200		-781.250000
7201		-781.250000
7202		-781.250000
7203		-781.250000
7204		-781.250000
7205		-781.250000
7206		-781.250000
7207		-781.250000
7208		-781.250000
7209		-781.250000
7210		-781.250000
7211		-781.250000
7212		-781.250000
7213		-781.250000
7214		-781.250000
7215		-781.250000
7216		-781.250000
7217		-781.250000
7218		-781.250000
7219		-781.250000
7220		-781.250000
7221		-781.250000
7222		-781.250000
7223		-781.250000
7224		-781.250000
7225		-781.250000
7226		-742.187500
7227		-781.250000
7228		-781.250000
7229		-742.187500
7230		-742.187500
7231		-742.187500
7232		-742.187500
7233		-742.187500
7234		-742.187500
7235		-742.187500
7236		-742.187500
7237		-742.187500
7238		-742.187500
7239		-742.187500
7240		-742.187500
7241		-742.187500
7242		-781.250000
7243		-742.187500
7244		-742.187500
7245		-742.187500
7246		-742.187500
7247		-742.187500
7248		-742.187500
7249		-742.187500
7250		-742.187500
7251		-742.187500
7252		-742.187500
7253		-742.187500
7254		-742.187500
7255		-742.187500
7256		-742.187500
7257		-742.187500
7258		-742.187500
7259		-742.187500
7260		-742.187500
7261		-742.187500
7262		-742.187500
7263		-742.187500
7264		-742.187500
7265		-742.187500
7266		-742.187500
7267		-742.187500
7268		-742.187500
7269		-742.187500
7270		-742.187500
7271		-742.187500
7272		-742.187500
7273		-742.187500
7274		-742.187500
7275		-742.187500
7276		-742.187500
7277		-742.187500
7278		-742.187500
7279		-742.187500
7280		-742.187500
7281		-742.187500
7282		-742.187500
7283		-742.187500
7284		-742.187500
7285		-742.187500
7286		-742.187500
7287		-742.187500
7288		-742.187500
7289		-742.187500
7290		-742.187500
7291		-742.187500
7292		-742.187500
7293		-742.187500
7294		-742.187500
7295		-742.187500
7296		-742.187500
7297		-742.187500
7298		-742.187500
7299		-742.187500
7300		-742.187500
7301		-742.187500
7302		-742.187500
7303		-742.187500
7304		-742.187500
7305		-742.187500
7306		-742.187500
7307		-742.187500
7308		-742.187500
7309		-742.187500
7310		-742.187500
7311		-742.187500
7312		-742.187500
7313		-742.187500
7314		-742.187500
7315		-742.187500
7316		-742.187500
7317		-742.187500
7318		-742.187500
7319		-742.187500
7320		-742.187500
7321		-742.187500
7322		-742.187500
7323		-742.187500
7324		-742.187500
7325		-742.187500
7326		-742.187500
7327		-742.187500
7328		-742.187500
7329		-742.187500
7330		-742.187500
7331		-742.187500
7332		-742.187500
7333		-742.187500
7334		-742.187500
7335		-742.187500
7336		-742.187500
7337		-742.187500
7338		-742.187500
7339		-742.187500
7340		-742.187500
7341		-742.187500
7342		-742.187500
7343		-742.187500
7344		-742.187500
7345		-742.187500
7346		-742.187500
7347		-742.187500
7348		-742.187500
7349		-742.187500
7350		-742.187500
7351		-781.250000
7352		-781.250000
7353		-781.250000
7354		-781.250000
7355		-781.250000
7356		-781.250000
7357		-781.250000
7358		-781.250000
7359		-781.250000
7360		-781.250000
7361		-781.250000
7362		-781.250000
7363		-781.250000
7364		-781.250000
7365		-781.250000
7366		-781.250000
7367		-781.250000
7368		-781.250000
7369		-781.250000
7370		-781.250000
7371		-781.250000
7372		-781.250000
7373		-781.250000
7374		-781.250000
7375		-781.250000
7376		-781.250000
7377		-781.250000
7378		-781.250000
7379		-781.250000
7380		-781.250000
7381		-781.250000
7382		-781.250000
7383		-781.250000
7384		-781.250000
7385		-781.250000
7386		-781.250000
7387		-781.250000
7388		-781.250000
7389		-781.250000
7390		-781.250000
7391		-820.312500
7392		-820.312500
7393		-820.312500
7394		-820.312500
7395		-781.250000
7396		-820.312500
7397		-820.312500
7398		-820.312500
7399		-820.312500
7400		-820.312500
7401		-820.312500
7402		-820.312500
7403		-820.312500
7404		-820.312500
7405		-820.312500
7406		-820.312500
7407		-820.312500
7408		-820.312500
7409		-820.312500
7410		-820.312500
7411		-820.312500
7412		-820.312500
7413		-820.312500
7414		-820.312500
7415		-820.312500
7416		-820.312500
7417		-820.312500
7418		-820.312500
7419		-820.312500
7420		-820.312500
7421		-859.375000
7422		-820.312500
7423		-820.312500
7424		-859.375000
7425		-859.375000
7426		-859.375000
7427		-859.375000
7428		-859.375000
7429		-859.375000
7430		-820.312500
7431		-859.375000
7432		-859.375000
7433		-859.375000
7434		-859.375000
7435		-859.375000
7436		-859.375000
7437		-859.375000
7438		-859.375000
7439		-859.375000
7440		-859.375000
7441		-859.375000
7442		-859.375000
7443		-859.375000
7444		-859.375000
7445		-859.375000
7446		-859.375000
7447		-859.375000
7448		-859.375000
7449		-859.375000
7450		-859.375000
7451		-859.375000
7452		-859.375000
7453		-859.375000
7454		-859.375000
7455		-859.375000
7456		-898.437500
7457		-898.437500
7458		-898.437500
7459		-898.437500
7460		-898.437500
7461		-898.437500
7462		-898.437500
7463		-898.437500
7464		-898.437500
7465		-898.437500
7466		-898.437500
7467		-898.437500
7468		-898.437500
7469		-898.437500
7470		-898.437500
7471		-898.437500
7472		-898.437500
7473		-898.437500
7474		-898.437500
7475		-898.437500
7476		-898.437500
7477		-937.500000
7478		-937.500000
7479		-937.500000
7480		-937.500000
7481		-937.500000
7482		-937.500000
7483		-937.500000
7484		-937.500000
7485		-937.500000
7486		-937.500000
7487		-937.500000
7488		-937.500000
7489		-937.500000
7490		-937.500000
7491		-937.500000
7492		-937.500000
7493		-937.500000
7494		-937.500000
7495		-937.500000
7496		-937.500000
7497		-937.500000
7498		-976.562500
7499		-976.562500
7500		-976.562500
7501		-976.562500
7502		-976.562500
7503		-976.562500
7504		-976.562500
7505		-976.562500
7506		-976.562500
7507		-976.562500
7508		-976.562500
7509		-976.562500
7510		-976.562500
7511		-976.562500
7512		-976.562500
7513		-976.562500
7514		-976.562500
7515		-976.562500
7516		-976.562500
7517		-976.562500
7518		-976.562500
7519		-976.562500
7520		-976.562500
7521		-976.562500
7522		-976.562500
7523		-1015.625000
7524		-1015.625000
7525		-976.562500
7526		-976.562500
7527		-1015.625000
7528		-1015.625000
7529		-1015.625000
7530		-1015.625000
7531		-1015.625000
7532		-1015.625000
7533		-1015.625000
7534		-1015.625000
7535		-1015.625000
7536		-1015.625000
7537		-1015.625000
7538		-1015.625000
7539		-1015.625000
7540		-1015.625000
7541		-1015.625000
7542		-1015.625000
7543		-1015.625000
7544		-1015.625000
7545		-1015.625000
7546		-1015.625000
7547		-1015.625000
7548		-1054.687500
7549		-1054.687500
7550		-1054.687500
7551		-1054.687500
7552		-1054.687500
7553		-1054.687500
7554		-1054.687500
7555		-1054.687500
7556		-1054.687500
7557		-1054.687500
7558		-1054.687500
7559		-1054.687500
7560		-1054.687500
7561		-1054.687500
7562		-1054.687500
7563		-1054.687500
7564		-1054.687500
7565		-1054.687500
7566		-1093.750000
7567		-1093.750000
7568		-1093.750000
7569		-1093.750000
7570		-1093.750000
7571		-1093.750000
7572		-1093.750000
7573		-1132.812500
7574		-1093.750000
7575		-1093.750000
7576		-1093.750000
7577		-1093.750000
7578		-1132.812500
7579		-1093.750000
7580		-1093.750000
7581		-1093.750000
7582		-1093.750000
7583		-1093.750000
7584		-1093.750000
7585		-1093.750000
7586		-1132.812500
7587		-1132.812500
7588		-1093.750000
7589		-1132.812500
7590		-1132.812500
7591		-1132.812500
7592		-1132.812500
7593		-1132.812500
7594		-1132.812500
7595		-1132.812500
7596		-1132.812500
7597		-1132.812500
7598		-1132.812500
7599		-1132.812500
7600		-1132.812500
7601		-1132.812500
7602		-1132.812500
7603		-1132.812500
7604		-1132.812500
7605		-1132.812500
7606		-1132.812500
7607		-1132.812500
7608		-1171.875000
7609		-1171.875000
7610		-1171.875000
7611		-1171.875000
7612		-1171.875000
7613		-1171.875000
7614		-1171.875000
7615		-1171.875000
7616		-1171.875000
7617		-1171.875000
7618		-1171.875000
7619		-1171.875000
7620		-1171.875000
7621		-1171.875000
7622		-1171.875000
7623		-1171.875000
7624		-1171.875000
7625		-1171.875000
7626		-1171.875000
7627		-1171.875000
7628		-1171.875000
7629		-1171.875000
7630		-1210.937500
7631		-1171.875000
7632		-1210.937500
7633		-1210.937500
7634		-1210.937500
7635		-1210.937500
7636		-1210.937500
7637		-1210.937500
7638		-1210.937500
7639		-1210.937500
7640		-1210.937500
7641		-1210.937500
7642		-1210.937500
7643		-1210.937500
7644		-1210.937500
7645		-1210.937500
7646		-1210.937500
7647		-1210.937500
7648		-1210.937500
7649		-1210.937500
7650		-1210.937500
7651		-1210.937500
7652		-1210.937500
7653		-1210.937500
7654		-1210.937500
7655		-1250.000000
7656		-1250.000000
7657		-1250.000000
7658		-1250.000000
7659		-1250.000000
7660		-1250.000000
7661		-1250.000000
7662		-1250.000000
7663		-1250.000000
7664		-1250.000000
7665		-1250.000000
7666		-1250.000000
7667		-1250.000000
7668		-1250.000000
7669		-1250.000000
7670		-1250.000000
7671		-1250.000000
7672		-1250.000000
7673		-1250.000000
7674		-1250.000000
7675		-1289.062500
7676		-1250.000000
7677		-1289.062500
7678		-1289.062500
7679		-1289.062500
7680		-1289.062500
7681		-1289.062500
7682		-1289.062500
7683		-1289.062500
7684		-1289.062500
7685		-1289.062500
7686		-1289.062500
7687		-1289.062500
7688		-1289.062500
7689		-1289.062500
7690		-1289.062500
7691		-1289.062500
7692		-1289.062500
7693		-1289.062500
7694		-1289.062500
7695		-1328.125000
7696		-1289.062500
7697		-1328.125000
7698		-1289.062500
7699		-1289.062500
7700		-1328.125000
7701		-1328.125000
7702		-1328.125000
7703		-1289.062500
7704		-1328.125000
7705		-1289.062500
7706		-1328.125000
7707		-1328.125000
7708		-1328.125000
7709		-1328.125000
7710		-1328.125000
7711		-1328.125000
7712		-1328.125000
7713		-1328.125000
7714		-1328.125000
7715		-1328.125000
7716		-1328.125000
7717		-1328.125000
7718		-1328.125000
7719		-1328.125000
7720		-1328.125000
7721		-1328.125000
7722		-1328.125000
7723		-1328.125000
7724		-1328.125000
7725		-1328.125000
7726		-1328.125000
7727		-1328.125000
7728		-1328.125000
7729		-1328.125000
7730		-1328.125000
7731		-1367.187500
7732		-1367.187500
7733		-1367.187500
7734		-1367.187500
7735		-1367.187500
7736		-1367.187500
7737		-1367.187500
7738		-1367.187500
7739		-1367.187500
7740		-1367.187500
7741		-1367.187500
7742		-1367.187500
7743		-1367.187500
7744		-1367.187500
7745		-1367.187500
7746		-1367.187500
7747		-1367.187500
7748		-1367.187500
7749		-1367.187500
7750		-1367.187500
7751		-1367.187500
7752		-1367.187500
7753		-1367.187500
7754		-1367.187500
7755		-1367.187500
7756		-1367.187500
7757		-1406.250000
7758		-1406.250000
7759		-1406.250000
7760		-1406.250000
7761		-1406.250000
7762		-1406.250000
7763		-1406.250000
7764		-1406.250000
7765		-1406.250000
7766		-1367.187500
7767		-1406.250000
7768		-1406.250000
7769		-1406.250000
7770		-1406.250000
7771		-1406.250000
7772		-1406.250000
7773		-1406.250000
7774		-1406.250000
7775		-1406.250000
7776		-1406.250000
7777		-1406.250000
7778		-1406.250000
7779		-1406.250000
7780		-1406.250000
7781		-1406.250000
7782		-1406.250000
7783		-1406.250000
7784		-1406.250000
7785		-1406.250000
7786		-1406.250000
7787		-1406.250000
7788		-1406.250000
7789		-1445.312500
7790		-1406.250000
7791		-1445.312500
7792		-1406.250000
7793		-1445.312500
7794		-1445.312500
7795		-1445.312500
7796		-1445.312500
7797		-1445.312500
7798		-1445.312500
7799		-1445.312500
7800		-1445.312500
7801		-1445.312500
7802		-1445.312500
7803		-1445.312500
7804		-1445.312500
7805		-1445.312500
7806		-1445.312500
7807		-1445.312500
7808		-1445.312500
7809		-1445.312500
7810		-1445.312500
7811		-1445.312500
7812		-1445.312500
7813		-1445.312500
7814		-1445.312500
7815		-1445.312500
7816		-1445.312500
7817		-1445.312500
7818		-1445.312500
7819		-1445.312500
7820		-1484.375000
7821		-1484.375000
7822		-1484.375000
7823		-1484.375000
7824		-1484.375000
7825		-1484.375000
7826		-1484.375000
7827		-1445.312500
7828		-1484.375000
7829		-1445.312500
7830		-1445.312500
7831		-1484.375000
7832		-1484.375000
7833		-1484.375000
7834		-1484.375000
7835		-1484.375000
7836		-1484.375000
7837		-1484.375000
7838		-1484.375000
7839		-1484.375000
7840		-1484.375000
7841		-1484.375000
7842		-1484.375000
7843		-1484.375000
7844		-1484.375000
7845		-1523.437500
7846		-1484.375000
7847		-1484.375000
7848		-1484.375000
7849		-1484.375000
7850		-1484.375000
7851		-1484.375000
7852		-1484.375000
7853		-1484.375000
7854		-1484.375000
7855		-1484.375000
7856		-1484.375000
7857		-1484.375000
7858		-1484.375000
7859		-1523.437500
7860		-1523.437500
7861		-1484.375000
7862		-1523.437500
7863		-1523.437500
7864		-1523.437500
7865		-1484.375000
7866		-1484.375000
7867		-1484.375000
7868		-1484.375000
7869		-1484.375000
7870		-1523.437500
7871		-1484.375000
7872		-1523.437500
7873		-1523.437500
7874		-1523.437500
7875		-1523.437500
7876		-1523.437500
7877		-1523.437500
7878		-1523.437500
7879		-1523.437500
7880		-1523.437500
7881		-1523.437500
7882		-1523.437500
7883		-1523.437500
7884		-1523.437500
7885		-1523.437500
7886		-1523.437500
7887		-1523.437500
7888		-1523.437500
7889		-1523.437500
7890		-1523.437500
7891		-1523.437500
7892		-1523.437500
7893		-1523.437500
7894		-1523.437500
7895		-1523.437500
7896		-1523.437500
7897		-1562.500000
7898		-1523.437500
7899		-1523.437500
7900		-1523.437500
7901		-1523.437500
7902		-1523.437500
7903		-1523.437500
7904		-1523.437500
7905		-1523.437500
7906		-1523.437500
7907		-1523.437500
7908		-1523.437500
7909		-1523.437500
7910		-1523.437500
7911		-1523.437500
7912		-1523.437500
7913		-1562.500000
7914		-1562.500000
7915		-1562.500000
7916		-1562.500000
7917		-1562.500000
7918		-1523.437500
7919		-1562.500000
7920		-1562.500000
7921		-1562.500000
7922		-1562.500000
7923		-1562.500000
7924		-1523.437500
7925		-1523.437500
7926		-1562.500000
7927		-1523.437500
7928		-1562.500000
7929		-1562.500000
7930		-1562.500000
7931		-1562.500000
7932		-1562.500000
7933		-1562.500000
7934		-1562.500000
7935		-1562.500000
7936		-1562.500000
7937		-1562.500000
7938		-1562.500000
7939		-1562.500000
7940		-1562.500000
7941		-1562.500000
7942		-1562.500000
7943		-1562.500000
7944		-1562.500000
7945		-1562.500000
7946		-1562.500000
7947		-1562.500000
7948		-1562.500000
7949		-1562.500000
7950		-1562.500000
7951		-1562.500000
7952		-1562.500000
7953		-1562.500000
7954		-1562.500000
7955		-1562.500000
7956		-1562.500000
7957		-1562.500000
7958		-1562.500000
7959		-1562.500000
7960		-1562.500000
7961		-1562.500000
7962		-1562.500000
7963		-1562.500000
7964		-1562.500000
7965		-1562.500000
7966		-1562.500000
7967		-1562.500000
7968		-1562.500000
7969		-1562.500000
7970		-1562.500000
7971		-1562.500000
7972		-1562.500000
7973		-1562.500000
7974		-1562.500000
7975		-1601.562500
7976		-1562.500000
7977		-1562.500000
7978		-1562.500000
7979		-1601.562500
7980		-1562.500000
7981		-1562.500000
7982		-1601.562500
7983		-1601.562500
7984		-1562.500000
7985		-1601.562500
7986		-1562.500000
7987		-1562.500000
7988		-1601.562500
7989		-1562.500000
7990		-1562.500000
7991		-1562.500000
7992		-1562.500000
7993		-1562.500000
7994		-1601.562500
7995		-1601.562500
7996		-1562.500000
7997		-1601.562500
7998		-1562.500000
7999		-1562.500000
8000		-1601.562500
8001		-1601.562500
8002		-1601.562500
8003		-1601.562500
8004		-1601.562500
8005		-1601.562500
8006		-1601.562500
8007		-1601.562500
8008		-1601.562500
8009		-1601.562500
8010		-1601.562500
8011		-1601.562500
8012		-1601.562500
8013		-1601.562500
8014		-1601.562500
8015		-1601.562500
8016		-1601.562500
8017		-1601.562500
8018		-1601.562500
8019		-1601.562500
8020		-1601.562500
8021		-1601.562500
8022		-1601.562500
8023		-1601.562500
8024		-1601.562500
8025		-1601.562500
8026		-1601.562500
8027		-1601.562500
8028		-1601.562500
8029		-1601.562500
8030		-1601.562500
8031		-1601.562500
8032		-1601.562500
8033		-1601.562500
8034		-1601.562500
8035		-1601.562500
8036		-1601.562500
8037		-1601.562500
8038		-1601.562500
8039		-1601.562500
8040		-1601.562500
8041		-1601.562500
8042		-1601.562500
8043		-1601.562500
8044		-1601.562500
8045		-1601.562500
8046		-1601.562500
8047		-1601.562500
8048		-1601.562500
8049		-1601.562500
8050		-1601.562500
8051		-1601.562500
8052		-1601.562500
8053		-1601.562500
8054		-1601.562500
8055		-1601.562500
8056		-1601.562500
8057		-1601.562500
8058		-1601.562500
8059		-1601.562500
8060		-1601.562500
8061		-1601.562500
8062		-1601.562500
8063		-1601.562500
8064		-1601.562500
8065		-1601.562500
8066		-1601.562500
8067		-1601.562500
8068		-1601.562500
8069		-1601.562500
8070		-1601.562500
8071		-1601.562500
8072		-1601.562500
8073		-1601.562500
8074		-1601.562500
8075		-1601.562500
8076		-1601.562500
8077		-1601.562500
8078		-1601.562500
8079		-1601.562500
8080		-1601.562500
8081		-1601.562500
8082		-1601.562500
8083		-1601.562500
8084		-1601.562500
8085		-1601.562500
8086		-1601.562500
8087		-1601.562500
8088		-1601.562500
8089		-1601.562500
8090		-1601.562500
8091		-1601.562500
8092		-1601.562500
8093		-1601.562500
8094		-1601.562500
8095		-1601.562500
8096		-1601.562500
8097		-1601.562500
8098		-1601.562500
8099		-1601.562500
8100		-1601.562500
8101		-1601.562500
8102		-1601.562500
8103		-1601.562500
8104		-1601.562500
8105		-1601.562500
8106		-1601.562500
8107		-1601.562500
8108		-1601.562500
8109		-1601.562500
8110		-1601.562500
8111		-1601.562500
8112		-1601.562500
8113		-1601.562500
8114		-1601.562500
8115		-1601.562500
8116		-1601.562500
8117		-1601.562500
8118		-1601.562500
8119		-1601.562500
8120		-1601.562500
8121		-1601.562500
8122		-1601.562500
8123		-1601.562500
8124		-1601.562500
8125		-1601.562500
8126		-1601.562500
8127		-1601.562500
8128		-1601.562500
8129		-1601.562500
8130		-1601.562500
8131		-1601.562500
8132		-1601.562500
8133		-1601.562500
8134		-1601.562500
8135		-1601.562500
8136		-1601.562500
8137		-1601.562500
8138		-1601.562500
8139		-1601.562500
8140		-1601.562500
8141		-1601.562500
8142		-1601.562500
8143		-1601.562500
8144		-1601.562500
8145		-1601.562500
8146		-1601.562500
8147		-1601.562500
8148		-1640.625000
8149		-1601.562500
8150		-1601.562500
8151		-1601.562500
8152		-1601.562500
8153		-1601.562500
8154		-1601.562500
8155		-1601.562500
8156		-1601.562500
8157		-1601.562500
8158		-1601.562500
8159		-1601.562500
8160		-1601.562500
8161		-1601.562500
8162		-1601.562500
8163		-1601.562500
8164		-1601.562500
8165		-1601.562500
8166		-1601.562500
8167		-1601.562500
8168		-1601.562500
8169		-1601.562500
8170		-1601.562500
8171		-1601.562500
8172		-1601.562500
8173		-1601.562500
8174		-1601.562500
8175		-1601.562500
8176		-1601.562500
8177		-1601.562500
8178		-1601.562500
8179		-1640.625000
8180		-1601.562500
8181		-1601.562500
8182		-1601.562500
8183		-1601.562500
8184		-1601.562500
8185		-1601.562500
8186		-1601.562500
8187		-1601.562500
8188		-1601.562500
8189		-1601.562500
8190		-1601.562500
8191		-1601.562500
8192		-1601.562500
8193		-1601.562500
8194		-1601.562500
8195		-1601.562500
8196		-1601.562500
8197		-1601.562500
8198		-1601.562500
8199		-1601.562500
8200		-1601.562500
8201		-1601.562500
8202		-1601.562500
8203		-1601.562500
8204		-1601.562500
8205		-1601.562500
8206		-1601.562500
8207		-1601.562500
8208		-1601.562500
8209		-1601.562500
8210		-1601.562500
8211		-1601.562500
8212		-1601.562500
8213		-1601.562500
8214		-1601.562500
8215		-1601.562500
8216		-1601.562500
8217		-1601.562500
8218		-1601.562500
8219		-1601.562500
8220		-1601.562500
8221		-1601.562500
8222		-1601.562500
8223		-1601.562500
8224		-1601.562500
8225		-1601.562500
8226		-1601.562500
8227		-1562.500000
8228		-1562.500000
8229		-1562.500000
8230		-1562.500000
8231		-1562.500000
8232		-1562.500000
8233		-1562.500000
8234		-1601.562500
8235		-1601.562500
8236		-1601.562500
8237		-1601.562500
8238		-1601.562500
8239		-1562.500000
8240		-1601.562500
8241		-1601.562500
8242		-1601.562500
8243		-1562.500000
8244		-1601.562500
8245		-1562.500000
8246		-1562.500000
8247		-1562.500000
8248		-1562.500000
8249		-1562.500000
8250		-1562.500000
8251		-1562.500000
8252		-1562.500000
8253		-1562.500000
8254		-1562.500000
8255		-1562.500000
8256		-1562.500000
8257		-1562.500000
8258		-1601.562500
8259		-1601.562500
8260		-1562.500000
8261		-1562.500000
8262		-1562.500000
8263		-1562.500000
8264		-1562.500000
8265		-1562.500000
8266		-1562.500000
8267		-1562.500000
8268		-1562.500000
8269		-1562.500000
8270		-1562.500000
8271		-1562.500000
8272		-1562.500000
8273		-1562.500000
8274		-1562.500000
8275		-1562.500000
8276		-1562.500000
8277		-1562.500000
8278		-1562.500000
8279		-1562.500000
8280		-1562.500000
8281		-1562.500000
8282		-1562.500000
8283		-1562.500000
8284		-1562.500000
8285		-1562.500000
8286		-1562.500000
8287		-1562.500000
8288		-1562.500000
8289		-1562.500000
8290		-1562.500000
8291		-1562.500000
8292		-1562.500000
8293		-1562.500000
8294		-1562.500000
8295		-1562.500000
8296		-1562.500000
8297		-1562.500000
8298		-1562.500000
8299		-1562.500000
8300		-1562.500000
8301		-1562.500000
8302		-1562.500000
8303		-1562.500000
8304		-1523.437500
8305		-1523.437500
8306		-1523.437500
8307		-1523.437500
8308		-1523.437500
8309		-1562.500000
8310		-1562.500000
8311		-1523.437500
8312		-1523.437500
8313		-1562.500000
8314		-1523.437500
8315		-1523.437500
8316		-1523.437500
8317		-1523.437500
8318		-1523.437500
8319		-1523.437500
8320		-1523.437500
8321		-1523.437500
8322		-1523.437500
8323		-1523.437500
8324		-1523.437500
8325		-1523.437500
8326		-1523.437500
8327		-1523.437500
8328		-1523.437500
8329		-1523.437500
8330		-1523.437500
8331		-1523.437500
8332		-1523.437500
8333		-1523.437500
8334		-1523.437500
8335		-1523.437500
8336		-1523.437500
8337		-1523.437500
8338		-1523.437500
8339		-1523.437500
8340		-1523.437500
8341		-1523.437500
8342		-1523.437500
8343		-1523.437500
8344		-1523.437500
8345		-1523.437500
8346		-1523.437500
8347		-1523.437500
8348		-1523.437500
8349		-1523.437500
8350		-1523.437500
8351		-1523.437500
8352		-1523.437500
8353		-1523.437500
8354		-1523.437500
8355		-1523.437500
8356		-1523.437500
8357		-1484.375000
8358		-1484.375000
8359		-1484.375000
8360		-1484.375000
8361		-1484.375000
8362		-1484.375000
8363		-1523.437500
8364		-1484.375000
8365		-1484.375000
8366		-1484.375000
8367		-1484.375000
8368		-1484.375000
8369		-1484.375000
8370		-1484.375000
8371		-1484.375000
8372		-1484.375000
8373		-1484.375000
8374		-1484.375000
8375		-1484.375000
8376		-1484.375000
8377		-1484.375000
8378		-1484.375000
8379		-1484.375000
8380		-1484.375000
8381		-1484.375000
8382		-1484.375000
8383		-1484.375000
8384		-1484.375000
8385		-1484.375000
8386		-1484.375000
8387		-1484.375000
8388		-1484.375000
8389		-1484.375000
8390		-1484.375000
8391		-1484.375000
8392		-1484.375000
8393		-1484.375000
8394		-1484.375000
8395		-1484.375000
8396		-1484.375000
8397		-1445.312500
8398		-1484.375000
8399		-1484.375000
8400		-1484.375000
8401		-1484.375000
8402		-1445.312500
8403		-1445.312500
8404		-1445.312500
8405		-1445.312500
8406		-1445.312500
8407		-1445.312500
8408		-1445.312500
8409		-1445.312500
8410		-1445.312500
8411		-1445.312500
8412		-1445.312500
8413		-1445.312500
8414		-1445.312500
8415		-1445.312500
8416		-1445.312500
8417		-1445.312500
8418		-1445.312500
8419		-1445.312500
8420		-1445.312500
8421		-1445.312500
8422		-1445.312500
8423		-1445.312500
8424		-1445.312500
8425		-1445.312500
8426		-1445.312500
8427		-1445.312500
8428		-1445.312500
8429		-1406.250000
8430		-1406.250000
8431		-1406.250000
8432		-1406.250000
8433		-1406.250000
8434		-1445.312500
8435		-1406.250000
8436		-1445.312500
8437		-1445.312500
8438		-1406.250000
8439		-1445.312500
8440		-1445.312500
8441		-1406.250000
8442		-1406.250000
8443		-1406.250000
8444		-1406.250000
8445		-1406.250000
8446		-1406.250000
8447		-1406.250000
8448		-1406.250000
8449		-1406.250000
8450		-1406.250000
8451		-1406.250000
8452		-1406.250000
8453		-1406.250000
8454		-1406.250000
8455		-1406.250000
8456		-1406.250000
8457		-1406.250000
8458		-1406.250000
8459		-1406.250000
8460		-1406.250000
8461		-1406.250000
8462		-1406.250000
8463		-1367.187500
8464		-1367.187500
8465		-1367.187500
8466		-1367.187500
8467		-1367.187500
8468		-1367.187500
8469		-1367.187500
8470		-1367.187500
8471		-1367.187500
8472		-1406.250000
8473		-1367.187500
8474		-1367.187500
8475		-1367.187500
8476		-1367.187500
8477		-1367.187500
8478		-1367.187500
8479		-1367.187500
8480		-1367.187500
8481		-1367.187500
8482		-1367.187500
8483		-1367.187500
8484		-1367.187500
8485		-1367.187500
8486		-1367.187500
8487		-1367.187500
8488		-1367.187500
8489		-1367.187500
8490		-1367.187500
8491		-1367.187500
8492		-1367.187500
8493		-1367.187500
8494		-1367.187500
8495		-1367.187500
8496		-1367.187500
8497		-1367.187500
8498		-1328.125000
8499		-1328.125000
8500		-1328.125000
8501		-1328.125000
8502		-1328.125000
8503		-1328.125000
8504		-1328.125000
8505		-1328.125000
8506		-1328.125000
8507		-1328.125000
8508		-1328.125000
8509		-1328.125000
8510		-1328.125000
8511		-1328.125000
8512		-1328.125000
8513		-1328.125000
8514		-1328.125000
8515		-1328.125000
8516		-1328.125000
8517		-1328.125000
8518		-1328.125000
8519		-1328.125000
8520		-1328.125000
8521		-1328.125000
8522		-1289.062500
8523		-1289.062500
8524		-1289.062500
8525		-1289.062500
8526		-1289.062500
8527		-1289.062500
8528		-1289.062500
8529		-1289.062500
8530		-1289.062500
8531		-1289.062500
8532		-1289.062500
8533		-1289.062500
8534		-1289.062500
8535		-1289.062500
8536		-1289.062500
8537		-1289.062500
8538		-1289.062500
8539		-1289.062500
8540		-1289.062500
8541		-1289.062500
8542		-1289.062500
8543		-1289.062500
8544		-1289.062500
8545		-1289.062500
8546		-1289.062500
8547		-1250.000000
8548		-1250.000000
8549		-1250.000000
8550		-1250.000000
8551		-1250.000000
8552		-1250.000000
8553		-1250.000000
8554		-1250.000000
8555		-1250.000000
8556		-1250.000000
8557		-1250.000000
8558		-1250.000000
8559		-1250.000000
8560		-1250.000000
8561		-1250.000000
8562		-1250.000000
8563		-1250.000000
8564		-1250.000000
8565		-1250.000000
8566		-1250.000000
8567		-1250.000000
8568		-1250.000000
8569		-1210.937500
8570		-1210.937500
8571		-1210.937500
8572		-1210.937500
8573		-1210.937500
8574		-1210.937500
8575		-1210.937500
8576		-1210.937500
8577		-1210.937500
8578		-1210.937500
8579		-1210.937500
8580		-1210.937500
8581		-1210.937500
8582		-1210.937500
8583		-1210.937500
8584		-1210.937500
8585		-1210.937500
8586		-1210.937500
8587		-1210.937500
8588		-1171.875000
8589		-1171.875000
8590		-1171.875000
8591		-1171.875000
8592		-1171.875000
8593		-1171.875000
8594		-1171.875000
8595		-1171.875000
8596		-1171.875000
8597		-1171.875000
8598		-1171.875000
8599		-1171.875000
8600		-1171.875000
8601		-1171.875000
8602		-1171.875000
8603		-1171.875000
8604		-1171.875000
8605		-1171.875000
8606		-1171.875000
8607		-1171.875000
8608		-1171.875000
8609		-1171.875000
8610		-1132.812500
8611		-1132.812500
8612		-1132.812500
8613		-1171.875000
8614		-1132.812500
8615		-1132.812500
8616		-1132.812500
8617		-1132.812500
8618		-1132.812500
8619		-1132.812500
8620		-1132.812500
8621		-1132.812500
8622		-1132.812500
8623		-1132.812500
8624		-1132.812500
8625		-1132.812500
8626		-1132.812500
8627		-1132.812500
8628		-1132.812500
8629		-1132.812500
8630		-1093.750000
8631		-1093.750000
8632		-1093.750000
8633		-1132.812500
8634		-1093.750000
8635		-1132.812500
8636		-1093.750000
8637		-1093.750000
8638		-1093.750000
8639		-1093.750000
8640		-1093.750000
8641		-1093.750000
8642		-1093.750000
8643		-1093.750000
8644		-1093.750000
8645		-1093.750000
8646		-1093.750000
8647		-1093.750000
8648		-1093.750000
8649		-1093.750000
8650		-1054.687500
8651		-1093.750000
8652		-1093.750000
8653		-1093.750000
8654		-1093.750000
8655		-1093.750000
8656		-1054.687500
8657		-1093.750000
8658		-1093.750000
8659		-1054.687500
8660		-1054.687500
8661		-1054.687500
8662		-1054.687500
8663		-1054.687500
8664		-1054.687500
8665		-1054.687500
8666		-1054.687500
8667		-1054.687500
8668		-1054.687500
8669		-1054.687500
8670		-1054.687500
8671		-1054.687500
8672		-1054.687500
8673		-1054.687500
8674		-1054.687500
8675		-1054.687500
8676		-1054.687500
8677		-1054.687500
8678		-1054.687500
8679		-1015.625000
8680		-1015.625000
8681		-1015.625000
8682		-1015.625000
8683		-1015.625000
8684		-1015.625000
8685		-1015.625000
8686		-1015.625000
8687		-1015.625000
8688		-1015.625000
8689		-1015.625000
8690		-1015.625000
8691		-1015.625000
8692		-1015.625000
8693		-1015.625000
8694		-976.562500
8695		-1015.625000
8696		-1015.625000
8697		-1015.625000
8698		-1015.625000
8699		-1015.625000
8700		-976.562500
8701		-1015.625000
8702		-976.562500
8703		-976.562500
8704		-976.562500
8705		-976.562500
8706		-976.562500
8707		-976.562500
8708		-976.562500
8709		-976.562500
8710		-976.562500
8711		-976.562500
8712		-976.562500
8713		-976.562500
8714		-976.562500
8715		-976.562500
8716		-976.562500
8717		-976.562500
8718		-976.562500
8719		-976.562500
8720		-976.562500
8721		-937.500000
8722		-937.500000
8723		-937.500000
8724		-937.500000
8725		-937.500000
8726		-937.500000
8727		-937.500000
8728		-937.500000
8729		-937.500000
8730		-937.500000
8731		-937.500000
8732		-937.500000
8733		-937.500000
8734		-937.500000
8735		-937.500000
8736		-937.500000
8737		-937.500000
8738		-937.500000
8739		-937.500000
8740		-937.500000
8741		-937.500000
8742		-937.500000
8743		-937.500000
8744		-898.437500
8745		-898.437500
8746		-898.437500
8747		-898.437500
8748		-898.437500
8749		-898.437500
8750		-898.437500
8751		-898.437500
8752		-898.437500
8753		-898.437500
8754		-898.437500
8755		-898.437500
8756		-898.437500
8757		-898.437500
8758		-898.437500
8759		-898.437500
8760		-898.437500
8761		-898.437500
8762		-898.437500
8763		-898.437500
8764		-898.437500
8765		-898.437500
8766		-898.437500
8767		-859.375000
8768		-859.375000
8769		-859.375000
8770		-859.375000
8771		-859.375000
8772		-859.375000
8773		-859.375000
8774		-859.375000
8775		-859.375000
8776		-859.375000
8777		-859.375000
8778		-859.375000
8779		-859.375000
8780		-859.375000
8781		-859.375000
8782		-859.375000
8783		-859.375000
8784		-859.375000
8785		-859.375000
8786		-859.375000
8787		-859.375000
8788		-820.312500
8789		-859.375000
8790		-859.375000
8791		-820.312500
8792		-820.312500
8793		-820.312500
8794		-820.312500
8795		-820.312500
8796		-820.312500
8797		-859.375000
8798		-820.312500
8799		-859.375000
8800		-820.312500
8801		-820.312500
8802		-820.312500
8803		-820.312500
8804		-820.312500
8805		-820.312500
8806		-820.312500
8807		-820.312500
8808		-820.312500
8809		-820.312500
8810		-820.312500
8811		-820.312500
8812		-820.312500
8813		-820.312500
8814		-820.312500
8815		-820.312500
8816		-820.312500
8817		-820.312500
8818		-820.312500
8819		-820.312500
8820		-820.312500
8821		-820.312500
8822		-820.312500
8823		-820.312500
8824		-781.250000
8825		-781.250000
8826		-781.250000
8827		-781.250000
8828		-781.250000
8829		-781.250000
8830		-781.250000
8831		-781.250000
8832		-781.250000
8833		-781.250000
8834		-781.250000
8835		-781.250000
8836		-781.250000
8837		-781.250000
8838		-781.250000
8839		-781.250000
8840		-781.250000
8841		-781.250000
8842		-781.250000
8843		-781.250000
8844		-781.250000
8845		-781.250000
8846		-781.250000
8847		-781.250000
8848		-781.250000
8849		-781.250000
8850		-781.250000
8851		-781.250000
8852		-781.250000
8853		-781.250000
8854		-781.250000
8855		-781.250000
8856		-781.250000
8857		-781.250000
8858		-781.250000
8859		-781.250000
8860		-781.250000
8861		-742.187500
8862		-781.250000
8863		-781.250000
8864		-742.187500
8865		-742.187500
8866		-742.187500
8867		-742.187500
8868		-742.187500
8869		-742.187500
8870		-781.250000
8871		-742.187500
8872		-742.187500
8873		-742.187500
8874		-781.250000
8875		-742.187500
8876		-742.187500
8877		-742.187500
8878		-742.187500
8879		-742.187500
8880		-742.187500
8881		-742.187500
8882		-742.187500
8883		-742.187500
8884		-742.187500
8885		-742.187500
8886		-742.187500
8887		-742.187500
8888		-742.187500
8889		-742.187500
8890		-742.187500
8891		-742.187500
8892		-742.187500
8893		-742.187500
8894		-742.187500
8895		-742.187500
8896		-742.187500
8897		-742.187500
8898		-742.187500
8899		-742.187500
8900		-742.187500
8901		-742.187500
8902		-742.187500
8903		-742.187500
8904		-742.187500
8905		-742.187500
8906		-742.187500
8907		-742.187500
8908		-742.187500
8909		-742.187500
8910		-742.187500
8911		-742.187500
8912		-742.187500
8913		-742.187500
8914		-742.187500
8915		-742.187500
8916		-742.187500
8917		-742.187500
8918		-742.187500
8919		-742.187500
8920		-742.187500
8921		-742.187500
8922		-742.187500
8923		-742.187500
8924		-742.187500
8925		-742.187500
8926		-742.187500
8927		-742.187500
8928		-742.187500
8929		-742.187500
8930		-742.187500
8931		-742.187500
8932		-742.187500
8933		-742.187500
8934		-742.187500
8935		-742.187500
8936		-742.187500
8937		-742.187500
8938		-742.187500
8939		-742.187500
8940		-742.187500
8941		-742.187500
8942		-742.187500
8943		-742.187500
8944		-742.187500
8945		-742.187500
8946		-742.187500
8947		-742.187500
8948		-742.187500
8949		-742.187500
8950		-742.187500
8951		-742.187500
8952		-742.187500
8953		-742.187500
8954		-742.187500
8955		-742.187500
8956		-742.187500
8957		-742.187500
8958		-742.187500
8959		-742.187500
8960		-742.187500
8961		-742.187500
8962		-742.187500
8963		-742.187500
8964		-742.187500
8965		-742.187500
8966		-742.187500
8967		-742.187500
8968		-742.187500
8969		-742.187500
8970		-742.187500
8971		-742.187500
8972		-742.187500
8973		-742.187500
8974		-742.187500
8975		-742.187500
8976		-742.187500
8977		-742.187500
8978		-742.187500
8979		-742.187500
8980		-742.187500
8981		-742.187500
8982		-742.187500
8983		-742.187500
8984		-742.187500
8985		-742.187500
8986		-742.187500
8987		-742.187500
8988		-742.187500
8989		-742.187500
8990		-742.187500
8991		-742.187500
8992		-742.187500
8993		-742.187500
8994		-742.187500
8995		-742.187500
8996		-742.187500
8997		-781.250000
8998		-742.187500
8999		-742.187500
9000		-742.187500
9001		-781.250000
9002		-742.187500
9003		-781.250000
9004		-742.187500
9005		-742.187500
9006		-781.250000
9007		-742.187500
9008		-742.187500
9009		-742.187500
9010		-742.187500
9011		-742.187500
9012		-781.250000
9013		-781.250000
9014		-781.250000
9015		-781.250000
9016		-781.250000
9017		-781.250000
9018		-781.250000
9019		-781.250000
9020		-781.250000
9021		-781.250000
9022		-781.250000
9023		-781.250000
9024		-781.250000
9025		-781.250000
9026		-781.250000
9027		-781.250000
9028		-781.250000
9029		-781.250000
9030		-781.250000
9031		-781.250000
9032		-781.250000
9033		-781.250000
9034		-781.250000
9035		-781.250000
9036		-781.250000
9037		-820.312500
9038		-781.250000
9039		-781.250000
9040		-820.312500
9041		-781.250000
9042		-781.250000
9043		-781.250000
9044		-781.250000
9045		-781.250000
9046		-781.250000
9047		-781.250000
9048		-781.250000
9049		-820.312500
9050		-820.312500
9051		-820.312500
9052		-820.312500
9053		-820.312500
9054		-820.312500
9055		-820.312500
9056		-820.312500
9057		-820.312500
9058		-820.312500
9059		-820.312500
9060		-820.312500
9061		-820.312500
9062		-820.312500
9063		-820.312500
9064		-820.312500
9065		-820.312500
9066		-820.312500
9067		-820.312500
9068		-820.312500
9069		-820.312500
9070		-820.312500
9071		-820.312500
9072		-820.312500
9073		-859.375000
9074		-859.375000
9075		-859.375000
9076		-859.375000
9077		-859.375000
9078		-859.375000
9079		-859.375000
9080		-859.375000
9081		-859.375000
9082		-859.375000
9083		-859.375000
9084		-859.375000
9085		-859.375000
9086		-859.375000
9087		-859.375000
9088		-859.375000
9089		-859.375000
9090		-859.375000
9091		-859.375000
9092		-859.375000
9093		-859.375000
9094		-859.375000
9095		-859.375000
9096		-859.375000
9097		-859.375000
9098		-859.375000
9099		-859.375000
9100		-859.375000
9101		-859.375000
9102		-859.375000
9103		-859.375000
9104		-859.375000
9105		-859.375000
9106		-898.437500
9107		-898.437500
9108		-859.375000
9109		-898.437500
9110		-898.437500
9111		-898.437500
9112		-898.437500
9113		-898.437500
9114		-898.437500
9115		-898.437500
9116		-898.437500
9117		-898.437500
9118		-898.437500
9119		-898.437500
9120		-898.437500
9121		-898.437500
9122		-898.437500
9123		-898.437500
9124		-898.437500
9125		-898.437500
9126		-898.437500
9127		-898.437500
9128		-898.437500
9129		-937.500000
9130		-937.500000
9131		-898.437500
9132		-937.500000
9133		-937.500000
9134		-937.500000
9135		-937.500000
9136		-937.500000
9137		-937.500000
9138		-937.500000
9139		-937.500000
9140		-937.500000
9141		-937.500000
9142		-937.500000
9143		-937.500000
9144		-937.500000
9145		-937.500000
9146		-937.500000
9147		-937.500000
9148		-937.500000
9149		-937.500000
9150		-937.500000
9151		-937.500000
9152		-937.500000
9153		-976.562500
9154		-976.562500
9155		-976.562500
9156		-976.562500
9157		-976.562500
9158		-976.562500
9159		-976.562500
9160		-976.562500
9161		-976.562500
9162		-976.562500
9163		-976.562500
9164		-976.562500
9165		-976.562500
9166		-976.562500
9167		-976.562500
9168		-976.562500
9169		-976.562500
9170		-976.562500
9171		-976.562500
9172		-976.562500
9173		-976.562500
9174		-1015.625000
9175		-1015.625000
9176		-1015.625000
9177		-1015.625000
9178		-1015.625000
9179		-1015.625000
9180		-1015.625000
9181		-1015.625000
9182		-1015.625000
9183		-1015.625000
9184		-1015.625000
9185		-1015.625000
9186		-1015.625000
9187		-1015.625000
9188		-1015.625000
9189		-1015.625000
9190		-1054.687500
9191		-1015.625000
9192		-1015.625000
9193		-1015.625000
9194		-1054.687500
9195		-1054.687500
9196		-1054.687500
9197		-1054.687500
9198		-1054.687500
9199		-1054.687500
9200		-1054.687500
9201		-1054.687500
9202		-1054.687500
9203		-1054.687500
9204		-1054.687500
9205		-1054.687500
9206		-1054.687500
9207		-1054.687500
9208		-1054.687500
9209		-1054.687500
9210		-1054.687500
9211		-1054.687500
9212		-1054.687500
9213		-1093.750000
9214		-1093.750000
9215		-1093.750000
9216		-1093.750000
9217		-1093.750000
9218		-1093.750000
9219		-1093.750000
9220		-1093.750000
9221		-1093.750000
9222		-1093.750000
9223		-1093.750000
9224		-1093.750000
9225		-1093.750000
9226		-1093.750000
9227		-1093.750000
9228		-1093.750000
9229		-1093.750000
9230		-1093.750000
9231		-1093.750000
9232		-1093.750000
9233		-1093.750000
9234		-1093.750000
9235		-1093.750000
9236		-1132.812500
9237		-1132.812500
9238		-1132.812500
9239		-1132.812500
9240		-1132.812500
9241		-1132.812500
9242		-1132.812500
9243		-1132.812500
9244		-1132.812500
9245		-1132.812500
9246		-1132.812500
9247		-1132.812500
9248		-1132.812500
9249		-1132.812500
9250		-1132.812500
9251		-1132.812500
9252		-1132.812500
9253		-1132.812500
9254		-1171.875000
9255		-1132.812500
9256		-1132.812500
9257		-1171.875000
9258		-1171.875000
9259		-1171.875000
9260		-1171.875000
9261		-1171.875000
9262		-1171.875000
9263		-1171.875000
9264		-1171.875000
9265		-1171.875000
9266		-1171.875000
9267		-1171.875000
9268		-1171.875000
9269		-1171.875000
9270		-1171.875000
9271		-1171.875000
9272		-1171.875000
9273		-1171.875000
9274		-1171.875000
9275		-1210.937500
9276		-1171.875000
9277		-1171.875000
9278		-1210.937500
9279		-1171.875000
9280		-1210.937500
9281		-1210.937500
9282		-1171.875000
9283		-1210.937500
9284		-1210.937500
9285		-1210.937500
9286		-1210.937500
9287		-1210.937500
9288		-1210.937500
9289		-1210.937500
9290		-1210.937500
9291		-1210.937500
9292		-1210.937500
9293		-1210.937500
9294		-1210.937500
9295		-1210.937500
9296		-1210.937500
9297		-1210.937500
9298		-1210.937500
9299		-1210.937500
9300		-1210.937500
9301		-1210.937500
9302		-1250.000000
9303		-1250.000000
9304		-1250.000000
9305		-1250.000000
9306		-1250.000000
9307		-1250.000000
9308		-1250.000000
9309		-1250.000000
9310		-1250.000000
9311		-1250.000000
9312		-1250.000000
9313		-1250.000000
9314		-1250.000000
9315		-1250.000000
9316		-1250.000000
9317		-1250.000000
9318		-1250.000000
9319		-1250.000000
9320		-1250.000000
9321		-1250.000000
9322		-1250.000000
9323		-1250.000000
9324		-1250.000000
9325		-1250.000000
9326		-1289.062500
9327		-1250.000000
9328		-1289.062500
9329		-1250.000000
9330		-1289.062500
9331		-1289.062500
9332		-1289.062500
9333		-1289.062500
9334		-1289.062500
9335		-1289.062500
9336		-1289.062500
9337		-1289.062500
9338		-1289.062500
9339		-1289.062500
9340		-1289.062500
9341		-1289.062500
9342		-1289.062500
9343		-1289.062500
9344		-1328.125000
9345		-1289.062500
9346		-1289.062500
9347		-1289.062500
9348		-1289.062500
9349		-1289.062500
9350		-1289.062500
9351		-1289.062500
9352		-1328.125000
9353		-1289.062500
9354		-1289.062500
9355		-1328.125000
9356		-1328.125000
9357		-1328.125000
9358		-1328.125000
9359		-1328.125000
9360		-1328.125000
9361		-1328.125000
9362		-1328.125000
9363		-1328.125000
9364		-1328.125000
9365		-1328.125000
9366		-1328.125000
9367		-1328.125000
9368		-1328.125000
9369		-1328.125000
9370		-1328.125000
9371		-1328.125000
9372		-1328.125000
9373		-1328.125000
9374		-1328.125000
9375		-1328.125000
9376		-1328.125000
9377		-1367.187500
9378		-1367.187500
9379		-1367.187500
9380		-1367.187500
9381		-1367.187500
9382		-1367.187500
9383		-1367.187500
9384		-1367.187500
9385		-1367.187500
9386		-1367.187500
9387		-1367.187500
9388		-1367.187500
9389		-1367.187500
9390		-1367.187500
9391		-1367.187500
9392		-1367.187500
9393		-1367.187500
9394		-1367.187500
9395		-1367.187500
9396		-1367.187500
9397		-1367.187500
9398		-1367.187500
9399		-1367.187500
9400		-1367.187500
9401		-1367.187500
9402		-1367.187500
9403		-1367.187500
9404		-1367.187500
9405		-1367.187500
9406		-1367.187500
9407		-1367.187500
9408		-1367.187500
9409		-1367.187500
9410		-1367.187500
9411		-1406.250000
9412		-1406.250000
9413		-1406.250000
9414		-1406.250000
9415		-1406.250000
9416		-1406.250000
9417		-1406.250000
9418		-1406.250000
9419		-1406.250000
9420		-1406.250000
9421		-1406.250000
9422		-1406.250000
9423		-1406.250000
9424		-1406.250000
9425		-1406.250000
9426		-1406.250000
9427		-1406.250000
9428		-1406.250000
9429		-1406.250000
9430		-1406.250000
9431		-1406.250000
9432		-1406.250000
9433		-1406.250000
9434		-1406.250000
9435		-1406.250000
9436		-1406.250000
9437		-1406.250000
9438		-1406.250000
9439		-1406.250000
9440		-1406.250000
9441		-1406.250000
9442		-1406.250000
9443		-1406.250000
9444		-1406.250000
9445		-1406.250000
9446		-1406.250000
9447		-1445.312500
9448		-1445.312500
9449		-1445.312500
9450		-1445.312500
9451		-1445.312500
9452		-1445.312500
9453		-1445.312500
9454		-1445.312500
9455		-1445.312500
9456		-1445.312500
9457		-1445.312500
9458		-1445.312500
9459		-1445.312500
9460		-1445.312500
9461		-1445.312500
9462		-1445.312500
9463		-1445.312500
9464		-1445.312500
9465		-1445.312500
9466		-1445.312500
9467		-1445.312500
9468		-1445.312500
9469		-1445.312500
9470		-1445.312500
9471		-1445.312500
9472		-1445.312500
9473		-1445.312500
9474		-1445.312500
9475		-1445.312500
9476		-1445.312500
9477		-1445.312500
9478		-1445.312500
9479		-1445.312500
9480		-1445.312500
9481		-1445.312500
9482		-1445.312500
9483		-1445.312500
9484		-1445.312500
9485		-1445.312500
9486		-1484.375000
9487		-1484.375000
9488		-1484.375000
9489		-1484.375000
9490		-1484.375000
9491		-1484.375000
9492		-1445.312500
9493		-1484.375000
9494		-1484.375000
9495		-1484.375000
9496		-1484.375000
9497		-1484.375000
9498		-1484.375000
9499		-1484.375000
9500		-1484.375000
9501		-1484.375000
9502		-1484.375000
9503		-1484.375000
9504		-1484.375000
9505		-1484.375000
9506		-1484.375000
9507		-1484.375000
9508		-1484.375000
9509		-1484.375000
9510		-1484.375000
9511		-1484.375000
9512		-1484.375000
9513		-1484.375000
9514		-1484.375000
9515		-1484.375000
9516		-1484.375000
9517		-1484.375000
9518		-1484.375000
9519		-1484.375000
9520		-1484.375000
9521		-1484.375000
9522		-1523.437500
9523		-1484.375000
9524		-1523.437500
9525		-1484.375000
9526		-1484.375000
9527		-1484.375000
9528		-1484.375000
9529		-1484.375000
9530		-1523.437500
9531		-1484.375000
9532		-1484.375000
9533		-1523.437500
9534		-1523.437500
9535		-1523.437500
9536		-1523.437500
9537		-1523.437500
9538		-1523.437500
9539		-1523.437500
9540		-1523.437500
9541		-1523.437500
9542		-1523.437500
9543		-1523.437500
9544		-1523.437500
9545		-1523.437500
9546		-1523.437500
9547		-1523.437500
9548		-1523.437500
9549		-1523.437500
9550		-1523.437500
9551		-1523.437500
9552		-1523.437500
9553		-1523.437500
9554		-1523.437500
9555		-1523.437500
9556		-1523.437500
9557		-1523.437500
9558		-1523.437500
9559		-1523.437500
9560		-1523.437500
9561		-1523.437500
9562		-1523.437500
9563		-1523.437500
9564		-1523.437500
9565		-1523.437500
9566		-1523.437500
9567		-1523.437500
9568		-1523.437500
9569		-1523.437500
9570		-1523.437500
9571		-1523.437500
9572		-1523.437500
9573		-1523.437500
9574		-1523.437500
9575		-1562.500000
9576		-1562.500000
9577		-1562.500000
9578		-1523.437500
9579		-1523.437500
9580		-1562.500000
9581		-1523.437500
9582		-1523.437500
9583		-1523.437500
9584		-1523.437500
9585		-1523.437500
9586		-1523.437500
9587		-1523.437500
9588		-1523.437500
9589		-1523.437500
9590		-1523.437500
9591		-1523.437500
9592		-1562.500000
9593		-1562.500000
9594		-1562.500000
9595		-1562.500000
9596		-1562.500000
9597		-1562.500000
9598		-1562.500000
9599		-1562.500000
9600		-1562.500000
9601		-1562.500000
9602		-1562.500000
9603		-1562.500000
9604		-1562.500000
9605		-1562.500000
9606		-1562.500000
9607		-1562.500000
9608		-1562.500000
9609		-1523.437500
9610		-1562.500000
9611		-1562.500000
9612		-1562.500000
9613		-1562.500000
9614		-1562.500000
9615		-1562.500000
9616		-1562.500000
9617		-1562.500000
9618		-1562.500000
9619		-1562.500000
9620		-1562.500000
9621		-1562.500000
9622		-1562.500000
9623		-1562.500000
9624		-1562.500000
9625		-1562.500000
9626		-1562.500000
9627		-1562.500000
9628		-1562.500000
9629		-1562.500000
9630		-1562.500000
9631		-1562.500000
9632		-1562.500000
9633		-1562.500000
9634		-1562.500000
9635		-1562.500000
9636		-1562.500000
9637		-1562.500000
9638		-1562.500000
9639		-1562.500000
9640		-1562.500000
9641		-1562.500000
9642		-1562.500000
9643		-1562.500000
9644		-1562.500000
9645		-1562.500000
9646		-1562.500000
9647		-1562.500000
9648		-1562.500000
9649		-1562.500000
9650		-1523.437500
9651		-1562.500000
9652		-1562.500000
9653		-1562.500000
9654		-1562.500000
9655		-1562.500000
9656		-1562.500000
9657		-1562.500000
9658		-1562.500000
9659		-1562.500000
9660		-1562.500000
9661		-1562.500000
9662		-1562.500000
9663		-1562.500000
9664		-1562.500000
9665		-1562.500000
9666		-1562.500000
9667		-1562.500000
9668		-1562.500000
9669		-1562.500000
9670		-1562.500000
9671		-1562.500000
9672		-1562.500000
9673		-1562.500000
9674		-1562.500000
9675		-1562.500000
9676		-1562.500000
9677		-1562.500000
9678		-1562.500000
9679		-1562.500000
9680		-1562.500000
9681		-1562.500000
9682		-1562.500000
9683		-1562.500000
9684		-1562.500000
9685		-1562.500000
9686		-1562.500000
9687		-1562.500000
9688		-1562.500000
9689		-1562.500000
9690		-1562.500000
9691		-1562.500000
9692		-1601.562500
9693		-1562.500000
9694		-1562.500000
9695		-1562.500000
9696		-1562.500000
9697		-1562.500000
9698		-1562.500000
9699		-1562.500000
9700		-1601.562500
9701		-1562.500000
9702		-1562.500000
9703		-1601.562500
9704		-1562.500000
9705		-1562.500000
9706		-1562.500000
9707		-1562.500000
9708		-1601.562500
9709		-1601.562500
9710		-1562.500000
9711		-1562.500000
9712		-1562.500000
9713		-1562.500000
9714		-1562.500000
9715		-1601.562500
9716		-1601.562500
9717		-1601.562500
9718		-1601.562500
9719		-1601.562500
9720		-1601.562500
9721		-1601.562500
9722		-1562.500000
9723		-1601.562500
9724		-1601.562500
9725		-1562.500000
9726		-1601.562500
9727		-1601.562500
9728		-1562.500000
9729		-1562.500000
9730		-1562.500000
9731		-1562.500000
9732		-1562.500000
9733		-1601.562500
9734		-1562.500000
9735		-1601.562500
9736		-1601.562500
9737		-1562.500000
9738		-1601.562500
9739		-1601.562500
9740		-1601.562500
9741		-1601.562500
9742		-1601.562500
9743		-1601.562500
9744		-1601.562500
9745		-1601.562500
9746		-1562.500000
9747		-1562.500000
9748		-1562.500000
9749		-1562.500000
9750		-1562.500000
9751		-1601.562500
9752		-1562.500000
9753		-1601.562500
9754		-1601.562500
9755		-1601.562500
9756		-1601.562500
9757		-1601.562500
9758		-1601.562500
9759		-1601.562500
9760		-1601.562500
9761		-1601.562500
9762		-1601.562500
9763		-1601.562500
9764		-1601.562500
9765		-1562.500000
9766		-1562.500000
9767		-1562.500000
9768		-1562.500000
9769		-1562.500000
9770		-1562.500000
9771		-1601.562500
9772		-1562.500000
9773		-1601.562500
9774		-1601.562500
9775		-1601.562500
9776		-1601.562500
9777		-1601.562500
9778		-1601.562500
9779		-1601.562500
9780		-1601.562500
9781		-1601.562500
9782		-1601.562500
9783		-1601.562500
9784		-1601.562500
9785		-1562.500000
9786		-1601.562500
9787		-1562.500000
9788		-1562.500000
9789		-1562.500000
9790		-1562.500000
9791		-1601.562500
9792		-1601.562500
9793		-1601.562500
9794		-1601.562500
9795		-1601.562500
9796		-1601.562500
9797		-1601.562500
9798		-1601.562500
9799		-1601.562500
9800		-1601.562500
9801		-1601.562500
9802		-1601.562500
9803		-1601.562500
9804		-1601.562500
9805		-1562.500000
9806		-1562.500000
9807		-1562.500000
9808		-1562.500000
9809		-1601.562500
9810		-1601.562500
9811		-1601.562500
9812		-1601.562500
9813		-1601.562500
9814		-1601.562500
9815		-1601.562500
9816		-1601.562500
9817		-1601.562500
9818		-1601.562500
9819		-1601.562500
9820		-1601.562500
9821		-1601.562500
9822		-1601.562500
9823		-1562.500000
9824		-1562.500000
9825		-1562.500000
9826		-1562.500000
9827		-1562.500000
9828		-1562.500000
9829		-1601.562500
9830		-1562.500000
9831		-1601.562500
9832		-1562.500000
9833		-1601.562500
9834		-1601.562500
9835		-1601.562500
9836		-1601.562500
9837		-1562.500000
9838		-1562.500000
9839		-1562.500000
9840		-1562.500000
9841		-1562.500000
9842		-1562.500000
9843		-1562.500000
9844		-1562.500000
9845		-1562.500000
9846		-1562.500000
9847		-1562.500000
9848		-1562.500000
9849		-1562.500000
9850		-1562.500000
9851		-1562.500000
9852		-1562.500000
9853		-1601.562500
9854		-1562.500000
9855		-1562.500000
9856		-1562.500000
9857		-1562.500000
9858		-1562.500000
9859		-1562.500000
9860		-1562.500000
9861		-1562.500000
9862		-1562.500000
9863		-1562.500000
9864		-1562.500000
9865		-1562.500000
9866		-1562.500000
9867		-1562.500000
9868		-1562.500000
9869		-1562.500000
9870		-1562.500000
9871		-1562.500000
9872		-1562.500000
9873		-1562.500000
9874		-1562.500000
9875		-1562.500000
9876		-1562.500000
9877		-1562.500000
9878		-1562.500000
9879		-1562.500000
9880		-1562.500000
9881		-1562.500000
9882		-1562.500000
9883		-1562.500000
9884		-1562.500000
9885		-1562.500000
9886		-1562.500000
9887		-1562.500000
9888		-1562.500000
9889		-1562.500000
9890		-1562.500000
9891		-1562.500000
9892		-1562.500000
9893		-1562.500000
9894		-1562.500000
9895		-1562.500000
9896		-1562.500000
9897		-1562.500000
9898		-1562.500000
9899		-1562.500000
9900		-1562.500000
9901		-1562.500000
9902		-1562.500000
9903		-1562.500000
9904		-1562.500000
9905		-1562.500000
9906		-1562.500000
9907		-1562.500000
9908		-1562.500000
9909		-1562.500000
9910		-1562.500000
9911		-1562.500000
9912		-1562.500000
9913		-1562.500000
9914		-1562.500000
9915		-1562.500000
9916		-1562.500000
9917		-1562.500000
9918		-1562.500000
9919		-1562.500000
9920		-1562.500000
9921		-1562.500000
9922		-1562.500000
9923		-1562.500000
9924		-1523.437500
9925		-1562.500000
9926		-1523.437500
9927		-1523.437500
9928		-1523.437500
9929		-1523.437500
9930		-1523.437500
9931		-1523.437500
9932		-1523.437500
9933		-1523.437500
9934		-1523.437500
9935		-1562.500000
9936		-1523.437500
9937		-1523.437500
9938		-1562.500000
9939		-1523.437500
9940		-1523.437500
9941		-1523.437500
9942		-1523.437500
9943		-1523.437500
9944		-1523.437500
9945		-1523.437500
9946		-1523.437500
9947		-1523.437500
9948		-1523.437500
9949		-1523.437500
9950		-1523.437500
9951		-1523.437500
9952		-1523.437500
9953		-1523.437500
9954		-1523.437500
9955		-1523.437500
9956		-1523.437500
9957		-1523.437500
9958		-1523.437500
9959		-1523.437500
9960		-1523.437500
9961		-1523.437500
9962		-1523.437500
9963		-1523.437500
9964		-1523.437500
9965		-1523.437500
9966		-1523.437500
9967		-1523.437500
9968		-1523.437500
9969		-1523.437500
9970		-1484.375000
9971		-1523.437500
9972		-1523.437500
9973		-1523.437500
9974		-1523.437500
9975		-1523.437500
9976		-1523.437500
9977		-1523.437500
9978		-1523.437500
9979		-1523.437500
9980		-1523.437500
9981		-1523.437500
9982		-1523.437500
9983		-1484.375000
9984		-1484.375000
9985		-1484.375000
9986		-1484.375000
9987		-1484.375000
9988		-1484.375000
9989		-1484.375000
9990		-1484.375000
9991		-1484.375000
9992		-1484.375000
9993		-1484.375000
9994		-1523.437500
9995		-1523.437500
9996		-1484.375000
9997		-1484.375000
9998		-1484.375000
9999		-1484.375000
10000		-1484.375000
