Channel              :		CH1
Frequency            :		  ?
Period               :		  ?
PK-PK                :		1.328V
Probe attenuation    :		1X
Voltage per ADC value:		2.441406mV
Time interval        :		1000.00000us

index		CH1_Voltage(mV)
1		-1835.937500
2		-1835.937500
3		-1835.937500
4		-1835.937500
5		-1835.937500
6		-1835.937500
7		-1835.937500
8		-1835.937500
9		-1835.937500
10		-1835.937500
11		-1835.937500
12		-1835.937500
13		-1835.937500
14		-1835.937500
15		-1835.937500
16		-1835.937500
17		-1835.937500
18		-1835.937500
19		-1835.937500
20		-1796.875000
21		-1835.937500
22		-1835.937500
23		-1835.937500
24		-1835.937500
25		-1835.937500
26		-1835.937500
27		-1835.937500
28		-1835.937500
29		-1835.937500
30		-1796.875000
31		-1835.937500
32		-1875.000000
33		-1796.875000
34		-1796.875000
35		-1796.875000
36		-1796.875000
37		-1796.875000
38		-1796.875000
39		-1796.875000
40		-1796.875000
41		-1796.875000
42		-1796.875000
43		-1796.875000
44		-1796.875000
45		-1796.875000
46		-1796.875000
47		-1835.937500
48		-1796.875000
49		-1796.875000
50		-1796.875000
51		-1796.875000
52		-1796.875000
53		-1796.875000
54		-1796.875000
55		-1796.875000
56		-1796.875000
57		-1796.875000
58		-1796.875000
59		-1757.812500
60		-1796.875000
61		-1796.875000
62		-1796.875000
63		-1796.875000
64		-1796.875000
65		-1796.875000
66		-1796.875000
67		-1757.812500
68		-1796.875000
69		-1796.875000
70		-1796.875000
71		-1757.812500
72		-1757.812500
73		-1757.812500
74		-1757.812500
75		-1757.812500
76		-1757.812500
77		-1757.812500
78		-1757.812500
79		-1757.812500
80		-1757.812500
81		-1757.812500
82		-1757.812500
83		-1757.812500
84		-1757.812500
85		-1757.812500
86		-1757.812500
87		-1757.812500
88		-1757.812500
89		-1757.812500
90		-1757.812500
91		-1757.812500
92		-1757.812500
93		-1757.812500
94		-1757.812500
95		-1718.750000
96		-1718.750000
97		-1718.750000
98		-1718.750000
99		-1757.812500
100		-1718.750000
101		-1718.750000
102		-1718.750000
103		-1718.750000
104		-1718.750000
105		-1718.750000
106		-1718.750000
107		-1718.750000
108		-1718.750000
109		-1718.750000
110		-1718.750000
111		-1718.750000
112		-1718.750000
113		-1718.750000
114		-1718.750000
115		-1718.750000
116		-1718.750000
117		-1718.750000
118		-1718.750000
119		-1718.750000
120		-1718.750000
121		-1718.750000
122		-1718.750000
123		-1718.750000
124		-1679.687500
125		-1718.750000
126		-1718.750000
127		-1718.750000
128		-1718.750000
129		-1679.687500
130		-1679.687500
131		-1679.687500
132		-1679.687500
133		-1679.687500
134		-1679.687500
135		-1679.687500
136		-1679.687500
137		-1679.687500
138		-1679.687500
139		-1679.687500
140		-1679.687500
141		-1679.687500
142		-1679.687500
143		-1679.687500
144		-1679.687500
145		-1679.687500
146		-1679.687500
147		-1679.687500
148		-1679.687500
149		-1679.687500
150		-1679.687500
151		-1679.687500
152		-1679.687500
153		-1679.687500
154		-1679.687500
155		-1640.625000
156		-1640.625000
157		-1679.687500
158		-1640.625000
159		-1640.625000
160		-1640.625000
161		-1640.625000
162		-1640.625000
163		-1640.625000
164		-1640.625000
165		-1640.625000
166		-1640.625000
167		-1640.625000
168		-1640.625000
169		-1640.625000
170		-1640.625000
171		-1640.625000
172		-1640.625000
173		-1640.625000
174		-1640.625000
175		-1601.562500
176		-1601.562500
177		-1601.562500
178		-1601.562500
179		-1601.562500
180		-1601.562500
181		-1601.562500
182		-1601.562500
183		-1601.562500
184		-1601.562500
185		-1601.562500
186		-1601.562500
187		-1601.562500
188		-1601.562500
189		-1601.562500
190		-1601.562500
191		-1601.562500
192		-1601.562500
193		-1601.562500
194		-1601.562500
195		-1562.500000
196		-1562.500000
197		-1562.500000
198		-1562.500000
199		-1562.500000
200		-1562.500000
201		-1562.500000
202		-1562.500000
203		-1562.500000
204		-1562.500000
205		-1562.500000
206		-1562.500000
207		-1562.500000
208		-1562.500000
209		-1562.500000
210		-1562.500000
211		-1562.500000
212		-1562.500000
213		-1523.437500
214		-1523.437500
215		-1523.437500
216		-1523.437500
217		-1523.437500
218		-1523.437500
219		-1523.437500
220		-1523.437500
221		-1523.437500
222		-1523.437500
223		-1523.437500
224		-1523.437500
225		-1523.437500
226		-1523.437500
227		-1523.437500
228		-1523.437500
229		-1523.437500
230		-1523.437500
231		-1484.375000
232		-1523.437500
233		-1484.375000
234		-1484.375000
235		-1484.375000
236		-1484.375000
237		-1484.375000
238		-1484.375000
239		-1445.312500
240		-1484.375000
241		-1484.375000
242		-1484.375000
243		-1484.375000
244		-1484.375000
245		-1484.375000
246		-1484.375000
247		-1445.312500
248		-1445.312500
249		-1445.312500
250		-1445.312500
251		-1445.312500
252		-1445.312500
253		-1445.312500
254		-1445.312500
255		-1445.312500
256		-1445.312500
257		-1406.250000
258		-1406.250000
259		-1406.250000
260		-1406.250000
261		-1406.250000
262		-1406.250000
263		-1406.250000
264		-1406.250000
265		-1406.250000
266		-1406.250000
267		-1406.250000
268		-1406.250000
269		-1406.250000
270		-1406.250000
271		-1406.250000
272		-1406.250000
273		-1406.250000
274		-1367.187500
275		-1367.187500
276		-1367.187500
277		-1367.187500
278		-1367.187500
279		-1367.187500
280		-1367.187500
281		-1367.187500
282		-1367.187500
283		-1367.187500
284		-1367.187500
285		-1367.187500
286		-1367.187500
287		-1367.187500
288		-1367.187500
289		-1367.187500
290		-1328.125000
291		-1328.125000
292		-1328.125000
293		-1328.125000
294		-1328.125000
295		-1328.125000
296		-1328.125000
297		-1328.125000
298		-1328.125000
299		-1328.125000
300		-1328.125000
301		-1328.125000
302		-1328.125000
303		-1328.125000
304		-1328.125000
305		-1289.062500
306		-1289.062500
307		-1289.062500
308		-1289.062500
309		-1289.062500
310		-1289.062500
311		-1289.062500
312		-1289.062500
313		-1289.062500
314		-1289.062500
315		-1289.062500
316		-1250.000000
317		-1250.000000
318		-1250.000000
319		-1250.000000
320		-1250.000000
321		-1250.000000
322		-1250.000000
323		-1250.000000
324		-1250.000000
325		-1250.000000
326		-1250.000000
327		-1250.000000
328		-1250.000000
329		-1210.937500
330		-1210.937500
331		-1210.937500
332		-1210.937500
333		-1210.937500
334		-1210.937500
335		-1210.937500
336		-1210.937500
337		-1210.937500
338		-1210.937500
339		-1210.937500
340		-1210.937500
341		-1210.937500
342		-1171.875000
343		-1171.875000
344		-1171.875000
345		-1171.875000
346		-1171.875000
347		-1171.875000
348		-1171.875000
349		-1171.875000
350		-1171.875000
351		-1171.875000
352		-1171.875000
353		-1171.875000
354		-1171.875000
355		-1132.812500
356		-1132.812500
357		-1132.812500
358		-1132.812500
359		-1132.812500
360		-1132.812500
361		-1132.812500
362		-1132.812500
363		-1132.812500
364		-1132.812500
365		-1093.750000
366		-1132.812500
367		-1132.812500
368		-1132.812500
369		-1093.750000
370		-1093.750000
371		-1093.750000
372		-1093.750000
373		-1093.750000
374		-1093.750000
375		-1093.750000
376		-1093.750000
377		-1093.750000
378		-1093.750000
379		-1054.687500
380		-1054.687500
381		-1054.687500
382		-1054.687500
383		-1054.687500
384		-1054.687500
385		-1054.687500
386		-1054.687500
387		-1054.687500
388		-1054.687500
389		-1054.687500
390		-1054.687500
391		-1054.687500
392		-1054.687500
393		-1054.687500
394		-1054.687500
395		-1015.625000
396		-1015.625000
397		-1015.625000
398		-1015.625000
399		-1015.625000
400		-1015.625000
401		-1015.625000
402		-1015.625000
403		-1015.625000
404		-1015.625000
405		-1015.625000
406		-1015.625000
407		-1015.625000
408		-1015.625000
409		-1015.625000
410		-1015.625000
411		-976.562500
412		-976.562500
413		-976.562500
414		-976.562500
415		-976.562500
416		-976.562500
417		-976.562500
418		-976.562500
419		-976.562500
420		-937.500000
421		-937.500000
422		-937.500000
423		-937.500000
424		-937.500000
425		-937.500000
426		-937.500000
427		-937.500000
428		-937.500000
429		-937.500000
430		-937.500000
431		-937.500000
432		-937.500000
433		-937.500000
434		-937.500000
435		-898.437500
436		-937.500000
437		-898.437500
438		-898.437500
439		-898.437500
440		-898.437500
441		-898.437500
442		-937.500000
443		-898.437500
444		-898.437500
445		-898.437500
446		-898.437500
447		-898.437500
448		-898.437500
449		-898.437500
450		-859.375000
451		-859.375000
452		-859.375000
453		-859.375000
454		-859.375000
455		-859.375000
456		-859.375000
457		-859.375000
458		-859.375000
459		-859.375000
460		-859.375000
461		-859.375000
462		-859.375000
463		-859.375000
464		-859.375000
465		-859.375000
466		-859.375000
467		-859.375000
468		-820.312500
469		-820.312500
470		-820.312500
471		-820.312500
472		-820.312500
473		-820.312500
474		-820.312500
475		-820.312500
476		-820.312500
477		-820.312500
478		-820.312500
479		-820.312500
480		-820.312500
481		-820.312500
482		-820.312500
483		-781.250000
484		-781.250000
485		-781.250000
486		-781.250000
487		-781.250000
488		-781.250000
489		-781.250000
490		-781.250000
491		-781.250000
492		-781.250000
493		-781.250000
494		-781.250000
495		-781.250000
496		-781.250000
497		-781.250000
498		-742.187500
499		-742.187500
500		-742.187500
501		-742.187500
502		-742.187500
503		-742.187500
504		-742.187500
505		-742.187500
506		-742.187500
507		-742.187500
508		-742.187500
509		-742.187500
510		-742.187500
511		-742.187500
512		-742.187500
513		-742.187500
514		-742.187500
515		-742.187500
516		-703.125000
517		-703.125000
518		-703.125000
519		-703.125000
520		-703.125000
521		-703.125000
522		-703.125000
523		-703.125000
524		-703.125000
525		-703.125000
526		-703.125000
527		-703.125000
528		-703.125000
529		-703.125000
530		-703.125000
531		-703.125000
532		-703.125000
533		-703.125000
534		-703.125000
535		-703.125000
536		-703.125000
537		-664.062500
538		-664.062500
539		-664.062500
540		-664.062500
541		-664.062500
542		-664.062500
543		-664.062500
544		-664.062500
545		-664.062500
546		-664.062500
547		-664.062500
548		-664.062500
549		-664.062500
550		-664.062500
551		-664.062500
552		-664.062500
553		-664.062500
554		-664.062500
555		-664.062500
556		-664.062500
557		-664.062500
558		-625.000000
559		-664.062500
560		-664.062500
561		-625.000000
562		-664.062500
563		-625.000000
564		-664.062500
565		-664.062500
566		-664.062500
567		-664.062500
568		-664.062500
569		-664.062500
570		-664.062500
571		-625.000000
572		-625.000000
573		-625.000000
574		-625.000000
575		-625.000000
576		-625.000000
577		-625.000000
578		-625.000000
579		-625.000000
580		-625.000000
581		-625.000000
582		-625.000000
583		-625.000000
584		-625.000000
585		-625.000000
586		-625.000000
587		-625.000000
588		-625.000000
589		-625.000000
590		-625.000000
591		-625.000000
592		-625.000000
593		-625.000000
594		-625.000000
595		-625.000000
596		-625.000000
597		-625.000000
598		-585.937500
599		-625.000000
600		-625.000000
601		-625.000000
602		-625.000000
603		-625.000000
604		-625.000000
605		-625.000000
606		-625.000000
607		-625.000000
608		-585.937500
609		-625.000000
610		-625.000000
611		-625.000000
612		-625.000000
613		-625.000000
614		-625.000000
615		-585.937500
616		-585.937500
617		-625.000000
618		-585.937500
619		-585.937500
620		-585.937500
621		-625.000000
622		-625.000000
623		-625.000000
624		-625.000000
625		-625.000000
626		-625.000000
627		-625.000000
628		-625.000000
629		-625.000000
630		-625.000000
631		-585.937500
632		-585.937500
633		-585.937500
634		-585.937500
635		-585.937500
636		-585.937500
637		-585.937500
638		-585.937500
639		-585.937500
640		-585.937500
641		-585.937500
642		-585.937500
643		-625.000000
644		-625.000000
645		-625.000000
646		-625.000000
647		-625.000000
648		-625.000000
649		-625.000000
650		-625.000000
651		-625.000000
652		-585.937500
653		-585.937500
654		-585.937500
655		-585.937500
656		-585.937500
657		-625.000000
658		-585.937500
659		-625.000000
660		-625.000000
661		-625.000000
662		-625.000000
663		-625.000000
664		-625.000000
665		-625.000000
666		-625.000000
667		-625.000000
668		-625.000000
669		-625.000000
670		-625.000000
671		-625.000000
672		-625.000000
673		-625.000000
674		-625.000000
675		-625.000000
676		-625.000000
677		-625.000000
678		-625.000000
679		-625.000000
680		-625.000000
681		-625.000000
682		-625.000000
683		-625.000000
684		-625.000000
685		-625.000000
686		-625.000000
687		-625.000000
688		-625.000000
689		-625.000000
690		-625.000000
691		-625.000000
692		-625.000000
693		-625.000000
694		-625.000000
695		-625.000000
696		-625.000000
697		-625.000000
698		-625.000000
699		-625.000000
700		-625.000000
701		-625.000000
702		-625.000000
703		-625.000000
704		-625.000000
705		-664.062500
706		-625.000000
707		-664.062500
708		-664.062500
709		-664.062500
710		-664.062500
711		-664.062500
712		-664.062500
713		-664.062500
714		-664.062500
715		-664.062500
716		-664.062500
717		-664.062500
718		-664.062500
719		-664.062500
720		-664.062500
721		-664.062500
722		-664.062500
723		-664.062500
724		-664.062500
725		-664.062500
726		-664.062500
727		-664.062500
728		-664.062500
729		-703.125000
730		-703.125000
731		-703.125000
732		-703.125000
733		-703.125000
734		-703.125000
735		-703.125000
736		-703.125000
737		-703.125000
738		-703.125000
739		-703.125000
740		-703.125000
741		-703.125000
742		-703.125000
743		-703.125000
744		-703.125000
745		-703.125000
746		-703.125000
747		-703.125000
748		-703.125000
749		-703.125000
750		-703.125000
751		-742.187500
752		-703.125000
753		-703.125000
754		-703.125000
755		-703.125000
756		-703.125000
757		-742.187500
758		-703.125000
759		-703.125000
760		-742.187500
761		-742.187500
762		-742.187500
763		-742.187500
764		-742.187500
765		-742.187500
766		-742.187500
767		-742.187500
768		-742.187500
769		-742.187500
770		-742.187500
771		-742.187500
772		-742.187500
773		-742.187500
774		-742.187500
775		-742.187500
776		-742.187500
777		-781.250000
778		-781.250000
779		-781.250000
780		-781.250000
781		-781.250000
782		-781.250000
783		-781.250000
784		-781.250000
785		-781.250000
786		-781.250000
787		-781.250000
788		-781.250000
789		-781.250000
790		-820.312500
791		-781.250000
792		-781.250000
793		-820.312500
794		-781.250000
795		-781.250000
796		-781.250000
797		-820.312500
798		-820.312500
799		-820.312500
800		-820.312500
801		-820.312500
802		-820.312500
803		-820.312500
804		-820.312500
805		-820.312500
806		-820.312500
807		-820.312500
808		-859.375000
809		-859.375000
810		-859.375000
811		-859.375000
812		-859.375000
813		-859.375000
814		-859.375000
815		-859.375000
816		-859.375000
817		-859.375000
818		-859.375000
819		-859.375000
820		-859.375000
821		-859.375000
822		-859.375000
823		-898.437500
824		-898.437500
825		-898.437500
826		-898.437500
827		-898.437500
828		-898.437500
829		-898.437500
830		-898.437500
831		-898.437500
832		-898.437500
833		-898.437500
834		-898.437500
835		-898.437500
836		-898.437500
837		-898.437500
838		-898.437500
839		-898.437500
840		-937.500000
841		-937.500000
842		-937.500000
843		-937.500000
844		-937.500000
845		-937.500000
846		-937.500000
847		-937.500000
848		-937.500000
849		-937.500000
850		-937.500000
851		-937.500000
852		-937.500000
853		-937.500000
854		-976.562500
855		-976.562500
856		-976.562500
857		-976.562500
858		-976.562500
859		-976.562500
860		-976.562500
861		-976.562500
862		-976.562500
863		-976.562500
864		-976.562500
865		-976.562500
866		-976.562500
867		-976.562500
868		-976.562500
869		-1015.625000
870		-1015.625000
871		-1015.625000
872		-1015.625000
873		-1015.625000
874		-1015.625000
875		-1015.625000
876		-1015.625000
877		-1015.625000
878		-1015.625000
879		-1015.625000
880		-1015.625000
881		-1015.625000
882		-1054.687500
883		-1054.687500
884		-1054.687500
885		-1054.687500
886		-1054.687500
887		-1054.687500
888		-1054.687500
889		-1054.687500
890		-1054.687500
891		-1054.687500
892		-1054.687500
893		-1054.687500
894		-1054.687500
895		-1054.687500
896		-1054.687500
897		-1054.687500
898		-1093.750000
899		-1093.750000
900		-1093.750000
901		-1093.750000
902		-1093.750000
903		-1093.750000
904		-1093.750000
905		-1093.750000
906		-1093.750000
907		-1093.750000
908		-1093.750000
909		-1093.750000
910		-1093.750000
911		-1132.812500
912		-1132.812500
913		-1132.812500
914		-1132.812500
915		-1132.812500
916		-1132.812500
917		-1132.812500
918		-1132.812500
919		-1132.812500
920		-1132.812500
921		-1132.812500
922		-1132.812500
923		-1132.812500
924		-1132.812500
925		-1132.812500
926		-1171.875000
927		-1171.875000
928		-1171.875000
929		-1171.875000
930		-1171.875000
931		-1171.875000
932		-1171.875000
933		-1171.875000
934		-1171.875000
935		-1171.875000
936		-1171.875000
937		-1171.875000
938		-1171.875000
939		-1171.875000
940		-1210.937500
941		-1210.937500
942		-1210.937500
943		-1210.937500
944		-1210.937500
945		-1210.937500
946		-1210.937500
947		-1210.937500
948		-1210.937500
949		-1210.937500
950		-1250.000000
951		-1210.937500
952		-1250.000000
953		-1250.000000
954		-1210.937500
955		-1250.000000
956		-1250.000000
957		-1250.000000
958		-1250.000000
959		-1250.000000
960		-1250.000000
961		-1250.000000
962		-1250.000000
963		-1250.000000
964		-1250.000000
965		-1250.000000
966		-1289.062500
967		-1289.062500
968		-1289.062500
969		-1289.062500
970		-1289.062500
971		-1289.062500
972		-1289.062500
973		-1289.062500
974		-1289.062500
975		-1289.062500
976		-1289.062500
977		-1289.062500
978		-1289.062500
979		-1289.062500
980		-1289.062500
981		-1289.062500
982		-1289.062500
983		-1328.125000
984		-1328.125000
985		-1328.125000
986		-1328.125000
987		-1328.125000
988		-1328.125000
989		-1328.125000
990		-1328.125000
991		-1328.125000
992		-1328.125000
993		-1328.125000
994		-1328.125000
995		-1328.125000
996		-1328.125000
997		-1328.125000
998		-1328.125000
999		-1328.125000
1000		-1367.187500
1001		-1367.187500
1002		-1367.187500
1003		-1367.187500
1004		-1367.187500
1005		-1367.187500
1006		-1367.187500
1007		-1367.187500
1008		-1367.187500
1009		-1367.187500
1010		-1367.187500
1011		-1367.187500
1012		-1367.187500
1013		-1367.187500
1014		-1367.187500
1015		-1367.187500
1016		-1406.250000
1017		-1367.187500
1018		-1406.250000
1019		-1406.250000
1020		-1406.250000
1021		-1406.250000
1022		-1367.187500
1023		-1406.250000
1024		-1406.250000
1025		-1406.250000
1026		-1406.250000
1027		-1445.312500
1028		-1406.250000
1029		-1406.250000
1030		-1406.250000
1031		-1406.250000
1032		-1406.250000
1033		-1445.312500
1034		-1445.312500
1035		-1445.312500
1036		-1445.312500
1037		-1445.312500
1038		-1445.312500
1039		-1445.312500
1040		-1445.312500
1041		-1445.312500
1042		-1445.312500
1043		-1445.312500
1044		-1445.312500
1045		-1445.312500
1046		-1484.375000
1047		-1445.312500
1048		-1484.375000
1049		-1445.312500
1050		-1484.375000
1051		-1445.312500
1052		-1484.375000
1053		-1445.312500
1054		-1484.375000
1055		-1484.375000
1056		-1484.375000
1057		-1484.375000
1058		-1484.375000
1059		-1484.375000
1060		-1484.375000
1061		-1484.375000
1062		-1484.375000
1063		-1484.375000
1064		-1523.437500
1065		-1484.375000
1066		-1484.375000
1067		-1523.437500
1068		-1523.437500
1069		-1523.437500
1070		-1523.437500
1071		-1523.437500
1072		-1523.437500
1073		-1523.437500
1074		-1523.437500
1075		-1523.437500
1076		-1523.437500
1077		-1523.437500
1078		-1523.437500
1079		-1523.437500
1080		-1523.437500
1081		-1523.437500
1082		-1562.500000
1083		-1523.437500
1084		-1523.437500
1085		-1523.437500
1086		-1523.437500
1087		-1562.500000
1088		-1562.500000
1089		-1562.500000
1090		-1562.500000
1091		-1562.500000
1092		-1562.500000
1093		-1562.500000
1094		-1562.500000
1095		-1562.500000
1096		-1562.500000
1097		-1562.500000
1098		-1562.500000
1099		-1562.500000
1100		-1562.500000
1101		-1562.500000
1102		-1562.500000
1103		-1562.500000
1104		-1562.500000
1105		-1562.500000
1106		-1562.500000
1107		-1562.500000
1108		-1562.500000
1109		-1562.500000
1110		-1601.562500
1111		-1601.562500
1112		-1601.562500
1113		-1601.562500
1114		-1601.562500
1115		-1601.562500
1116		-1601.562500
1117		-1601.562500
1118		-1601.562500
1119		-1601.562500
1120		-1601.562500
1121		-1601.562500
1122		-1601.562500
1123		-1601.562500
1124		-1601.562500
1125		-1601.562500
1126		-1601.562500
1127		-1601.562500
1128		-1601.562500
1129		-1601.562500
1130		-1601.562500
1131		-1601.562500
1132		-1640.625000
1133		-1601.562500
1134		-1640.625000
1135		-1640.625000
1136		-1601.562500
1137		-1640.625000
1138		-1601.562500
1139		-1640.625000
1140		-1640.625000
1141		-1640.625000
1142		-1640.625000
1143		-1601.562500
1144		-1640.625000
1145		-1640.625000
1146		-1640.625000
1147		-1640.625000
1148		-1640.625000
1149		-1640.625000
1150		-1640.625000
1151		-1640.625000
1152		-1640.625000
1153		-1640.625000
1154		-1640.625000
1155		-1640.625000
1156		-1640.625000
1157		-1640.625000
1158		-1640.625000
1159		-1640.625000
1160		-1640.625000
1161		-1640.625000
1162		-1640.625000
1163		-1679.687500
1164		-1679.687500
1165		-1679.687500
1166		-1679.687500
1167		-1679.687500
1168		-1679.687500
1169		-1679.687500
1170		-1679.687500
1171		-1679.687500
1172		-1679.687500
1173		-1679.687500
1174		-1679.687500
1175		-1679.687500
1176		-1679.687500
1177		-1679.687500
1178		-1679.687500
1179		-1679.687500
1180		-1679.687500
1181		-1679.687500
1182		-1679.687500
1183		-1679.687500
1184		-1679.687500
1185		-1718.750000
1186		-1679.687500
1187		-1718.750000
1188		-1718.750000
1189		-1679.687500
1190		-1718.750000
1191		-1718.750000
1192		-1718.750000
1193		-1718.750000
1194		-1718.750000
1195		-1718.750000
1196		-1718.750000
1197		-1718.750000
1198		-1718.750000
1199		-1718.750000
1200		-1718.750000
1201		-1718.750000
1202		-1718.750000
1203		-1718.750000
1204		-1718.750000
1205		-1718.750000
1206		-1718.750000
1207		-1718.750000
1208		-1718.750000
1209		-1718.750000
1210		-1718.750000
1211		-1718.750000
1212		-1718.750000
1213		-1718.750000
1214		-1718.750000
1215		-1718.750000
1216		-1718.750000
1217		-1718.750000
1218		-1718.750000
1219		-1718.750000
1220		-1718.750000
1221		-1718.750000
1222		-1757.812500
1223		-1757.812500
1224		-1757.812500
1225		-1757.812500
1226		-1757.812500
1227		-1757.812500
1228		-1757.812500
1229		-1757.812500
1230		-1757.812500
1231		-1757.812500
1232		-1757.812500
1233		-1757.812500
1234		-1757.812500
1235		-1757.812500
1236		-1757.812500
1237		-1757.812500
1238		-1757.812500
1239		-1757.812500
1240		-1757.812500
1241		-1757.812500
1242		-1757.812500
1243		-1757.812500
1244		-1757.812500
1245		-1757.812500
1246		-1757.812500
1247		-1757.812500
1248		-1757.812500
1249		-1757.812500
1250		-1757.812500
1251		-1757.812500
1252		-1757.812500
1253		-1757.812500
1254		-1757.812500
1255		-1757.812500
1256		-1757.812500
1257		-1796.875000
1258		-1757.812500
1259		-1757.812500
1260		-1796.875000
1261		-1796.875000
1262		-1796.875000
1263		-1796.875000
1264		-1796.875000
1265		-1796.875000
1266		-1796.875000
1267		-1796.875000
1268		-1796.875000
1269		-1796.875000
1270		-1796.875000
1271		-1796.875000
1272		-1796.875000
1273		-1796.875000
1274		-1796.875000
1275		-1796.875000
1276		-1796.875000
1277		-1796.875000
1278		-1796.875000
1279		-1796.875000
1280		-1796.875000
1281		-1796.875000
1282		-1796.875000
1283		-1796.875000
1284		-1796.875000
1285		-1796.875000
1286		-1796.875000
1287		-1796.875000
1288		-1796.875000
1289		-1796.875000
1290		-1796.875000
1291		-1796.875000
1292		-1796.875000
1293		-1796.875000
1294		-1796.875000
1295		-1796.875000
1296		-1796.875000
1297		-1796.875000
1298		-1796.875000
1299		-1796.875000
1300		-1796.875000
1301		-1796.875000
1302		-1796.875000
1303		-1796.875000
1304		-1796.875000
1305		-1796.875000
1306		-1796.875000
1307		-1796.875000
1308		-1835.937500
1309		-1796.875000
1310		-1835.937500
1311		-1835.937500
1312		-1835.937500
1313		-1835.937500
1314		-1835.937500
1315		-1796.875000
1316		-1796.875000
1317		-1796.875000
1318		-1796.875000
1319		-1796.875000
1320		-1835.937500
1321		-1796.875000
1322		-1835.937500
1323		-1835.937500
1324		-1835.937500
1325		-1835.937500
1326		-1835.937500
1327		-1835.937500
1328		-1835.937500
1329		-1835.937500
1330		-1835.937500
1331		-1835.937500
1332		-1835.937500
1333		-1835.937500
1334		-1835.937500
1335		-1835.937500
1336		-1835.937500
1337		-1835.937500
1338		-1835.937500
1339		-1835.937500
1340		-1835.937500
1341		-1835.937500
1342		-1835.937500
1343		-1835.937500
1344		-1835.937500
1345		-1835.937500
1346		-1835.937500
1347		-1835.937500
1348		-1835.937500
1349		-1835.937500
1350		-1835.937500
1351		-1835.937500
1352		-1835.937500
1353		-1835.937500
1354		-1835.937500
1355		-1835.937500
1356		-1835.937500
1357		-1835.937500
1358		-1835.937500
1359		-1835.937500
1360		-1835.937500
1361		-1835.937500
1362		-1835.937500
1363		-1835.937500
1364		-1835.937500
1365		-1835.937500
1366		-1835.937500
1367		-1835.937500
1368		-1835.937500
1369		-1835.937500
1370		-1835.937500
1371		-1835.937500
1372		-1835.937500
1373		-1835.937500
1374		-1835.937500
1375		-1835.937500
1376		-1835.937500
1377		-1835.937500
1378		-1835.937500
1379		-1835.937500
1380		-1835.937500
1381		-1835.937500
1382		-1835.937500
1383		-1835.937500
1384		-1835.937500
1385		-1875.000000
1386		-1835.937500
1387		-1835.937500
1388		-1835.937500
1389		-1835.937500
1390		-1835.937500
1391		-1835.937500
1392		-1835.937500
1393		-1835.937500
1394		-1835.937500
1395		-1835.937500
1396		-1835.937500
1397		-1835.937500
1398		-1835.937500
1399		-1835.937500
1400		-1835.937500
1401		-1835.937500
1402		-1835.937500
1403		-1875.000000
1404		-1875.000000
1405		-1875.000000
1406		-1835.937500
1407		-1875.000000
1408		-1875.000000
1409		-1875.000000
1410		-1835.937500
1411		-1875.000000
1412		-1835.937500
1413		-1835.937500
1414		-1835.937500
1415		-1835.937500
1416		-1835.937500
1417		-1875.000000
1418		-1835.937500
1419		-1875.000000
1420		-1875.000000
1421		-1875.000000
1422		-1875.000000
1423		-1875.000000
1424		-1875.000000
1425		-1875.000000
1426		-1875.000000
1427		-1835.937500
1428		-1875.000000
1429		-1875.000000
1430		-1875.000000
1431		-1875.000000
1432		-1875.000000
1433		-1875.000000
1434		-1875.000000
1435		-1875.000000
1436		-1835.937500
1437		-1875.000000
1438		-1835.937500
1439		-1875.000000
1440		-1875.000000
1441		-1875.000000
1442		-1875.000000
1443		-1875.000000
1444		-1875.000000
1445		-1875.000000
1446		-1875.000000
1447		-1875.000000
1448		-1835.937500
1449		-1835.937500
1450		-1875.000000
1451		-1835.937500
1452		-1875.000000
1453		-1835.937500
1454		-1875.000000
1455		-1835.937500
1456		-1875.000000
1457		-1875.000000
1458		-1875.000000
1459		-1875.000000
1460		-1875.000000
1461		-1835.937500
1462		-1875.000000
1463		-1875.000000
1464		-1875.000000
1465		-1875.000000
1466		-1875.000000
1467		-1875.000000
1468		-1875.000000
1469		-1875.000000
1470		-1875.000000
1471		-1875.000000
1472		-1875.000000
1473		-1875.000000
1474		-1875.000000
1475		-1875.000000
1476		-1875.000000
1477		-1875.000000
1478		-1875.000000
1479		-1875.000000
1480		-1875.000000
1481		-1875.000000
1482		-1875.000000
1483		-1875.000000
1484		-1835.937500
1485		-1875.000000
1486		-1875.000000
1487		-1875.000000
1488		-1875.000000
1489		-1875.000000
1490		-1875.000000
1491		-1875.000000
1492		-1875.000000
1493		-1875.000000
1494		-1875.000000
1495		-1875.000000
1496		-1875.000000
1497		-1835.937500
1498		-1835.937500
1499		-1835.937500
1500		-1875.000000
1501		-1835.937500
1502		-1835.937500
1503		-1835.937500
1504		-1835.937500
1505		-1835.937500
1506		-1875.000000
1507		-1875.000000
1508		-1875.000000
1509		-1835.937500
1510		-1875.000000
1511		-1875.000000
1512		-1875.000000
1513		-1875.000000
1514		-1875.000000
1515		-1835.937500
1516		-1835.937500
1517		-1835.937500
1518		-1835.937500
1519		-1835.937500
1520		-1835.937500
1521		-1835.937500
1522		-1875.000000
1523		-1835.937500
1524		-1835.937500
1525		-1835.937500
1526		-1875.000000
1527		-1875.000000
1528		-1835.937500
1529		-1835.937500
1530		-1875.000000
1531		-1875.000000
1532		-1875.000000
1533		-1835.937500
1534		-1835.937500
1535		-1835.937500
1536		-1835.937500
1537		-1835.937500
1538		-1835.937500
1539		-1835.937500
1540		-1835.937500
1541		-1835.937500
1542		-1835.937500
1543		-1835.937500
1544		-1835.937500
1545		-1835.937500
1546		-1835.937500
1547		-1835.937500
1548		-1875.000000
1549		-1835.937500
1550		-1875.000000
1551		-1835.937500
1552		-1835.937500
1553		-1835.937500
1554		-1835.937500
1555		-1835.937500
1556		-1835.937500
1557		-1835.937500
1558		-1835.937500
1559		-1835.937500
1560		-1835.937500
1561		-1835.937500
1562		-1835.937500
1563		-1835.937500
1564		-1835.937500
1565		-1835.937500
1566		-1835.937500
1567		-1835.937500
1568		-1835.937500
1569		-1835.937500
1570		-1835.937500
1571		-1835.937500
1572		-1835.937500
1573		-1835.937500
1574		-1835.937500
1575		-1835.937500
1576		-1835.937500
1577		-1835.937500
1578		-1835.937500
1579		-1835.937500
1580		-1835.937500
1581		-1835.937500
1582		-1835.937500
1583		-1835.937500
1584		-1835.937500
1585		-1835.937500
1586		-1835.937500
1587		-1835.937500
1588		-1835.937500
1589		-1835.937500
1590		-1835.937500
1591		-1835.937500
1592		-1835.937500
1593		-1835.937500
1594		-1835.937500
1595		-1835.937500
1596		-1835.937500
1597		-1835.937500
1598		-1835.937500
1599		-1835.937500
1600		-1835.937500
1601		-1835.937500
1602		-1835.937500
1603		-1835.937500
1604		-1835.937500
1605		-1835.937500
1606		-1835.937500
1607		-1835.937500
1608		-1835.937500
1609		-1835.937500
1610		-1835.937500
1611		-1835.937500
1612		-1835.937500
1613		-1835.937500
1614		-1796.875000
1615		-1796.875000
1616		-1796.875000
1617		-1796.875000
1618		-1796.875000
1619		-1835.937500
1620		-1835.937500
1621		-1835.937500
1622		-1796.875000
1623		-1796.875000
1624		-1796.875000
1625		-1796.875000
1626		-1796.875000
1627		-1796.875000
1628		-1796.875000
1629		-1796.875000
1630		-1796.875000
1631		-1796.875000
1632		-1796.875000
1633		-1796.875000
1634		-1796.875000
1635		-1796.875000
1636		-1796.875000
1637		-1796.875000
1638		-1796.875000
1639		-1796.875000
1640		-1796.875000
1641		-1796.875000
1642		-1796.875000
1643		-1796.875000
1644		-1796.875000
1645		-1796.875000
1646		-1796.875000
1647		-1796.875000
1648		-1796.875000
1649		-1796.875000
1650		-1796.875000
1651		-1796.875000
1652		-1796.875000
1653		-1796.875000
1654		-1796.875000
1655		-1796.875000
1656		-1796.875000
1657		-1796.875000
1658		-1796.875000
1659		-1796.875000
1660		-1796.875000
1661		-1796.875000
1662		-1796.875000
1663		-1796.875000
1664		-1796.875000
1665		-1796.875000
1666		-1796.875000
1667		-1796.875000
1668		-1796.875000
1669		-1796.875000
1670		-1796.875000
1671		-1796.875000
1672		-1796.875000
1673		-1796.875000
1674		-1757.812500
1675		-1796.875000
1676		-1796.875000
1677		-1757.812500
1678		-1757.812500
1679		-1757.812500
1680		-1757.812500
1681		-1757.812500
1682		-1757.812500
1683		-1757.812500
1684		-1757.812500
1685		-1757.812500
1686		-1757.812500
1687		-1757.812500
1688		-1757.812500
1689		-1757.812500
1690		-1757.812500
1691		-1757.812500
1692		-1757.812500
1693		-1757.812500
1694		-1757.812500
1695		-1757.812500
1696		-1757.812500
1697		-1757.812500
1698		-1757.812500
1699		-1757.812500
1700		-1757.812500
1701		-1757.812500
1702		-1757.812500
1703		-1757.812500
1704		-1757.812500
1705		-1757.812500
1706		-1757.812500
1707		-1757.812500
1708		-1757.812500
1709		-1757.812500
1710		-1757.812500
1711		-1757.812500
1712		-1757.812500
1713		-1718.750000
1714		-1757.812500
1715		-1757.812500
1716		-1718.750000
1717		-1718.750000
1718		-1718.750000
1719		-1718.750000
1720		-1718.750000
1721		-1718.750000
1722		-1718.750000
1723		-1718.750000
1724		-1718.750000
1725		-1718.750000
1726		-1718.750000
1727		-1718.750000
1728		-1718.750000
1729		-1718.750000
1730		-1718.750000
1731		-1718.750000
1732		-1718.750000
1733		-1718.750000
1734		-1718.750000
1735		-1718.750000
1736		-1679.687500
1737		-1679.687500
1738		-1718.750000
1739		-1679.687500
1740		-1679.687500
1741		-1679.687500
1742		-1679.687500
1743		-1679.687500
1744		-1718.750000
1745		-1679.687500
1746		-1718.750000
1747		-1718.750000
1748		-1679.687500
1749		-1679.687500
1750		-1679.687500
1751		-1679.687500
1752		-1679.687500
1753		-1679.687500
1754		-1679.687500
1755		-1679.687500
1756		-1679.687500
1757		-1679.687500
1758		-1679.687500
1759		-1679.687500
1760		-1679.687500
1761		-1679.687500
1762		-1679.687500
1763		-1679.687500
1764		-1679.687500
1765		-1679.687500
1766		-1679.687500
1767		-1679.687500
1768		-1679.687500
1769		-1679.687500
1770		-1679.687500
1771		-1679.687500
1772		-1640.625000
1773		-1640.625000
1774		-1640.625000
1775		-1640.625000
1776		-1640.625000
1777		-1640.625000
1778		-1640.625000
1779		-1640.625000
1780		-1640.625000
1781		-1640.625000
1782		-1640.625000
1783		-1640.625000
1784		-1640.625000
1785		-1640.625000
1786		-1640.625000
1787		-1640.625000
1788		-1640.625000
1789		-1640.625000
1790		-1640.625000
1791		-1640.625000
1792		-1601.562500
1793		-1601.562500
1794		-1640.625000
1795		-1601.562500
1796		-1601.562500
1797		-1601.562500
1798		-1601.562500
1799		-1601.562500
1800		-1601.562500
1801		-1601.562500
1802		-1601.562500
1803		-1601.562500
1804		-1601.562500
1805		-1601.562500
1806		-1601.562500
1807		-1601.562500
1808		-1601.562500
1809		-1601.562500
1810		-1601.562500
1811		-1601.562500
1812		-1601.562500
1813		-1562.500000
1814		-1601.562500
1815		-1601.562500
1816		-1601.562500
1817		-1562.500000
1818		-1562.500000
1819		-1562.500000
1820		-1562.500000
1821		-1562.500000
1822		-1562.500000
1823		-1562.500000
1824		-1562.500000
1825		-1562.500000
1826		-1562.500000
1827		-1562.500000
1828		-1562.500000
1829		-1562.500000
1830		-1562.500000
1831		-1562.500000
1832		-1562.500000
1833		-1562.500000
1834		-1562.500000
1835		-1562.500000
1836		-1562.500000
1837		-1562.500000
1838		-1523.437500
1839		-1523.437500
1840		-1523.437500
1841		-1523.437500
1842		-1523.437500
1843		-1523.437500
1844		-1523.437500
1845		-1523.437500
1846		-1523.437500
1847		-1523.437500
1848		-1523.437500
1849		-1523.437500
1850		-1523.437500
1851		-1523.437500
1852		-1523.437500
1853		-1523.437500
1854		-1523.437500
1855		-1523.437500
1856		-1484.375000
1857		-1484.375000
1858		-1484.375000
1859		-1484.375000
1860		-1484.375000
1861		-1484.375000
1862		-1484.375000
1863		-1484.375000
1864		-1484.375000
1865		-1484.375000
1866		-1484.375000
1867		-1484.375000
1868		-1484.375000
1869		-1484.375000
1870		-1484.375000
1871		-1484.375000
1872		-1484.375000
1873		-1484.375000
1874		-1484.375000
1875		-1445.312500
1876		-1445.312500
1877		-1445.312500
1878		-1445.312500
1879		-1445.312500
1880		-1445.312500
1881		-1445.312500
1882		-1445.312500
1883		-1445.312500
1884		-1445.312500
1885		-1445.312500
1886		-1445.312500
1887		-1445.312500
1888		-1445.312500
1889		-1445.312500
1890		-1445.312500
1891		-1445.312500
1892		-1406.250000
1893		-1406.250000
1894		-1406.250000
1895		-1406.250000
1896		-1406.250000
1897		-1406.250000
1898		-1406.250000
1899		-1406.250000
1900		-1406.250000
1901		-1406.250000
1902		-1406.250000
1903		-1406.250000
1904		-1406.250000
1905		-1406.250000
1906		-1406.250000
1907		-1406.250000
1908		-1406.250000
1909		-1367.187500
1910		-1367.187500
1911		-1367.187500
1912		-1367.187500
1913		-1367.187500
1914		-1367.187500
1915		-1367.187500
1916		-1367.187500
1917		-1367.187500
1918		-1367.187500
1919		-1367.187500
1920		-1328.125000
1921		-1328.125000
1922		-1367.187500
1923		-1367.187500
1924		-1328.125000
1925		-1328.125000
1926		-1328.125000
1927		-1328.125000
1928		-1328.125000
1929		-1328.125000
1930		-1328.125000
1931		-1328.125000
1932		-1328.125000
1933		-1328.125000
1934		-1328.125000
1935		-1289.062500
1936		-1289.062500
1937		-1289.062500
1938		-1289.062500
1939		-1289.062500
1940		-1289.062500
1941		-1289.062500
1942		-1289.062500
1943		-1289.062500
1944		-1289.062500
1945		-1289.062500
1946		-1289.062500
1947		-1289.062500
1948		-1289.062500
1949		-1289.062500
1950		-1289.062500
1951		-1289.062500
1952		-1250.000000
1953		-1250.000000
1954		-1250.000000
1955		-1250.000000
1956		-1250.000000
1957		-1250.000000
1958		-1250.000000
1959		-1250.000000
1960		-1250.000000
1961		-1250.000000
1962		-1250.000000
1963		-1250.000000
1964		-1210.937500
1965		-1250.000000
1966		-1210.937500
1967		-1210.937500
1968		-1210.937500
1969		-1210.937500
1970		-1210.937500
1971		-1210.937500
1972		-1210.937500
1973		-1210.937500
1974		-1171.875000
1975		-1171.875000
1976		-1171.875000
1977		-1171.875000
1978		-1171.875000
1979		-1171.875000
1980		-1171.875000
1981		-1171.875000
1982		-1171.875000
1983		-1171.875000
1984		-1171.875000
1985		-1171.875000
1986		-1171.875000
1987		-1171.875000
1988		-1171.875000
1989		-1171.875000
1990		-1132.812500
1991		-1132.812500
1992		-1132.812500
1993		-1132.812500
1994		-1132.812500
1995		-1132.812500
1996		-1132.812500
1997		-1132.812500
1998		-1132.812500
1999		-1132.812500
2000		-1132.812500
2001		-1132.812500
2002		-1132.812500
2003		-1093.750000
2004		-1093.750000
2005		-1093.750000
2006		-1093.750000
2007		-1093.750000
2008		-1093.750000
2009		-1093.750000
2010		-1093.750000
2011		-1093.750000
2012		-1093.750000
2013		-1093.750000
2014		-1093.750000
2015		-1093.750000
2016		-1054.687500
2017		-1093.750000
2018		-1054.687500
2019		-1054.687500
2020		-1054.687500
2021		-1054.687500
2022		-1054.687500
2023		-1054.687500
2024		-1054.687500
2025		-1054.687500
2026		-1054.687500
2027		-1054.687500
2028		-1054.687500
2029		-1054.687500
2030		-1054.687500
2031		-1015.625000
2032		-1015.625000
2033		-1015.625000
2034		-1015.625000
2035		-1015.625000
2036		-1015.625000
2037		-1015.625000
2038		-1015.625000
2039		-1015.625000
2040		-1015.625000
2041		-1015.625000
2042		-1015.625000
2043		-1015.625000
2044		-1015.625000
2045		-976.562500
2046		-976.562500
2047		-976.562500
2048		-976.562500
2049		-976.562500
2050		-976.562500
2051		-976.562500
2052		-976.562500
2053		-976.562500
2054		-976.562500
2055		-976.562500
2056		-976.562500
2057		-976.562500
2058		-937.500000
2059		-937.500000
2060		-937.500000
2061		-937.500000
2062		-937.500000
2063		-937.500000
2064		-937.500000
2065		-937.500000
2066		-937.500000
2067		-937.500000
2068		-937.500000
2069		-937.500000
2070		-937.500000
2071		-937.500000
2072		-898.437500
2073		-898.437500
2074		-898.437500
2075		-898.437500
2076		-898.437500
2077		-898.437500
2078		-898.437500
2079		-898.437500
2080		-898.437500
2081		-898.437500
2082		-898.437500
2083		-898.437500
2084		-898.437500
2085		-898.437500
2086		-898.437500
2087		-859.375000
2088		-859.375000
2089		-859.375000
2090		-859.375000
2091		-859.375000
2092		-859.375000
2093		-859.375000
2094		-859.375000
2095		-859.375000
2096		-859.375000
2097		-859.375000
2098		-859.375000
2099		-820.312500
2100		-820.312500
2101		-820.312500
2102		-820.312500
2103		-820.312500
2104		-820.312500
2105		-820.312500
2106		-820.312500
2107		-820.312500
2108		-820.312500
2109		-820.312500
2110		-820.312500
2111		-820.312500
2112		-820.312500
2113		-820.312500
2114		-820.312500
2115		-781.250000
2116		-781.250000
2117		-820.312500
2118		-781.250000
2119		-781.250000
2120		-781.250000
2121		-781.250000
2122		-781.250000
2123		-781.250000
2124		-781.250000
2125		-781.250000
2126		-781.250000
2127		-781.250000
2128		-781.250000
2129		-781.250000
2130		-781.250000
2131		-781.250000
2132		-742.187500
2133		-781.250000
2134		-742.187500
2135		-742.187500
2136		-742.187500
2137		-742.187500
2138		-742.187500
2139		-742.187500
2140		-742.187500
2141		-742.187500
2142		-742.187500
2143		-742.187500
2144		-742.187500
2145		-742.187500
2146		-742.187500
2147		-742.187500
2148		-742.187500
2149		-742.187500
2150		-742.187500
2151		-742.187500
2152		-703.125000
2153		-703.125000
2154		-703.125000
2155		-703.125000
2156		-703.125000
2157		-703.125000
2158		-703.125000
2159		-703.125000
2160		-703.125000
2161		-703.125000
2162		-703.125000
2163		-703.125000
2164		-703.125000
2165		-703.125000
2166		-703.125000
2167		-703.125000
2168		-703.125000
2169		-703.125000
2170		-703.125000
2171		-664.062500
2172		-664.062500
2173		-664.062500
2174		-664.062500
2175		-664.062500
2176		-664.062500
2177		-664.062500
2178		-664.062500
2179		-664.062500
2180		-664.062500
2181		-664.062500
2182		-664.062500
2183		-664.062500
2184		-664.062500
2185		-664.062500
2186		-664.062500
2187		-664.062500
2188		-664.062500
2189		-664.062500
2190		-664.062500
2191		-664.062500
2192		-664.062500
2193		-625.000000
2194		-625.000000
2195		-625.000000
2196		-625.000000
2197		-625.000000
2198		-625.000000
2199		-625.000000
2200		-625.000000
2201		-625.000000
2202		-625.000000
2203		-625.000000
2204		-625.000000
2205		-625.000000
2206		-625.000000
2207		-625.000000
2208		-625.000000
2209		-625.000000
2210		-625.000000
2211		-625.000000
2212		-625.000000
2213		-625.000000
2214		-625.000000
2215		-625.000000
2216		-625.000000
2217		-625.000000
2218		-625.000000
2219		-625.000000
2220		-625.000000
2221		-585.937500
2222		-625.000000
2223		-625.000000
2224		-585.937500
2225		-585.937500
2226		-585.937500
2227		-585.937500
2228		-585.937500
2229		-585.937500
2230		-585.937500
2231		-585.937500
2232		-585.937500
2233		-585.937500
2234		-585.937500
2235		-585.937500
2236		-585.937500
2237		-585.937500
2238		-585.937500
2239		-585.937500
2240		-585.937500
2241		-585.937500
2242		-585.937500
2243		-585.937500
2244		-585.937500
2245		-585.937500
2246		-585.937500
2247		-585.937500
2248		-585.937500
2249		-585.937500
2250		-585.937500
2251		-585.937500
2252		-585.937500
2253		-585.937500
2254		-585.937500
2255		-585.937500
2256		-585.937500
2257		-585.937500
2258		-585.937500
2259		-585.937500
2260		-585.937500
2261		-585.937500
2262		-585.937500
2263		-585.937500
2264		-585.937500
2265		-585.937500
2266		-585.937500
2267		-585.937500
2268		-585.937500
2269		-585.937500
2270		-585.937500
2271		-585.937500
2272		-585.937500
2273		-585.937500
2274		-585.937500
2275		-585.937500
2276		-585.937500
2277		-546.875000
2278		-546.875000
2279		-546.875000
2280		-546.875000
2281		-546.875000
2282		-585.937500
2283		-585.937500
2284		-585.937500
2285		-585.937500
2286		-585.937500
2287		-585.937500
2288		-585.937500
2289		-585.937500
2290		-585.937500
2291		-585.937500
2292		-585.937500
2293		-585.937500
2294		-585.937500
2295		-585.937500
2296		-546.875000
2297		-546.875000
2298		-546.875000
2299		-546.875000
2300		-585.937500
2301		-585.937500
2302		-585.937500
2303		-585.937500
2304		-585.937500
2305		-585.937500
2306		-585.937500
2307		-585.937500
2308		-585.937500
2309		-585.937500
2310		-585.937500
2311		-585.937500
2312		-585.937500
2313		-585.937500
2314		-585.937500
2315		-585.937500
2316		-585.937500
2317		-585.937500
2318		-585.937500
2319		-585.937500
2320		-585.937500
2321		-585.937500
2322		-585.937500
2323		-585.937500
2324		-585.937500
2325		-585.937500
2326		-585.937500
2327		-585.937500
2328		-585.937500
2329		-585.937500
2330		-585.937500
2331		-585.937500
2332		-585.937500
2333		-585.937500
2334		-585.937500
2335		-585.937500
2336		-585.937500
2337		-585.937500
2338		-585.937500
2339		-585.937500
2340		-585.937500
2341		-585.937500
2342		-585.937500
2343		-585.937500
2344		-585.937500
2345		-625.000000
2346		-585.937500
2347		-625.000000
2348		-585.937500
2349		-585.937500
2350		-625.000000
2351		-625.000000
2352		-585.937500
2353		-585.937500
2354		-585.937500
2355		-585.937500
2356		-585.937500
2357		-625.000000
2358		-625.000000
2359		-625.000000
2360		-625.000000
2361		-625.000000
2362		-625.000000
2363		-625.000000
2364		-625.000000
2365		-625.000000
2366		-625.000000
2367		-625.000000
2368		-625.000000
2369		-625.000000
2370		-625.000000
2371		-625.000000
2372		-625.000000
2373		-625.000000
2374		-625.000000
2375		-625.000000
2376		-625.000000
2377		-625.000000
2378		-625.000000
2379		-625.000000
2380		-664.062500
2381		-625.000000
2382		-664.062500
2383		-664.062500
2384		-664.062500
2385		-664.062500
2386		-664.062500
2387		-664.062500
2388		-664.062500
2389		-664.062500
2390		-664.062500
2391		-664.062500
2392		-664.062500
2393		-664.062500
2394		-664.062500
2395		-664.062500
2396		-664.062500
2397		-664.062500
2398		-703.125000
2399		-664.062500
2400		-664.062500
2401		-664.062500
2402		-664.062500
2403		-703.125000
2404		-703.125000
2405		-664.062500
2406		-664.062500
2407		-703.125000
2408		-703.125000
2409		-703.125000
2410		-703.125000
2411		-703.125000
2412		-703.125000
2413		-703.125000
2414		-703.125000
2415		-703.125000
2416		-703.125000
2417		-703.125000
2418		-703.125000
2419		-703.125000
2420		-703.125000
2421		-703.125000
2422		-703.125000
2423		-703.125000
2424		-703.125000
2425		-703.125000
2426		-742.187500
2427		-742.187500
2428		-742.187500
2429		-742.187500
2430		-742.187500
2431		-742.187500
2432		-742.187500
2433		-742.187500
2434		-742.187500
2435		-742.187500
2436		-742.187500
2437		-742.187500
2438		-742.187500
2439		-742.187500
2440		-742.187500
2441		-742.187500
2442		-742.187500
2443		-781.250000
2444		-781.250000
2445		-781.250000
2446		-781.250000
2447		-781.250000
2448		-781.250000
2449		-781.250000
2450		-781.250000
2451		-781.250000
2452		-781.250000
2453		-781.250000
2454		-781.250000
2455		-781.250000
2456		-781.250000
2457		-781.250000
2458		-781.250000
2459		-820.312500
2460		-781.250000
2461		-820.312500
2462		-820.312500
2463		-820.312500
2464		-820.312500
2465		-820.312500
2466		-820.312500
2467		-820.312500
2468		-820.312500
2469		-859.375000
2470		-820.312500
2471		-820.312500
2472		-820.312500
2473		-820.312500
2474		-820.312500
2475		-859.375000
2476		-859.375000
2477		-859.375000
2478		-859.375000
2479		-859.375000
2480		-859.375000
2481		-859.375000
2482		-859.375000
2483		-859.375000
2484		-859.375000
2485		-859.375000
2486		-898.437500
2487		-898.437500
2488		-898.437500
2489		-898.437500
2490		-898.437500
2491		-898.437500
2492		-898.437500
2493		-898.437500
2494		-898.437500
2495		-898.437500
2496		-898.437500
2497		-898.437500
2498		-898.437500
2499		-898.437500
2500		-898.437500
2501		-898.437500
2502		-898.437500
2503		-937.500000
2504		-937.500000
2505		-937.500000
2506		-937.500000
2507		-937.500000
2508		-937.500000
2509		-937.500000
2510		-937.500000
2511		-937.500000
2512		-937.500000
2513		-937.500000
2514		-937.500000
2515		-937.500000
2516		-937.500000
2517		-937.500000
2518		-937.500000
2519		-937.500000
2520		-976.562500
2521		-976.562500
2522		-976.562500
2523		-976.562500
2524		-976.562500
2525		-976.562500
2526		-976.562500
2527		-976.562500
2528		-976.562500
2529		-1015.625000
2530		-976.562500
2531		-976.562500
2532		-1015.625000
2533		-1015.625000
2534		-1015.625000
2535		-1015.625000
2536		-976.562500
2537		-1015.625000
2538		-1015.625000
2539		-1015.625000
2540		-1015.625000
2541		-1015.625000
2542		-1015.625000
2543		-1015.625000
2544		-1015.625000
2545		-1015.625000
2546		-1054.687500
2547		-1054.687500
2548		-1054.687500
2549		-1054.687500
2550		-1054.687500
2551		-1054.687500
2552		-1054.687500
2553		-1054.687500
2554		-1054.687500
2555		-1054.687500
2556		-1054.687500
2557		-1054.687500
2558		-1054.687500
2559		-1093.750000
2560		-1093.750000
2561		-1093.750000
2562		-1093.750000
2563		-1093.750000
2564		-1093.750000
2565		-1093.750000
2566		-1093.750000
2567		-1093.750000
2568		-1093.750000
2569		-1093.750000
2570		-1093.750000
2571		-1093.750000
2572		-1093.750000
2573		-1093.750000
2574		-1132.812500
2575		-1093.750000
2576		-1132.812500
2577		-1132.812500
2578		-1132.812500
2579		-1171.875000
2580		-1132.812500
2581		-1132.812500
2582		-1132.812500
2583		-1132.812500
2584		-1132.812500
2585		-1132.812500
2586		-1132.812500
2587		-1132.812500
2588		-1171.875000
2589		-1171.875000
2590		-1171.875000
2591		-1171.875000
2592		-1171.875000
2593		-1171.875000
2594		-1171.875000
2595		-1171.875000
2596		-1171.875000
2597		-1171.875000
2598		-1171.875000
2599		-1171.875000
2600		-1171.875000
2601		-1210.937500
2602		-1171.875000
2603		-1210.937500
2604		-1210.937500
2605		-1210.937500
2606		-1210.937500
2607		-1210.937500
2608		-1210.937500
2609		-1210.937500
2610		-1210.937500
2611		-1210.937500
2612		-1210.937500
2613		-1210.937500
2614		-1210.937500
2615		-1210.937500
2616		-1210.937500
2617		-1210.937500
2618		-1250.000000
2619		-1250.000000
2620		-1250.000000
2621		-1250.000000
2622		-1250.000000
2623		-1250.000000
2624		-1250.000000
2625		-1250.000000
2626		-1250.000000
2627		-1250.000000
2628		-1250.000000
2629		-1250.000000
2630		-1289.062500
2631		-1289.062500
2632		-1289.062500
2633		-1289.062500
2634		-1289.062500
2635		-1289.062500
2636		-1289.062500
2637		-1289.062500
2638		-1289.062500
2639		-1289.062500
2640		-1289.062500
2641		-1289.062500
2642		-1289.062500
2643		-1289.062500
2644		-1289.062500
2645		-1289.062500
2646		-1328.125000
2647		-1328.125000
2648		-1328.125000
2649		-1328.125000
2650		-1328.125000
2651		-1328.125000
2652		-1328.125000
2653		-1328.125000
2654		-1328.125000
2655		-1328.125000
2656		-1328.125000
2657		-1328.125000
2658		-1328.125000
2659		-1328.125000
2660		-1328.125000
2661		-1328.125000
2662		-1367.187500
2663		-1328.125000
2664		-1367.187500
2665		-1367.187500
2666		-1367.187500
2667		-1367.187500
2668		-1367.187500
2669		-1367.187500
2670		-1367.187500
2671		-1367.187500
2672		-1367.187500
2673		-1367.187500
2674		-1367.187500
2675		-1367.187500
2676		-1367.187500
2677		-1367.187500
2678		-1367.187500
2679		-1367.187500
2680		-1367.187500
2681		-1367.187500
2682		-1406.250000
2683		-1406.250000
2684		-1406.250000
2685		-1406.250000
2686		-1406.250000
2687		-1406.250000
2688		-1406.250000
2689		-1406.250000
2690		-1406.250000
2691		-1406.250000
2692		-1406.250000
2693		-1406.250000
2694		-1406.250000
2695		-1406.250000
2696		-1406.250000
2697		-1406.250000
2698		-1406.250000
2699		-1406.250000
2700		-1445.312500
2701		-1445.312500
2702		-1445.312500
2703		-1445.312500
2704		-1445.312500
2705		-1445.312500
2706		-1445.312500
2707		-1445.312500
2708		-1445.312500
2709		-1445.312500
2710		-1445.312500
2711		-1445.312500
2712		-1445.312500
2713		-1445.312500
2714		-1445.312500
2715		-1445.312500
2716		-1445.312500
2717		-1445.312500
2718		-1484.375000
2719		-1484.375000
2720		-1484.375000
2721		-1484.375000
2722		-1484.375000
2723		-1484.375000
2724		-1484.375000
2725		-1484.375000
2726		-1484.375000
2727		-1484.375000
2728		-1484.375000
2729		-1484.375000
2730		-1484.375000
2731		-1484.375000
2732		-1484.375000
2733		-1484.375000
2734		-1484.375000
2735		-1484.375000
2736		-1484.375000
2737		-1484.375000
2738		-1484.375000
2739		-1523.437500
2740		-1523.437500
2741		-1523.437500
2742		-1523.437500
2743		-1523.437500
2744		-1523.437500
2745		-1523.437500
2746		-1523.437500
2747		-1523.437500
2748		-1523.437500
2749		-1523.437500
2750		-1523.437500
2751		-1523.437500
2752		-1523.437500
2753		-1523.437500
2754		-1523.437500
2755		-1523.437500
2756		-1523.437500
2757		-1523.437500
2758		-1562.500000
2759		-1523.437500
2760		-1562.500000
2761		-1562.500000
2762		-1562.500000
2763		-1562.500000
2764		-1562.500000
2765		-1562.500000
2766		-1562.500000
2767		-1562.500000
2768		-1562.500000
2769		-1562.500000
2770		-1562.500000
2771		-1562.500000
2772		-1562.500000
2773		-1562.500000
2774		-1562.500000
2775		-1562.500000
2776		-1562.500000
2777		-1562.500000
2778		-1562.500000
2779		-1562.500000
2780		-1562.500000
2781		-1562.500000
2782		-1562.500000
2783		-1562.500000
2784		-1562.500000
2785		-1601.562500
2786		-1601.562500
2787		-1601.562500
2788		-1601.562500
2789		-1601.562500
2790		-1601.562500
2791		-1601.562500
2792		-1601.562500
2793		-1601.562500
2794		-1601.562500
2795		-1601.562500
2796		-1601.562500
2797		-1601.562500
2798		-1601.562500
2799		-1601.562500
2800		-1601.562500
2801		-1601.562500
2802		-1601.562500
2803		-1601.562500
2804		-1601.562500
2805		-1601.562500
2806		-1601.562500
2807		-1601.562500
2808		-1601.562500
2809		-1640.625000
2810		-1640.625000
2811		-1640.625000
2812		-1640.625000
2813		-1640.625000
2814		-1640.625000
2815		-1640.625000
2816		-1640.625000
2817		-1640.625000
2818		-1640.625000
2819		-1640.625000
2820		-1640.625000
2821		-1640.625000
2822		-1640.625000
2823		-1640.625000
2824		-1640.625000
2825		-1640.625000
2826		-1640.625000
2827		-1640.625000
2828		-1640.625000
2829		-1640.625000
2830		-1679.687500
2831		-1640.625000
2832		-1640.625000
2833		-1640.625000
2834		-1640.625000
2835		-1640.625000
2836		-1640.625000
2837		-1640.625000
2838		-1640.625000
2839		-1679.687500
2840		-1640.625000
2841		-1679.687500
2842		-1679.687500
2843		-1640.625000
2844		-1679.687500
2845		-1679.687500
2846		-1679.687500
2847		-1679.687500
2848		-1679.687500
2849		-1679.687500
2850		-1679.687500
2851		-1679.687500
2852		-1679.687500
2853		-1679.687500
2854		-1679.687500
2855		-1679.687500
2856		-1679.687500
2857		-1679.687500
2858		-1679.687500
2859		-1679.687500
2860		-1679.687500
2861		-1679.687500
2862		-1679.687500
2863		-1679.687500
2864		-1679.687500
2865		-1718.750000
2866		-1679.687500
2867		-1718.750000
2868		-1718.750000
2869		-1718.750000
2870		-1718.750000
2871		-1718.750000
2872		-1718.750000
2873		-1679.687500
2874		-1679.687500
2875		-1718.750000
2876		-1679.687500
2877		-1718.750000
2878		-1679.687500
2879		-1718.750000
2880		-1718.750000
2881		-1718.750000
2882		-1718.750000
2883		-1718.750000
2884		-1718.750000
2885		-1718.750000
2886		-1718.750000
2887		-1718.750000
2888		-1718.750000
2889		-1718.750000
2890		-1718.750000
2891		-1718.750000
2892		-1718.750000
2893		-1718.750000
2894		-1718.750000
2895		-1718.750000
2896		-1718.750000
2897		-1718.750000
2898		-1718.750000
2899		-1718.750000
2900		-1718.750000
2901		-1718.750000
2902		-1718.750000
2903		-1718.750000
2904		-1718.750000
2905		-1718.750000
2906		-1757.812500
2907		-1718.750000
2908		-1718.750000
2909		-1757.812500
2910		-1718.750000
2911		-1718.750000
2912		-1718.750000
2913		-1718.750000
2914		-1718.750000
2915		-1718.750000
2916		-1718.750000
2917		-1718.750000
2918		-1718.750000
2919		-1757.812500
2920		-1757.812500
2921		-1757.812500
2922		-1757.812500
2923		-1757.812500
2924		-1757.812500
2925		-1757.812500
2926		-1757.812500
2927		-1757.812500
2928		-1757.812500
2929		-1757.812500
2930		-1757.812500
2931		-1757.812500
2932		-1718.750000
2933		-1757.812500
2934		-1757.812500
2935		-1757.812500
2936		-1757.812500
2937		-1757.812500
2938		-1757.812500
2939		-1757.812500
2940		-1757.812500
2941		-1757.812500
2942		-1757.812500
2943		-1757.812500
2944		-1757.812500
2945		-1757.812500
2946		-1757.812500
2947		-1757.812500
2948		-1796.875000
2949		-1757.812500
2950		-1757.812500
2951		-1757.812500
2952		-1757.812500
2953		-1757.812500
2954		-1757.812500
2955		-1757.812500
2956		-1757.812500
2957		-1757.812500
2958		-1757.812500
2959		-1796.875000
2960		-1796.875000
2961		-1796.875000
2962		-1757.812500
2963		-1796.875000
2964		-1796.875000
2965		-1796.875000
2966		-1796.875000
2967		-1796.875000
2968		-1796.875000
2969		-1796.875000
2970		-1796.875000
2971		-1796.875000
2972		-1796.875000
2973		-1796.875000
2974		-1796.875000
2975		-1796.875000
2976		-1796.875000
2977		-1796.875000
2978		-1796.875000
2979		-1796.875000
2980		-1796.875000
2981		-1796.875000
2982		-1796.875000
2983		-1796.875000
2984		-1796.875000
2985		-1796.875000
2986		-1796.875000
2987		-1796.875000
2988		-1796.875000
2989		-1796.875000
2990		-1796.875000
2991		-1796.875000
2992		-1796.875000
2993		-1796.875000
2994		-1796.875000
2995		-1796.875000
2996		-1796.875000
2997		-1796.875000
2998		-1796.875000
2999		-1796.875000
3000		-1796.875000
3001		-1796.875000
3002		-1796.875000
3003		-1796.875000
3004		-1796.875000
3005		-1796.875000
3006		-1796.875000
3007		-1796.875000
3008		-1796.875000
3009		-1796.875000
3010		-1796.875000
3011		-1796.875000
3012		-1796.875000
3013		-1796.875000
3014		-1796.875000
3015		-1796.875000
3016		-1796.875000
3017		-1796.875000
3018		-1796.875000
3019		-1796.875000
3020		-1796.875000
3021		-1796.875000
3022		-1796.875000
3023		-1796.875000
3024		-1796.875000
3025		-1796.875000
3026		-1796.875000
3027		-1835.937500
3028		-1835.937500
3029		-1835.937500
3030		-1796.875000
3031		-1835.937500
3032		-1835.937500
3033		-1835.937500
3034		-1796.875000
3035		-1835.937500
3036		-1796.875000
3037		-1796.875000
3038		-1796.875000
3039		-1835.937500
3040		-1796.875000
3041		-1835.937500
3042		-1835.937500
3043		-1835.937500
3044		-1835.937500
3045		-1835.937500
3046		-1835.937500
3047		-1835.937500
3048		-1835.937500
3049		-1835.937500
3050		-1835.937500
3051		-1835.937500
3052		-1835.937500
3053		-1835.937500
3054		-1796.875000
3055		-1796.875000
3056		-1835.937500
3057		-1796.875000
3058		-1796.875000
3059		-1796.875000
3060		-1796.875000
3061		-1796.875000
3062		-1835.937500
3063		-1835.937500
3064		-1835.937500
3065		-1835.937500
3066		-1835.937500
3067		-1835.937500
3068		-1835.937500
3069		-1835.937500
3070		-1835.937500
3071		-1835.937500
3072		-1835.937500
3073		-1835.937500
3074		-1835.937500
3075		-1835.937500
3076		-1835.937500
3077		-1796.875000
3078		-1796.875000
3079		-1835.937500
3080		-1835.937500
3081		-1835.937500
3082		-1835.937500
3083		-1835.937500
3084		-1835.937500
3085		-1835.937500
3086		-1835.937500
3087		-1835.937500
3088		-1835.937500
3089		-1835.937500
3090		-1835.937500
3091		-1835.937500
3092		-1835.937500
3093		-1835.937500
3094		-1835.937500
3095		-1835.937500
3096		-1835.937500
3097		-1835.937500
3098		-1835.937500
3099		-1835.937500
3100		-1835.937500
3101		-1835.937500
3102		-1835.937500
3103		-1835.937500
3104		-1835.937500
3105		-1835.937500
3106		-1835.937500
3107		-1835.937500
3108		-1835.937500
3109		-1835.937500
3110		-1835.937500
3111		-1835.937500
3112		-1835.937500
3113		-1835.937500
3114		-1835.937500
3115		-1835.937500
3116		-1835.937500
3117		-1835.937500
3118		-1835.937500
3119		-1835.937500
3120		-1835.937500
3121		-1835.937500
3122		-1835.937500
3123		-1835.937500
3124		-1835.937500
3125		-1835.937500
3126		-1835.937500
3127		-1835.937500
3128		-1835.937500
3129		-1835.937500
3130		-1835.937500
3131		-1835.937500
3132		-1835.937500
3133		-1835.937500
3134		-1835.937500
3135		-1835.937500
3136		-1835.937500
3137		-1835.937500
3138		-1835.937500
3139		-1835.937500
3140		-1835.937500
3141		-1835.937500
3142		-1835.937500
3143		-1835.937500
3144		-1835.937500
3145		-1835.937500
3146		-1835.937500
3147		-1835.937500
3148		-1835.937500
3149		-1835.937500
3150		-1835.937500
3151		-1835.937500
3152		-1835.937500
3153		-1835.937500
3154		-1835.937500
3155		-1835.937500
3156		-1835.937500
3157		-1835.937500
3158		-1835.937500
3159		-1835.937500
3160		-1835.937500
3161		-1835.937500
3162		-1835.937500
3163		-1835.937500
3164		-1835.937500
3165		-1835.937500
3166		-1835.937500
3167		-1835.937500
3168		-1835.937500
3169		-1796.875000
3170		-1835.937500
3171		-1835.937500
3172		-1796.875000
3173		-1835.937500
3174		-1835.937500
3175		-1835.937500
3176		-1835.937500
3177		-1835.937500
3178		-1835.937500
3179		-1835.937500
3180		-1835.937500
3181		-1835.937500
3182		-1835.937500
3183		-1835.937500
3184		-1796.875000
3185		-1835.937500
3186		-1796.875000
3187		-1796.875000
3188		-1835.937500
3189		-1835.937500
3190		-1835.937500
3191		-1835.937500
3192		-1835.937500
3193		-1796.875000
3194		-1835.937500
3195		-1796.875000
3196		-1796.875000
3197		-1796.875000
3198		-1796.875000
3199		-1796.875000
3200		-1796.875000
3201		-1796.875000
3202		-1796.875000
3203		-1796.875000
3204		-1796.875000
3205		-1796.875000
3206		-1796.875000
3207		-1796.875000
3208		-1796.875000
3209		-1835.937500
3210		-1835.937500
3211		-1796.875000
3212		-1796.875000
3213		-1796.875000
3214		-1796.875000
3215		-1796.875000
3216		-1796.875000
3217		-1796.875000
3218		-1796.875000
3219		-1796.875000
3220		-1796.875000
3221		-1796.875000
3222		-1796.875000
3223		-1796.875000
3224		-1796.875000
3225		-1796.875000
3226		-1796.875000
3227		-1796.875000
3228		-1796.875000
3229		-1796.875000
3230		-1796.875000
3231		-1796.875000
3232		-1796.875000
3233		-1796.875000
3234		-1796.875000
3235		-1796.875000
3236		-1796.875000
3237		-1796.875000
3238		-1796.875000
3239		-1796.875000
3240		-1796.875000
3241		-1796.875000
3242		-1796.875000
3243		-1796.875000
3244		-1796.875000
3245		-1796.875000
3246		-1796.875000
3247		-1796.875000
3248		-1796.875000
3249		-1796.875000
3250		-1796.875000
3251		-1796.875000
3252		-1796.875000
3253		-1796.875000
3254		-1796.875000
3255		-1796.875000
3256		-1796.875000
3257		-1757.812500
3258		-1796.875000
3259		-1796.875000
3260		-1796.875000
3261		-1796.875000
3262		-1796.875000
3263		-1796.875000
3264		-1796.875000
3265		-1796.875000
3266		-1796.875000
3267		-1796.875000
3268		-1796.875000
3269		-1796.875000
3270		-1796.875000
3271		-1757.812500
3272		-1796.875000
3273		-1757.812500
3274		-1757.812500
3275		-1757.812500
3276		-1757.812500
3277		-1757.812500
3278		-1757.812500
3279		-1757.812500
3280		-1757.812500
3281		-1757.812500
3282		-1757.812500
3283		-1757.812500
3284		-1757.812500
3285		-1757.812500
3286		-1757.812500
3287		-1757.812500
3288		-1757.812500
3289		-1757.812500
3290		-1757.812500
3291		-1757.812500
3292		-1757.812500
3293		-1757.812500
3294		-1757.812500
3295		-1757.812500
3296		-1757.812500
3297		-1757.812500
3298		-1757.812500
3299		-1757.812500
3300		-1757.812500
3301		-1757.812500
3302		-1757.812500
3303		-1757.812500
3304		-1757.812500
3305		-1757.812500
3306		-1718.750000
3307		-1757.812500
3308		-1757.812500
3309		-1757.812500
3310		-1757.812500
3311		-1757.812500
3312		-1757.812500
3313		-1757.812500
3314		-1757.812500
3315		-1757.812500
3316		-1757.812500
3317		-1757.812500
3318		-1757.812500
3319		-1757.812500
3320		-1757.812500
3321		-1757.812500
3322		-1757.812500
3323		-1757.812500
3324		-1718.750000
3325		-1757.812500
3326		-1757.812500
3327		-1718.750000
3328		-1718.750000
3329		-1718.750000
3330		-1718.750000
3331		-1718.750000
3332		-1718.750000
3333		-1718.750000
3334		-1718.750000
3335		-1718.750000
3336		-1718.750000
3337		-1718.750000
3338		-1718.750000
3339		-1718.750000
3340		-1718.750000
3341		-1718.750000
3342		-1718.750000
3343		-1718.750000
3344		-1718.750000
3345		-1718.750000
3346		-1718.750000
3347		-1718.750000
3348		-1718.750000
3349		-1718.750000
3350		-1718.750000
3351		-1718.750000
3352		-1718.750000
3353		-1718.750000
3354		-1718.750000
3355		-1718.750000
3356		-1718.750000
3357		-1718.750000
3358		-1718.750000
3359		-1718.750000
3360		-1679.687500
3361		-1718.750000
3362		-1718.750000
3363		-1718.750000
3364		-1679.687500
3365		-1679.687500
3366		-1679.687500
3367		-1679.687500
3368		-1679.687500
3369		-1679.687500
3370		-1679.687500
3371		-1679.687500
3372		-1679.687500
3373		-1679.687500
3374		-1679.687500
3375		-1679.687500
3376		-1679.687500
3377		-1679.687500
3378		-1679.687500
3379		-1679.687500
3380		-1679.687500
3381		-1679.687500
3382		-1679.687500
3383		-1679.687500
3384		-1679.687500
3385		-1679.687500
3386		-1679.687500
3387		-1679.687500
3388		-1679.687500
3389		-1679.687500
3390		-1679.687500
3391		-1679.687500
3392		-1679.687500
3393		-1640.625000
3394		-1679.687500
3395		-1640.625000
3396		-1640.625000
3397		-1640.625000
3398		-1640.625000
3399		-1640.625000
3400		-1640.625000
3401		-1640.625000
3402		-1640.625000
3403		-1640.625000
3404		-1640.625000
3405		-1640.625000
3406		-1640.625000
3407		-1640.625000
3408		-1640.625000
3409		-1640.625000
3410		-1640.625000
3411		-1640.625000
3412		-1640.625000
3413		-1640.625000
3414		-1640.625000
3415		-1640.625000
3416		-1640.625000
3417		-1640.625000
3418		-1601.562500
3419		-1601.562500
3420		-1601.562500
3421		-1640.625000
3422		-1640.625000
3423		-1601.562500
3424		-1601.562500
3425		-1601.562500
3426		-1601.562500
3427		-1640.625000
3428		-1640.625000
3429		-1601.562500
3430		-1601.562500
3431		-1601.562500
3432		-1601.562500
3433		-1601.562500
3434		-1640.625000
3435		-1601.562500
3436		-1601.562500
3437		-1601.562500
3438		-1601.562500
3439		-1601.562500
3440		-1562.500000
3441		-1601.562500
3442		-1601.562500
3443		-1601.562500
3444		-1562.500000
3445		-1601.562500
3446		-1601.562500
3447		-1601.562500
3448		-1601.562500
3449		-1562.500000
3450		-1562.500000
3451		-1562.500000
3452		-1562.500000
3453		-1562.500000
3454		-1562.500000
3455		-1562.500000
3456		-1562.500000
3457		-1562.500000
3458		-1562.500000
3459		-1562.500000
3460		-1562.500000
3461		-1562.500000
3462		-1562.500000
3463		-1562.500000
3464		-1562.500000
3465		-1562.500000
3466		-1562.500000
3467		-1562.500000
3468		-1562.500000
3469		-1562.500000
3470		-1523.437500
3471		-1523.437500
3472		-1523.437500
3473		-1523.437500
3474		-1523.437500
3475		-1523.437500
3476		-1523.437500
3477		-1523.437500
3478		-1523.437500
3479		-1523.437500
3480		-1523.437500
3481		-1523.437500
3482		-1523.437500
3483		-1523.437500
3484		-1523.437500
3485		-1523.437500
3486		-1523.437500
3487		-1523.437500
3488		-1523.437500
3489		-1484.375000
3490		-1484.375000
3491		-1484.375000
3492		-1484.375000
3493		-1484.375000
3494		-1484.375000
3495		-1484.375000
3496		-1484.375000
3497		-1484.375000
3498		-1484.375000
3499		-1484.375000
3500		-1484.375000
3501		-1484.375000
3502		-1484.375000
3503		-1484.375000
3504		-1484.375000
3505		-1484.375000
3506		-1484.375000
3507		-1484.375000
3508		-1445.312500
3509		-1445.312500
3510		-1445.312500
3511		-1445.312500
3512		-1445.312500
3513		-1445.312500
3514		-1445.312500
3515		-1445.312500
3516		-1445.312500
3517		-1445.312500
3518		-1445.312500
3519		-1445.312500
3520		-1445.312500
3521		-1445.312500
3522		-1445.312500
3523		-1445.312500
3524		-1445.312500
3525		-1406.250000
3526		-1406.250000
3527		-1406.250000
3528		-1406.250000
3529		-1406.250000
3530		-1406.250000
3531		-1406.250000
3532		-1406.250000
3533		-1406.250000
3534		-1406.250000
3535		-1406.250000
3536		-1406.250000
3537		-1406.250000
3538		-1406.250000
3539		-1367.187500
3540		-1406.250000
3541		-1406.250000
3542		-1367.187500
3543		-1367.187500
3544		-1367.187500
3545		-1367.187500
3546		-1367.187500
3547		-1367.187500
3548		-1367.187500
3549		-1367.187500
3550		-1367.187500
3551		-1367.187500
3552		-1367.187500
3553		-1367.187500
3554		-1367.187500
3555		-1367.187500
3556		-1328.125000
3557		-1367.187500
3558		-1328.125000
3559		-1328.125000
3560		-1328.125000
3561		-1328.125000
3562		-1328.125000
3563		-1328.125000
3564		-1328.125000
3565		-1328.125000
3566		-1328.125000
3567		-1328.125000
3568		-1328.125000
3569		-1328.125000
3570		-1328.125000
3571		-1328.125000
3572		-1289.062500
3573		-1289.062500
3574		-1289.062500
3575		-1289.062500
3576		-1289.062500
3577		-1289.062500
3578		-1289.062500
3579		-1289.062500
3580		-1289.062500
3581		-1289.062500
3582		-1289.062500
3583		-1289.062500
3584		-1289.062500
3585		-1250.000000
3586		-1289.062500
3587		-1289.062500
3588		-1289.062500
3589		-1250.000000
3590		-1250.000000
3591		-1250.000000
3592		-1250.000000
3593		-1250.000000
3594		-1250.000000
3595		-1250.000000
3596		-1250.000000
3597		-1250.000000
3598		-1210.937500
3599		-1210.937500
3600		-1210.937500
3601		-1210.937500
3602		-1210.937500
3603		-1210.937500
3604		-1210.937500
3605		-1210.937500
3606		-1210.937500
3607		-1210.937500
3608		-1210.937500
3609		-1210.937500
3610		-1210.937500
3611		-1210.937500
3612		-1210.937500
3613		-1210.937500
3614		-1171.875000
3615		-1171.875000
3616		-1171.875000
3617		-1171.875000
3618		-1171.875000
3619		-1171.875000
3620		-1171.875000
3621		-1171.875000
3622		-1171.875000
3623		-1171.875000
3624		-1171.875000
3625		-1171.875000
3626		-1171.875000
3627		-1171.875000
3628		-1171.875000
3629		-1132.812500
3630		-1132.812500
3631		-1132.812500
3632		-1132.812500
3633		-1132.812500
3634		-1132.812500
3635		-1132.812500
3636		-1132.812500
3637		-1132.812500
3638		-1132.812500
3639		-1132.812500
3640		-1132.812500
3641		-1132.812500
3642		-1132.812500
3643		-1132.812500
3644		-1132.812500
3645		-1093.750000
3646		-1093.750000
3647		-1093.750000
3648		-1093.750000
3649		-1093.750000
3650		-1093.750000
3651		-1093.750000
3652		-1093.750000
3653		-1093.750000
3654		-1093.750000
3655		-1054.687500
3656		-1054.687500
3657		-1054.687500
3658		-1054.687500
3659		-1054.687500
3660		-1054.687500
3661		-1054.687500
3662		-1054.687500
3663		-1054.687500
3664		-1054.687500
3665		-1054.687500
3666		-1054.687500
3667		-1054.687500
3668		-1054.687500
3669		-1015.625000
3670		-1015.625000
3671		-1015.625000
3672		-1015.625000
3673		-1015.625000
3674		-1015.625000
3675		-1015.625000
3676		-1015.625000
3677		-1015.625000
3678		-1015.625000
3679		-1015.625000
3680		-1015.625000
3681		-1015.625000
3682		-1015.625000
3683		-1015.625000
3684		-1015.625000
3685		-1015.625000
3686		-976.562500
3687		-976.562500
3688		-976.562500
3689		-976.562500
3690		-976.562500
3691		-976.562500
3692		-976.562500
3693		-976.562500
3694		-976.562500
3695		-976.562500
3696		-976.562500
3697		-937.500000
3698		-937.500000
3699		-976.562500
3700		-937.500000
3701		-937.500000
3702		-937.500000
3703		-937.500000
3704		-937.500000
3705		-937.500000
3706		-937.500000
3707		-937.500000
3708		-937.500000
3709		-937.500000
3710		-937.500000
3711		-898.437500
3712		-898.437500
3713		-898.437500
3714		-898.437500
3715		-898.437500
3716		-898.437500
3717		-898.437500
3718		-898.437500
3719		-898.437500
3720		-898.437500
3721		-898.437500
3722		-898.437500
3723		-898.437500
3724		-898.437500
3725		-898.437500
3726		-859.375000
3727		-898.437500
3728		-859.375000
3729		-859.375000
3730		-859.375000
3731		-859.375000
3732		-859.375000
3733		-859.375000
3734		-859.375000
3735		-859.375000
3736		-859.375000
3737		-859.375000
3738		-859.375000
3739		-859.375000
3740		-859.375000
3741		-820.312500
3742		-820.312500
3743		-820.312500
3744		-820.312500
3745		-820.312500
3746		-820.312500
3747		-820.312500
3748		-820.312500
3749		-820.312500
3750		-820.312500
3751		-820.312500
3752		-820.312500
3753		-820.312500
3754		-820.312500
3755		-820.312500
3756		-820.312500
3757		-781.250000
3758		-781.250000
3759		-781.250000
3760		-781.250000
3761		-781.250000
3762		-781.250000
3763		-781.250000
3764		-781.250000
3765		-781.250000
3766		-781.250000
3767		-781.250000
3768		-781.250000
3769		-781.250000
3770		-781.250000
3771		-781.250000
3772		-742.187500
3773		-742.187500
3774		-742.187500
3775		-742.187500
3776		-742.187500
3777		-742.187500
3778		-742.187500
3779		-742.187500
3780		-742.187500
3781		-742.187500
3782		-742.187500
3783		-742.187500
3784		-742.187500
3785		-742.187500
3786		-742.187500
3787		-742.187500
3788		-742.187500
3789		-742.187500
3790		-742.187500
3791		-742.187500
3792		-703.125000
3793		-703.125000
3794		-703.125000
3795		-703.125000
3796		-703.125000
3797		-703.125000
3798		-703.125000
3799		-703.125000
3800		-703.125000
3801		-703.125000
3802		-703.125000
3803		-703.125000
3804		-703.125000
3805		-703.125000
3806		-703.125000
3807		-703.125000
3808		-703.125000
3809		-703.125000
3810		-703.125000
3811		-664.062500
3812		-664.062500
3813		-664.062500
3814		-664.062500
3815		-664.062500
3816		-664.062500
3817		-664.062500
3818		-664.062500
3819		-664.062500
3820		-664.062500
3821		-664.062500
3822		-664.062500
3823		-664.062500
3824		-664.062500
3825		-664.062500
3826		-664.062500
3827		-664.062500
3828		-664.062500
3829		-664.062500
3830		-664.062500
3831		-625.000000
3832		-625.000000
3833		-625.000000
3834		-625.000000
3835		-625.000000
3836		-625.000000
3837		-625.000000
3838		-625.000000
3839		-625.000000
3840		-625.000000
3841		-625.000000
3842		-625.000000
3843		-625.000000
3844		-625.000000
3845		-625.000000
3846		-625.000000
3847		-625.000000
3848		-625.000000
3849		-625.000000
3850		-625.000000
3851		-625.000000
3852		-625.000000
3853		-585.937500
3854		-585.937500
3855		-585.937500
3856		-585.937500
3857		-585.937500
3858		-585.937500
3859		-585.937500
3860		-585.937500
3861		-625.000000
3862		-585.937500
3863		-585.937500
3864		-625.000000
3865		-585.937500
3866		-585.937500
3867		-585.937500
3868		-585.937500
3869		-585.937500
3870		-585.937500
3871		-585.937500
3872		-585.937500
3873		-585.937500
3874		-585.937500
3875		-585.937500
3876		-585.937500
3877		-585.937500
3878		-585.937500
3879		-585.937500
3880		-585.937500
3881		-585.937500
3882		-585.937500
3883		-585.937500
3884		-585.937500
3885		-585.937500
3886		-585.937500
3887		-585.937500
3888		-585.937500
3889		-546.875000
3890		-546.875000
3891		-546.875000
3892		-546.875000
3893		-546.875000
3894		-546.875000
3895		-546.875000
3896		-546.875000
3897		-546.875000
3898		-546.875000
3899		-585.937500
3900		-546.875000
3901		-546.875000
3902		-546.875000
3903		-585.937500
3904		-546.875000
3905		-546.875000
3906		-585.937500
3907		-546.875000
3908		-546.875000
3909		-546.875000
3910		-546.875000
3911		-546.875000
3912		-546.875000
3913		-546.875000
3914		-546.875000
3915		-546.875000
3916		-546.875000
3917		-546.875000
3918		-546.875000
3919		-546.875000
3920		-546.875000
3921		-546.875000
3922		-546.875000
3923		-546.875000
3924		-546.875000
3925		-546.875000
3926		-546.875000
3927		-546.875000
3928		-546.875000
3929		-546.875000
3930		-546.875000
3931		-546.875000
3932		-546.875000
3933		-546.875000
3934		-546.875000
3935		-546.875000
3936		-546.875000
3937		-546.875000
3938		-546.875000
3939		-546.875000
3940		-546.875000
3941		-546.875000
3942		-546.875000
3943		-546.875000
3944		-546.875000
3945		-546.875000
3946		-546.875000
3947		-546.875000
3948		-546.875000
3949		-546.875000
3950		-546.875000
3951		-546.875000
3952		-546.875000
3953		-546.875000
3954		-546.875000
3955		-546.875000
3956		-546.875000
3957		-546.875000
3958		-546.875000
3959		-546.875000
3960		-546.875000
3961		-546.875000
3962		-546.875000
3963		-546.875000
3964		-546.875000
3965		-546.875000
3966		-546.875000
3967		-546.875000
3968		-546.875000
3969		-546.875000
3970		-546.875000
3971		-546.875000
3972		-585.937500
3973		-546.875000
3974		-546.875000
3975		-546.875000
3976		-546.875000
3977		-546.875000
3978		-585.937500
3979		-546.875000
3980		-546.875000
3981		-546.875000
3982		-585.937500
3983		-585.937500
3984		-585.937500
3985		-585.937500
3986		-585.937500
3987		-585.937500
3988		-585.937500
3989		-585.937500
3990		-585.937500
3991		-585.937500
3992		-585.937500
3993		-546.875000
3994		-585.937500
3995		-585.937500
3996		-585.937500
3997		-585.937500
3998		-585.937500
3999		-585.937500
4000		-585.937500
4001		-585.937500
4002		-585.937500
4003		-585.937500
4004		-585.937500
4005		-585.937500
4006		-585.937500
4007		-585.937500
4008		-625.000000
4009		-585.937500
4010		-585.937500
4011		-585.937500
4012		-585.937500
4013		-585.937500
4014		-625.000000
4015		-585.937500
4016		-585.937500
4017		-585.937500
4018		-585.937500
4019		-585.937500
4020		-585.937500
4021		-625.000000
4022		-625.000000
4023		-625.000000
4024		-625.000000
4025		-625.000000
4026		-625.000000
4027		-625.000000
4028		-625.000000
4029		-625.000000
4030		-625.000000
4031		-625.000000
4032		-625.000000
4033		-625.000000
4034		-625.000000
4035		-625.000000
4036		-625.000000
4037		-625.000000
4038		-625.000000
4039		-625.000000
4040		-625.000000
4041		-664.062500
4042		-664.062500
4043		-664.062500
4044		-664.062500
4045		-664.062500
4046		-664.062500
4047		-664.062500
4048		-664.062500
4049		-664.062500
4050		-664.062500
4051		-664.062500
4052		-664.062500
4053		-664.062500
4054		-664.062500
4055		-664.062500
4056		-664.062500
4057		-664.062500
4058		-664.062500
4059		-664.062500
4060		-664.062500
4061		-664.062500
4062		-703.125000
4063		-703.125000
4064		-703.125000
4065		-703.125000
4066		-703.125000
4067		-703.125000
4068		-703.125000
4069		-703.125000
4070		-703.125000
4071		-703.125000
4072		-703.125000
4073		-703.125000
4074		-703.125000
4075		-703.125000
4076		-703.125000
4077		-703.125000
4078		-703.125000
4079		-703.125000
4080		-742.187500
4081		-742.187500
4082		-742.187500
4083		-742.187500
4084		-742.187500
4085		-742.187500
4086		-742.187500
4087		-742.187500
4088		-742.187500
4089		-742.187500
4090		-742.187500
4091		-742.187500
4092		-742.187500
4093		-742.187500
4094		-742.187500
4095		-742.187500
4096		-742.187500
4097		-742.187500
4098		-742.187500
4099		-781.250000
4100		-742.187500
4101		-781.250000
4102		-781.250000
4103		-781.250000
4104		-781.250000
4105		-781.250000
4106		-781.250000
4107		-781.250000
4108		-781.250000
4109		-781.250000
4110		-781.250000
4111		-781.250000
4112		-781.250000
4113		-781.250000
4114		-781.250000
4115		-781.250000
4116		-781.250000
4117		-820.312500
4118		-781.250000
4119		-820.312500
4120		-820.312500
4121		-820.312500
4122		-820.312500
4123		-820.312500
4124		-820.312500
4125		-820.312500
4126		-820.312500
4127		-820.312500
4128		-820.312500
4129		-820.312500
4130		-820.312500
4131		-820.312500
4132		-859.375000
4133		-820.312500
4134		-859.375000
4135		-859.375000
4136		-859.375000
4137		-859.375000
4138		-859.375000
4139		-859.375000
4140		-859.375000
4141		-859.375000
4142		-859.375000
4143		-859.375000
4144		-859.375000
4145		-859.375000
4146		-859.375000
4147		-859.375000
4148		-859.375000
4149		-898.437500
4150		-898.437500
4151		-898.437500
4152		-898.437500
4153		-898.437500
4154		-898.437500
4155		-937.500000
4156		-898.437500
4157		-898.437500
4158		-898.437500
4159		-898.437500
4160		-898.437500
4161		-898.437500
4162		-898.437500
4163		-898.437500
4164		-937.500000
4165		-937.500000
4166		-937.500000
4167		-937.500000
4168		-937.500000
4169		-937.500000
4170		-937.500000
4171		-937.500000
4172		-937.500000
4173		-937.500000
4174		-937.500000
4175		-937.500000
4176		-937.500000
4177		-937.500000
4178		-937.500000
4179		-937.500000
4180		-976.562500
4181		-976.562500
4182		-976.562500
4183		-976.562500
4184		-976.562500
4185		-976.562500
4186		-976.562500
4187		-976.562500
4188		-976.562500
4189		-1015.625000
4190		-976.562500
4191		-1015.625000
4192		-1015.625000
4193		-1015.625000
4194		-1015.625000
4195		-1015.625000
4196		-1015.625000
4197		-1015.625000
4198		-1015.625000
4199		-1015.625000
4200		-1015.625000
4201		-1015.625000
4202		-1015.625000
4203		-1054.687500
4204		-1054.687500
4205		-1054.687500
4206		-1054.687500
4207		-1054.687500
4208		-1054.687500
4209		-1054.687500
4210		-1054.687500
4211		-1054.687500
4212		-1054.687500
4213		-1054.687500
4214		-1054.687500
4215		-1054.687500
4216		-1054.687500
4217		-1054.687500
4218		-1054.687500
4219		-1054.687500
4220		-1093.750000
4221		-1093.750000
4222		-1093.750000
4223		-1093.750000
4224		-1093.750000
4225		-1093.750000
4226		-1093.750000
4227		-1093.750000
4228		-1093.750000
4229		-1093.750000
4230		-1093.750000
4231		-1093.750000
4232		-1093.750000
4233		-1093.750000
4234		-1093.750000
4235		-1132.812500
4236		-1132.812500
4237		-1132.812500
4238		-1132.812500
4239		-1132.812500
4240		-1132.812500
4241		-1132.812500
4242		-1132.812500
4243		-1132.812500
4244		-1132.812500
4245		-1132.812500
4246		-1171.875000
4247		-1171.875000
4248		-1171.875000
4249		-1171.875000
4250		-1171.875000
4251		-1171.875000
4252		-1171.875000
4253		-1171.875000
4254		-1171.875000
4255		-1171.875000
4256		-1171.875000
4257		-1171.875000
4258		-1171.875000
4259		-1171.875000
4260		-1210.937500
4261		-1210.937500
4262		-1210.937500
4263		-1210.937500
4264		-1210.937500
4265		-1210.937500
4266		-1210.937500
4267		-1210.937500
4268		-1210.937500
4269		-1210.937500
4270		-1210.937500
4271		-1210.937500
4272		-1210.937500
4273		-1210.937500
4274		-1210.937500
4275		-1210.937500
4276		-1210.937500
4277		-1210.937500
4278		-1250.000000
4279		-1250.000000
4280		-1250.000000
4281		-1250.000000
4282		-1250.000000
4283		-1250.000000
4284		-1250.000000
4285		-1250.000000
4286		-1250.000000
4287		-1250.000000
4288		-1250.000000
4289		-1250.000000
4290		-1250.000000
4291		-1250.000000
4292		-1289.062500
4293		-1289.062500
4294		-1289.062500
4295		-1289.062500
4296		-1289.062500
4297		-1289.062500
4298		-1289.062500
4299		-1289.062500
4300		-1289.062500
4301		-1289.062500
4302		-1289.062500
4303		-1289.062500
4304		-1289.062500
4305		-1289.062500
4306		-1328.125000
4307		-1328.125000
4308		-1328.125000
4309		-1328.125000
4310		-1328.125000
4311		-1328.125000
4312		-1328.125000
4313		-1328.125000
4314		-1328.125000
4315		-1328.125000
4316		-1328.125000
4317		-1328.125000
4318		-1328.125000
4319		-1328.125000
4320		-1328.125000
4321		-1328.125000
4322		-1328.125000
4323		-1328.125000
4324		-1328.125000
4325		-1328.125000
4326		-1367.187500
4327		-1367.187500
4328		-1367.187500
4329		-1367.187500
4330		-1367.187500
4331		-1367.187500
4332		-1367.187500
4333		-1367.187500
4334		-1367.187500
4335		-1367.187500
4336		-1367.187500
4337		-1367.187500
4338		-1367.187500
4339		-1367.187500
4340		-1367.187500
4341		-1367.187500
4342		-1406.250000
4343		-1406.250000
4344		-1406.250000
4345		-1406.250000
4346		-1406.250000
4347		-1406.250000
4348		-1406.250000
4349		-1406.250000
4350		-1406.250000
4351		-1406.250000
4352		-1445.312500
4353		-1406.250000
4354		-1406.250000
4355		-1406.250000
4356		-1406.250000
4357		-1406.250000
4358		-1406.250000
4359		-1406.250000
4360		-1445.312500
4361		-1445.312500
4362		-1445.312500
4363		-1445.312500
4364		-1445.312500
4365		-1445.312500
4366		-1445.312500
4367		-1445.312500
4368		-1445.312500
4369		-1445.312500
4370		-1445.312500
4371		-1445.312500
4372		-1445.312500
4373		-1445.312500
4374		-1445.312500
4375		-1445.312500
4376		-1445.312500
4377		-1445.312500
4378		-1445.312500
4379		-1445.312500
4380		-1445.312500
4381		-1445.312500
4382		-1484.375000
4383		-1484.375000
4384		-1484.375000
4385		-1484.375000
4386		-1484.375000
4387		-1484.375000
4388		-1484.375000
4389		-1484.375000
4390		-1484.375000
4391		-1484.375000
4392		-1484.375000
4393		-1484.375000
4394		-1484.375000
4395		-1484.375000
4396		-1484.375000
4397		-1484.375000
4398		-1484.375000
4399		-1484.375000
4400		-1484.375000
4401		-1484.375000
4402		-1523.437500
4403		-1523.437500
4404		-1523.437500
4405		-1523.437500
4406		-1523.437500
4407		-1523.437500
4408		-1523.437500
4409		-1523.437500
4410		-1523.437500
4411		-1523.437500
4412		-1523.437500
4413		-1523.437500
4414		-1523.437500
4415		-1523.437500
4416		-1523.437500
4417		-1523.437500
4418		-1523.437500
4419		-1523.437500
4420		-1523.437500
4421		-1523.437500
4422		-1562.500000
4423		-1562.500000
4424		-1562.500000
4425		-1562.500000
4426		-1562.500000
4427		-1562.500000
4428		-1523.437500
4429		-1562.500000
4430		-1562.500000
4431		-1562.500000
4432		-1562.500000
4433		-1562.500000
4434		-1562.500000
4435		-1562.500000
4436		-1562.500000
4437		-1562.500000
4438		-1562.500000
4439		-1562.500000
4440		-1562.500000
4441		-1562.500000
4442		-1562.500000
4443		-1562.500000
4444		-1601.562500
4445		-1562.500000
4446		-1562.500000
4447		-1601.562500
4448		-1562.500000
4449		-1562.500000
4450		-1601.562500
4451		-1562.500000
4452		-1601.562500
4453		-1562.500000
4454		-1601.562500
4455		-1601.562500
4456		-1601.562500
4457		-1601.562500
4458		-1601.562500
4459		-1601.562500
4460		-1601.562500
4461		-1601.562500
4462		-1601.562500
4463		-1601.562500
4464		-1601.562500
4465		-1601.562500
4466		-1601.562500
4467		-1601.562500
4468		-1601.562500
4469		-1601.562500
4470		-1601.562500
4471		-1601.562500
4472		-1601.562500
4473		-1601.562500
4474		-1601.562500
4475		-1601.562500
4476		-1640.625000
4477		-1601.562500
4478		-1601.562500
4479		-1640.625000
4480		-1640.625000
4481		-1640.625000
4482		-1640.625000
4483		-1640.625000
4484		-1640.625000
4485		-1640.625000
4486		-1640.625000
4487		-1640.625000
4488		-1640.625000
4489		-1640.625000
4490		-1640.625000
4491		-1640.625000
4492		-1640.625000
4493		-1640.625000
4494		-1640.625000
4495		-1640.625000
4496		-1640.625000
4497		-1640.625000
4498		-1640.625000
4499		-1640.625000
4500		-1640.625000
4501		-1640.625000
4502		-1640.625000
4503		-1679.687500
4504		-1640.625000
4505		-1640.625000
4506		-1640.625000
4507		-1679.687500
4508		-1679.687500
4509		-1679.687500
4510		-1679.687500
4511		-1679.687500
4512		-1679.687500
4513		-1679.687500
4514		-1679.687500
4515		-1679.687500
4516		-1679.687500
4517		-1679.687500
4518		-1679.687500
4519		-1679.687500
4520		-1679.687500
4521		-1679.687500
4522		-1679.687500
4523		-1679.687500
4524		-1679.687500
4525		-1679.687500
4526		-1679.687500
4527		-1679.687500
4528		-1679.687500
4529		-1679.687500
4530		-1679.687500
4531		-1679.687500
4532		-1679.687500
4533		-1679.687500
4534		-1679.687500
4535		-1679.687500
4536		-1679.687500
4537		-1679.687500
4538		-1679.687500
4539		-1679.687500
4540		-1679.687500
4541		-1679.687500
4542		-1679.687500
4543		-1679.687500
4544		-1718.750000
4545		-1679.687500
4546		-1679.687500
4547		-1718.750000
4548		-1718.750000
4549		-1718.750000
4550		-1718.750000
4551		-1718.750000
4552		-1679.687500
4553		-1718.750000
4554		-1679.687500
4555		-1679.687500
4556		-1718.750000
4557		-1718.750000
4558		-1718.750000
4559		-1718.750000
4560		-1718.750000
4561		-1718.750000
4562		-1718.750000
4563		-1718.750000
4564		-1718.750000
4565		-1718.750000
4566		-1718.750000
4567		-1718.750000
4568		-1718.750000
4569		-1718.750000
4570		-1718.750000
4571		-1718.750000
4572		-1718.750000
4573		-1718.750000
4574		-1718.750000
4575		-1718.750000
4576		-1718.750000
4577		-1718.750000
4578		-1718.750000
4579		-1718.750000
4580		-1718.750000
4581		-1718.750000
4582		-1718.750000
4583		-1718.750000
4584		-1718.750000
4585		-1718.750000
4586		-1718.750000
4587		-1757.812500
4588		-1718.750000
4589		-1718.750000
4590		-1757.812500
4591		-1718.750000
4592		-1718.750000
4593		-1718.750000
4594		-1718.750000
4595		-1718.750000
4596		-1718.750000
4597		-1718.750000
4598		-1718.750000
4599		-1718.750000
4600		-1757.812500
4601		-1718.750000
4602		-1757.812500
4603		-1757.812500
4604		-1757.812500
4605		-1757.812500
4606		-1757.812500
4607		-1757.812500
4608		-1757.812500
4609		-1757.812500
4610		-1757.812500
4611		-1757.812500
4612		-1718.750000
4613		-1757.812500
4614		-1757.812500
4615		-1757.812500
4616		-1757.812500
4617		-1757.812500
4618		-1757.812500
4619		-1757.812500
4620		-1757.812500
4621		-1757.812500
4622		-1757.812500
4623		-1757.812500
4624		-1757.812500
4625		-1757.812500
4626		-1757.812500
4627		-1757.812500
4628		-1757.812500
4629		-1757.812500
4630		-1757.812500
4631		-1757.812500
4632		-1757.812500
4633		-1757.812500
4634		-1757.812500
4635		-1757.812500
4636		-1757.812500
4637		-1757.812500
4638		-1757.812500
4639		-1757.812500
4640		-1757.812500
4641		-1757.812500
4642		-1757.812500
4643		-1757.812500
4644		-1757.812500
4645		-1757.812500
4646		-1757.812500
4647		-1757.812500
4648		-1757.812500
4649		-1757.812500
4650		-1757.812500
4651		-1757.812500
4652		-1757.812500
4653		-1757.812500
4654		-1757.812500
4655		-1757.812500
4656		-1757.812500
4657		-1757.812500
4658		-1757.812500
4659		-1757.812500
4660		-1757.812500
4661		-1757.812500
4662		-1757.812500
4663		-1757.812500
4664		-1757.812500
4665		-1757.812500
4666		-1757.812500
4667		-1757.812500
4668		-1757.812500
4669		-1757.812500
4670		-1757.812500
4671		-1757.812500
4672		-1757.812500
4673		-1757.812500
4674		-1757.812500
4675		-1796.875000
4676		-1757.812500
4677		-1757.812500
4678		-1796.875000
4679		-1757.812500
4680		-1796.875000
4681		-1796.875000
4682		-1796.875000
4683		-1796.875000
4684		-1796.875000
4685		-1796.875000
4686		-1796.875000
4687		-1757.812500
4688		-1796.875000
4689		-1796.875000
4690		-1796.875000
4691		-1796.875000
4692		-1796.875000
4693		-1796.875000
4694		-1796.875000
4695		-1796.875000
4696		-1796.875000
4697		-1796.875000
4698		-1796.875000
4699		-1796.875000
4700		-1796.875000
4701		-1796.875000
4702		-1796.875000
4703		-1796.875000
4704		-1796.875000
4705		-1796.875000
4706		-1796.875000
4707		-1796.875000
4708		-1796.875000
4709		-1796.875000
4710		-1757.812500
4711		-1796.875000
4712		-1796.875000
4713		-1796.875000
4714		-1796.875000
4715		-1796.875000
4716		-1796.875000
4717		-1796.875000
4718		-1796.875000
4719		-1796.875000
4720		-1796.875000
4721		-1796.875000
4722		-1796.875000
4723		-1796.875000
4724		-1796.875000
4725		-1796.875000
4726		-1796.875000
4727		-1796.875000
4728		-1796.875000
4729		-1796.875000
4730		-1796.875000
4731		-1796.875000
4732		-1796.875000
4733		-1796.875000
4734		-1796.875000
4735		-1796.875000
4736		-1796.875000
4737		-1796.875000
4738		-1796.875000
4739		-1796.875000
4740		-1796.875000
4741		-1796.875000
4742		-1796.875000
4743		-1796.875000
4744		-1796.875000
4745		-1796.875000
4746		-1796.875000
4747		-1796.875000
4748		-1796.875000
4749		-1796.875000
4750		-1796.875000
4751		-1796.875000
4752		-1796.875000
4753		-1796.875000
4754		-1796.875000
4755		-1757.812500
4756		-1796.875000
4757		-1796.875000
4758		-1796.875000
4759		-1796.875000
4760		-1796.875000
4761		-1796.875000
4762		-1796.875000
4763		-1796.875000
4764		-1796.875000
4765		-1796.875000
4766		-1796.875000
4767		-1796.875000
4768		-1796.875000
4769		-1796.875000
4770		-1796.875000
4771		-1796.875000
4772		-1796.875000
4773		-1796.875000
4774		-1796.875000
4775		-1796.875000
4776		-1796.875000
4777		-1796.875000
4778		-1796.875000
4779		-1796.875000
4780		-1796.875000
4781		-1796.875000
4782		-1796.875000
4783		-1796.875000
4784		-1796.875000
4785		-1796.875000
4786		-1796.875000
4787		-1796.875000
4788		-1796.875000
4789		-1796.875000
4790		-1796.875000
4791		-1796.875000
4792		-1796.875000
4793		-1796.875000
4794		-1796.875000
4795		-1796.875000
4796		-1796.875000
4797		-1796.875000
4798		-1796.875000
4799		-1796.875000
4800		-1796.875000
4801		-1796.875000
4802		-1796.875000
4803		-1796.875000
4804		-1796.875000
4805		-1796.875000
4806		-1796.875000
4807		-1796.875000
4808		-1796.875000
4809		-1796.875000
4810		-1796.875000
4811		-1757.812500
4812		-1757.812500
4813		-1796.875000
4814		-1796.875000
4815		-1757.812500
4816		-1796.875000
4817		-1796.875000
4818		-1796.875000
4819		-1796.875000
4820		-1796.875000
4821		-1796.875000
4822		-1796.875000
4823		-1796.875000
4824		-1796.875000
4825		-1796.875000
4826		-1796.875000
4827		-1796.875000
4828		-1796.875000
4829		-1757.812500
4830		-1796.875000
4831		-1757.812500
4832		-1796.875000
4833		-1757.812500
4834		-1757.812500
4835		-1757.812500
4836		-1757.812500
4837		-1796.875000
4838		-1796.875000
4839		-1796.875000
4840		-1757.812500
4841		-1796.875000
4842		-1796.875000
4843		-1796.875000
4844		-1835.937500
4845		-1796.875000
4846		-1796.875000
4847		-1757.812500
4848		-1757.812500
4849		-1757.812500
4850		-1757.812500
4851		-1757.812500
4852		-1757.812500
4853		-1757.812500
4854		-1757.812500
4855		-1757.812500
4856		-1757.812500
4857		-1757.812500
4858		-1757.812500
4859		-1757.812500
4860		-1757.812500
4861		-1757.812500
4862		-1757.812500
4863		-1757.812500
4864		-1757.812500
4865		-1757.812500
4866		-1757.812500
4867		-1757.812500
4868		-1757.812500
4869		-1757.812500
4870		-1757.812500
4871		-1757.812500
4872		-1757.812500
4873		-1757.812500
4874		-1757.812500
4875		-1757.812500
4876		-1757.812500
4877		-1757.812500
4878		-1757.812500
4879		-1757.812500
4880		-1757.812500
4881		-1757.812500
4882		-1757.812500
4883		-1757.812500
4884		-1757.812500
4885		-1757.812500
4886		-1757.812500
4887		-1757.812500
4888		-1757.812500
4889		-1757.812500
4890		-1757.812500
4891		-1757.812500
4892		-1757.812500
4893		-1757.812500
4894		-1757.812500
4895		-1757.812500
4896		-1757.812500
4897		-1757.812500
4898		-1757.812500
4899		-1757.812500
4900		-1757.812500
4901		-1757.812500
4902		-1757.812500
4903		-1757.812500
4904		-1757.812500
4905		-1757.812500
4906		-1757.812500
4907		-1757.812500
4908		-1757.812500
4909		-1757.812500
4910		-1757.812500
4911		-1757.812500
4912		-1757.812500
4913		-1757.812500
4914		-1757.812500
4915		-1757.812500
4916		-1757.812500
4917		-1718.750000
4918		-1718.750000
4919		-1718.750000
4920		-1718.750000
4921		-1718.750000
4922		-1718.750000
4923		-1718.750000
4924		-1718.750000
4925		-1757.812500
4926		-1757.812500
4927		-1757.812500
4928		-1757.812500
4929		-1718.750000
4930		-1718.750000
4931		-1718.750000
4932		-1718.750000
4933		-1718.750000
4934		-1718.750000
4935		-1718.750000
4936		-1718.750000
4937		-1718.750000
4938		-1718.750000
4939		-1718.750000
4940		-1718.750000
4941		-1718.750000
4942		-1718.750000
4943		-1718.750000
4944		-1718.750000
4945		-1718.750000
4946		-1718.750000
4947		-1718.750000
4948		-1718.750000
4949		-1718.750000
4950		-1718.750000
4951		-1718.750000
4952		-1718.750000
4953		-1718.750000
4954		-1718.750000
4955		-1718.750000
4956		-1718.750000
4957		-1718.750000
4958		-1718.750000
4959		-1718.750000
4960		-1718.750000
4961		-1718.750000
4962		-1718.750000
4963		-1718.750000
4964		-1718.750000
4965		-1718.750000
4966		-1718.750000
4967		-1718.750000
4968		-1718.750000
4969		-1718.750000
4970		-1718.750000
4971		-1679.687500
4972		-1679.687500
4973		-1679.687500
4974		-1679.687500
4975		-1679.687500
4976		-1679.687500
4977		-1679.687500
4978		-1679.687500
4979		-1679.687500
4980		-1679.687500
4981		-1679.687500
4982		-1679.687500
4983		-1679.687500
4984		-1718.750000
4985		-1679.687500
4986		-1679.687500
4987		-1679.687500
4988		-1679.687500
4989		-1679.687500
4990		-1679.687500
4991		-1679.687500
4992		-1679.687500
4993		-1679.687500
4994		-1679.687500
4995		-1679.687500
4996		-1679.687500
4997		-1679.687500
4998		-1679.687500
4999		-1679.687500
5000		-1679.687500
5001		-1679.687500
5002		-1679.687500
5003		-1679.687500
5004		-1679.687500
5005		-1679.687500
5006		-1679.687500
5007		-1679.687500
5008		-1679.687500
5009		-1679.687500
5010		-1640.625000
5011		-1640.625000
5012		-1640.625000
5013		-1640.625000
5014		-1640.625000
5015		-1640.625000
5016		-1679.687500
5017		-1640.625000
5018		-1640.625000
5019		-1640.625000
5020		-1640.625000
5021		-1640.625000
5022		-1640.625000
5023		-1640.625000
5024		-1640.625000
5025		-1640.625000
5026		-1640.625000
5027		-1640.625000
5028		-1640.625000
5029		-1640.625000
5030		-1640.625000
5031		-1640.625000
5032		-1640.625000
5033		-1640.625000
5034		-1640.625000
5035		-1640.625000
5036		-1640.625000
5037		-1640.625000
5038		-1640.625000
5039		-1640.625000
5040		-1640.625000
5041		-1640.625000
5042		-1640.625000
5043		-1640.625000
5044		-1640.625000
5045		-1601.562500
5046		-1640.625000
5047		-1601.562500
5048		-1601.562500
5049		-1601.562500
5050		-1601.562500
5051		-1601.562500
5052		-1601.562500
5053		-1601.562500
5054		-1601.562500
5055		-1601.562500
5056		-1601.562500
5057		-1601.562500
5058		-1601.562500
5059		-1601.562500
5060		-1601.562500
5061		-1601.562500
5062		-1601.562500
5063		-1601.562500
5064		-1601.562500
5065		-1601.562500
5066		-1601.562500
5067		-1601.562500
5068		-1601.562500
5069		-1601.562500
5070		-1601.562500
5071		-1601.562500
5072		-1601.562500
5073		-1601.562500
5074		-1562.500000
5075		-1562.500000
5076		-1562.500000
5077		-1562.500000
5078		-1562.500000
5079		-1601.562500
5080		-1562.500000
5081		-1562.500000
5082		-1562.500000
5083		-1562.500000
5084		-1562.500000
5085		-1562.500000
5086		-1562.500000
5087		-1562.500000
5088		-1562.500000
5089		-1562.500000
5090		-1562.500000
5091		-1562.500000
5092		-1562.500000
5093		-1562.500000
5094		-1562.500000
5095		-1562.500000
5096		-1562.500000
5097		-1523.437500
5098		-1523.437500
5099		-1523.437500
5100		-1523.437500
5101		-1523.437500
5102		-1523.437500
5103		-1523.437500
5104		-1523.437500
5105		-1523.437500
5106		-1523.437500
5107		-1523.437500
5108		-1523.437500
5109		-1523.437500
5110		-1523.437500
5111		-1523.437500
5112		-1523.437500
5113		-1523.437500
5114		-1523.437500
5115		-1523.437500
5116		-1523.437500
5117		-1523.437500
5118		-1523.437500
5119		-1523.437500
5120		-1484.375000
5121		-1484.375000
5122		-1484.375000
5123		-1484.375000
5124		-1523.437500
5125		-1484.375000
5126		-1484.375000
5127		-1484.375000
5128		-1484.375000
5129		-1484.375000
5130		-1484.375000
5131		-1484.375000
5132		-1484.375000
5133		-1484.375000
5134		-1484.375000
5135		-1484.375000
5136		-1484.375000
5137		-1484.375000
5138		-1445.312500
5139		-1445.312500
5140		-1445.312500
5141		-1484.375000
5142		-1484.375000
5143		-1484.375000
5144		-1484.375000
5145		-1445.312500
5146		-1445.312500
5147		-1445.312500
5148		-1445.312500
5149		-1445.312500
5150		-1445.312500
5151		-1445.312500
5152		-1445.312500
5153		-1445.312500
5154		-1445.312500
5155		-1445.312500
5156		-1445.312500
5157		-1445.312500
5158		-1406.250000
5159		-1406.250000
5160		-1445.312500
5161		-1445.312500
5162		-1445.312500
5163		-1406.250000
5164		-1406.250000
5165		-1406.250000
5166		-1406.250000
5167		-1406.250000
5168		-1406.250000
5169		-1406.250000
5170		-1406.250000
5171		-1406.250000
5172		-1406.250000
5173		-1406.250000
5174		-1406.250000
5175		-1406.250000
5176		-1367.187500
5177		-1367.187500
5178		-1406.250000
5179		-1367.187500
5180		-1406.250000
5181		-1406.250000
5182		-1367.187500
5183		-1367.187500
5184		-1367.187500
5185		-1367.187500
5186		-1367.187500
5187		-1367.187500
5188		-1367.187500
5189		-1367.187500
5190		-1367.187500
5191		-1367.187500
5192		-1367.187500
5193		-1367.187500
5194		-1328.125000
5195		-1328.125000
5196		-1328.125000
5197		-1328.125000
5198		-1328.125000
5199		-1328.125000
5200		-1328.125000
5201		-1328.125000
5202		-1328.125000
5203		-1328.125000
5204		-1328.125000
5205		-1328.125000
5206		-1328.125000
5207		-1328.125000
5208		-1328.125000
5209		-1328.125000
5210		-1289.062500
5211		-1289.062500
5212		-1289.062500
5213		-1289.062500
5214		-1289.062500
5215		-1289.062500
5216		-1289.062500
5217		-1289.062500
5218		-1289.062500
5219		-1289.062500
5220		-1289.062500
5221		-1289.062500
5222		-1289.062500
5223		-1289.062500
5224		-1289.062500
5225		-1289.062500
5226		-1289.062500
5227		-1250.000000
5228		-1250.000000
5229		-1250.000000
5230		-1250.000000
5231		-1250.000000
5232		-1250.000000
5233		-1250.000000
5234		-1250.000000
5235		-1250.000000
5236		-1250.000000
5237		-1250.000000
5238		-1250.000000
5239		-1210.937500
5240		-1210.937500
5241		-1250.000000
5242		-1210.937500
5243		-1210.937500
5244		-1210.937500
5245		-1210.937500
5246		-1210.937500
5247		-1210.937500
5248		-1210.937500
5249		-1210.937500
5250		-1210.937500
5251		-1210.937500
5252		-1210.937500
5253		-1210.937500
5254		-1171.875000
5255		-1171.875000
5256		-1171.875000
5257		-1171.875000
5258		-1171.875000
5259		-1171.875000
5260		-1171.875000
5261		-1171.875000
5262		-1171.875000
5263		-1171.875000
5264		-1171.875000
5265		-1171.875000
5266		-1171.875000
5267		-1171.875000
5268		-1171.875000
5269		-1171.875000
5270		-1132.812500
5271		-1132.812500
5272		-1132.812500
5273		-1132.812500
5274		-1132.812500
5275		-1132.812500
5276		-1132.812500
5277		-1132.812500
5278		-1132.812500
5279		-1132.812500
5280		-1132.812500
5281		-1132.812500
5282		-1093.750000
5283		-1093.750000
5284		-1093.750000
5285		-1093.750000
5286		-1093.750000
5287		-1093.750000
5288		-1093.750000
5289		-1093.750000
5290		-1093.750000
5291		-1093.750000
5292		-1093.750000
5293		-1093.750000
5294		-1054.687500
5295		-1054.687500
5296		-1054.687500
5297		-1054.687500
5298		-1054.687500
5299		-1054.687500
5300		-1054.687500
5301		-1054.687500
5302		-1054.687500
5303		-1054.687500
5304		-1054.687500
5305		-1054.687500
5306		-1054.687500
5307		-1054.687500
5308		-1054.687500
5309		-1054.687500
5310		-1054.687500
5311		-1015.625000
5312		-1015.625000
5313		-1015.625000
5314		-1015.625000
5315		-1015.625000
5316		-1015.625000
5317		-1015.625000
5318		-1015.625000
5319		-976.562500
5320		-1015.625000
5321		-1015.625000
5322		-1015.625000
5323		-1015.625000
5324		-976.562500
5325		-976.562500
5326		-976.562500
5327		-976.562500
5328		-976.562500
5329		-976.562500
5330		-976.562500
5331		-976.562500
5332		-976.562500
5333		-976.562500
5334		-937.500000
5335		-937.500000
5336		-937.500000
5337		-937.500000
5338		-937.500000
5339		-937.500000
5340		-937.500000
5341		-937.500000
5342		-937.500000
5343		-937.500000
5344		-937.500000
5345		-937.500000
5346		-937.500000
5347		-937.500000
5348		-937.500000
5349		-937.500000
5350		-937.500000
5351		-898.437500
5352		-898.437500
5353		-898.437500
5354		-898.437500
5355		-898.437500
5356		-898.437500
5357		-898.437500
5358		-898.437500
5359		-898.437500
5360		-898.437500
5361		-898.437500
5362		-898.437500
5363		-898.437500
5364		-898.437500
5365		-898.437500
5366		-859.375000
5367		-859.375000
5368		-859.375000
5369		-859.375000
5370		-898.437500
5371		-859.375000
5372		-859.375000
5373		-859.375000
5374		-859.375000
5375		-859.375000
5376		-859.375000
5377		-859.375000
5378		-820.312500
5379		-820.312500
5380		-859.375000
5381		-820.312500
5382		-820.312500
5383		-820.312500
5384		-820.312500
5385		-820.312500
5386		-820.312500
5387		-820.312500
5388		-820.312500
5389		-820.312500
5390		-820.312500
5391		-781.250000
5392		-781.250000
5393		-781.250000
5394		-781.250000
5395		-781.250000
5396		-781.250000
5397		-781.250000
5398		-781.250000
5399		-781.250000
5400		-781.250000
5401		-781.250000
5402		-781.250000
5403		-781.250000
5404		-781.250000
5405		-781.250000
5406		-781.250000
5407		-781.250000
5408		-742.187500
5409		-742.187500
5410		-742.187500
5411		-742.187500
5412		-742.187500
5413		-742.187500
5414		-781.250000
5415		-742.187500
5416		-742.187500
5417		-742.187500
5418		-742.187500
5419		-742.187500
5420		-742.187500
5421		-742.187500
5422		-742.187500
5423		-742.187500
5424		-742.187500
5425		-742.187500
5426		-703.125000
5427		-703.125000
5428		-703.125000
5429		-703.125000
5430		-703.125000
5431		-703.125000
5432		-703.125000
5433		-703.125000
5434		-703.125000
5435		-703.125000
5436		-703.125000
5437		-703.125000
5438		-703.125000
5439		-703.125000
5440		-703.125000
5441		-703.125000
5442		-703.125000
5443		-703.125000
5444		-664.062500
5445		-664.062500
5446		-664.062500
5447		-664.062500
5448		-664.062500
5449		-664.062500
5450		-664.062500
5451		-664.062500
5452		-664.062500
5453		-664.062500
5454		-664.062500
5455		-664.062500
5456		-664.062500
5457		-664.062500
5458		-664.062500
5459		-625.000000
5460		-625.000000
5461		-625.000000
5462		-625.000000
5463		-625.000000
5464		-625.000000
5465		-625.000000
5466		-625.000000
5467		-625.000000
5468		-625.000000
5469		-625.000000
5470		-625.000000
5471		-625.000000
5472		-625.000000
5473		-625.000000
5474		-625.000000
5475		-625.000000
5476		-625.000000
5477		-625.000000
5478		-625.000000
5479		-585.937500
5480		-585.937500
5481		-625.000000
5482		-625.000000
5483		-625.000000
5484		-625.000000
5485		-585.937500
5486		-585.937500
5487		-585.937500
5488		-585.937500
5489		-585.937500
5490		-585.937500
5491		-585.937500
5492		-585.937500
5493		-585.937500
5494		-585.937500
5495		-585.937500
5496		-585.937500
5497		-585.937500
5498		-585.937500
5499		-585.937500
5500		-585.937500
5501		-585.937500
5502		-585.937500
5503		-585.937500
5504		-585.937500
5505		-585.937500
5506		-585.937500
5507		-585.937500
5508		-585.937500
5509		-585.937500
5510		-585.937500
5511		-585.937500
5512		-546.875000
5513		-546.875000
5514		-546.875000
5515		-546.875000
5516		-546.875000
5517		-546.875000
5518		-546.875000
5519		-546.875000
5520		-546.875000
5521		-546.875000
5522		-546.875000
5523		-546.875000
5524		-546.875000
5525		-585.937500
5526		-546.875000
5527		-546.875000
5528		-546.875000
5529		-546.875000
5530		-546.875000
5531		-546.875000
5532		-546.875000
5533		-546.875000
5534		-546.875000
5535		-546.875000
5536		-546.875000
5537		-546.875000
5538		-546.875000
5539		-546.875000
5540		-546.875000
5541		-546.875000
5542		-546.875000
5543		-546.875000
5544		-546.875000
5545		-546.875000
5546		-546.875000
5547		-546.875000
5548		-546.875000
5549		-546.875000
5550		-546.875000
5551		-546.875000
5552		-546.875000
5553		-546.875000
5554		-546.875000
5555		-546.875000
5556		-507.812500
5557		-546.875000
5558		-546.875000
5559		-546.875000
5560		-546.875000
5561		-546.875000
5562		-546.875000
5563		-546.875000
5564		-546.875000
5565		-546.875000
5566		-546.875000
5567		-546.875000
5568		-546.875000
5569		-507.812500
5570		-546.875000
5571		-546.875000
5572		-507.812500
5573		-507.812500
5574		-507.812500
5575		-507.812500
5576		-507.812500
5577		-507.812500
5578		-546.875000
5579		-546.875000
5580		-546.875000
5581		-546.875000
5582		-546.875000
5583		-546.875000
5584		-546.875000
5585		-546.875000
5586		-546.875000
5587		-507.812500
5588		-546.875000
5589		-507.812500
5590		-507.812500
5591		-546.875000
5592		-507.812500
5593		-507.812500
5594		-546.875000
5595		-507.812500
5596		-546.875000
5597		-546.875000
5598		-546.875000
5599		-546.875000
5600		-546.875000
5601		-546.875000
5602		-546.875000
5603		-546.875000
5604		-546.875000
5605		-546.875000
5606		-546.875000
5607		-546.875000
5608		-546.875000
5609		-546.875000
5610		-546.875000
5611		-546.875000
5612		-546.875000
5613		-546.875000
5614		-546.875000
5615		-546.875000
5616		-507.812500
5617		-546.875000
5618		-546.875000
5619		-546.875000
5620		-546.875000
5621		-546.875000
5622		-546.875000
5623		-546.875000
5624		-546.875000
5625		-546.875000
5626		-546.875000
5627		-546.875000
5628		-546.875000
5629		-546.875000
5630		-546.875000
5631		-546.875000
5632		-546.875000
5633		-546.875000
5634		-546.875000
5635		-546.875000
5636		-546.875000
5637		-546.875000
5638		-546.875000
5639		-546.875000
5640		-546.875000
5641		-546.875000
5642		-546.875000
5643		-546.875000
5644		-546.875000
5645		-546.875000
5646		-546.875000
5647		-546.875000
5648		-546.875000
5649		-546.875000
5650		-546.875000
5651		-546.875000
5652		-546.875000
5653		-585.937500
5654		-585.937500
5655		-585.937500
5656		-585.937500
5657		-585.937500
5658		-585.937500
5659		-585.937500
5660		-585.937500
5661		-585.937500
5662		-585.937500
5663		-585.937500
5664		-585.937500
5665		-585.937500
5666		-585.937500
5667		-585.937500
5668		-585.937500
5669		-585.937500
5670		-585.937500
5671		-585.937500
5672		-585.937500
5673		-585.937500
5674		-625.000000
5675		-585.937500
5676		-585.937500
5677		-585.937500
5678		-585.937500
5679		-585.937500
5680		-585.937500
5681		-625.000000
5682		-585.937500
5683		-625.000000
5684		-625.000000
5685		-625.000000
5686		-625.000000
5687		-664.062500
5688		-625.000000
5689		-625.000000
5690		-625.000000
5691		-625.000000
5692		-625.000000
5693		-625.000000
5694		-625.000000
5695		-625.000000
5696		-625.000000
5697		-625.000000
5698		-625.000000
5699		-625.000000
5700		-625.000000
5701		-625.000000
5702		-625.000000
5703		-664.062500
5704		-664.062500
5705		-664.062500
5706		-664.062500
5707		-664.062500
5708		-664.062500
5709		-664.062500
5710		-664.062500
5711		-664.062500
5712		-664.062500
5713		-664.062500
5714		-664.062500
5715		-664.062500
5716		-664.062500
5717		-664.062500
5718		-664.062500
5719		-664.062500
5720		-664.062500
5721		-664.062500
5722		-664.062500
5723		-664.062500
5724		-703.125000
5725		-703.125000
5726		-703.125000
5727		-703.125000
5728		-703.125000
5729		-703.125000
5730		-703.125000
5731		-703.125000
5732		-703.125000
5733		-703.125000
5734		-742.187500
5735		-703.125000
5736		-703.125000
5737		-703.125000
5738		-703.125000
5739		-703.125000
5740		-742.187500
5741		-742.187500
5742		-742.187500
5743		-742.187500
5744		-742.187500
5745		-742.187500
5746		-742.187500
5747		-742.187500
5748		-742.187500
5749		-742.187500
5750		-742.187500
5751		-742.187500
5752		-742.187500
5753		-742.187500
5754		-742.187500
5755		-742.187500
5756		-742.187500
5757		-742.187500
5758		-742.187500
5759		-781.250000
5760		-781.250000
5761		-781.250000
5762		-781.250000
5763		-781.250000
5764		-781.250000
5765		-781.250000
5766		-781.250000
5767		-781.250000
5768		-781.250000
5769		-781.250000
5770		-781.250000
5771		-781.250000
5772		-781.250000
5773		-781.250000
5774		-781.250000
5775		-820.312500
5776		-820.312500
5777		-820.312500
5778		-820.312500
5779		-820.312500
5780		-820.312500
5781		-820.312500
5782		-820.312500
5783		-820.312500
5784		-820.312500
5785		-820.312500
5786		-820.312500
5787		-820.312500
5788		-820.312500
5789		-820.312500
5790		-820.312500
5791		-820.312500
5792		-859.375000
5793		-859.375000
5794		-859.375000
5795		-859.375000
5796		-859.375000
5797		-859.375000
5798		-859.375000
5799		-859.375000
5800		-859.375000
5801		-859.375000
5802		-859.375000
5803		-898.437500
5804		-898.437500
5805		-898.437500
5806		-898.437500
5807		-898.437500
5808		-898.437500
5809		-898.437500
5810		-898.437500
5811		-898.437500
5812		-898.437500
5813		-898.437500
5814		-898.437500
5815		-898.437500
5816		-898.437500
5817		-937.500000
5818		-898.437500
5819		-937.500000
5820		-937.500000
5821		-937.500000
5822		-937.500000
5823		-937.500000
5824		-937.500000
5825		-937.500000
5826		-937.500000
5827		-937.500000
5828		-937.500000
5829		-937.500000
5830		-937.500000
5831		-937.500000
5832		-937.500000
5833		-937.500000
5834		-937.500000
5835		-976.562500
5836		-976.562500
5837		-976.562500
5838		-976.562500
5839		-976.562500
5840		-976.562500
5841		-976.562500
5842		-976.562500
5843		-976.562500
5844		-976.562500
5845		-976.562500
5846		-976.562500
5847		-1015.625000
5848		-1015.625000
5849		-1015.625000
5850		-1015.625000
5851		-1015.625000
5852		-1015.625000
5853		-1015.625000
5854		-1015.625000
5855		-1015.625000
5856		-1015.625000
5857		-1015.625000
5858		-1015.625000
5859		-1015.625000
5860		-1015.625000
5861		-1015.625000
5862		-1054.687500
5863		-1054.687500
5864		-1054.687500
5865		-1054.687500
5866		-1054.687500
5867		-1054.687500
5868		-1054.687500
5869		-1054.687500
5870		-1054.687500
5871		-1054.687500
5872		-1054.687500
5873		-1054.687500
5874		-1054.687500
5875		-1054.687500
5876		-1093.750000
5877		-1093.750000
5878		-1093.750000
5879		-1093.750000
5880		-1093.750000
5881		-1093.750000
5882		-1093.750000
5883		-1093.750000
5884		-1093.750000
5885		-1093.750000
5886		-1093.750000
5887		-1093.750000
5888		-1132.812500
5889		-1132.812500
5890		-1093.750000
5891		-1132.812500
5892		-1132.812500
5893		-1132.812500
5894		-1132.812500
5895		-1132.812500
5896		-1132.812500
5897		-1132.812500
5898		-1132.812500
5899		-1132.812500
5900		-1132.812500
5901		-1132.812500
5902		-1132.812500
5903		-1132.812500
5904		-1171.875000
5905		-1171.875000
5906		-1171.875000
5907		-1171.875000
5908		-1171.875000
5909		-1171.875000
5910		-1171.875000
5911		-1171.875000
5912		-1171.875000
5913		-1171.875000
5914		-1171.875000
5915		-1171.875000
5916		-1171.875000
5917		-1171.875000
5918		-1171.875000
5919		-1210.937500
5920		-1210.937500
5921		-1210.937500
5922		-1210.937500
5923		-1210.937500
5924		-1210.937500
5925		-1210.937500
5926		-1210.937500
5927		-1210.937500
5928		-1210.937500
5929		-1210.937500
5930		-1210.937500
5931		-1210.937500
5932		-1210.937500
5933		-1210.937500
5934		-1210.937500
5935		-1210.937500
5936		-1210.937500
5937		-1210.937500
5938		-1250.000000
5939		-1250.000000
5940		-1250.000000
5941		-1250.000000
5942		-1250.000000
5943		-1250.000000
5944		-1250.000000
5945		-1250.000000
5946		-1250.000000
5947		-1250.000000
5948		-1250.000000
5949		-1250.000000
5950		-1250.000000
5951		-1250.000000
5952		-1250.000000
5953		-1250.000000
5954		-1250.000000
5955		-1289.062500
5956		-1289.062500
5957		-1289.062500
5958		-1289.062500
5959		-1289.062500
5960		-1289.062500
5961		-1289.062500
5962		-1289.062500
5963		-1289.062500
5964		-1289.062500
5965		-1289.062500
5966		-1289.062500
5967		-1328.125000
5968		-1289.062500
5969		-1289.062500
5970		-1289.062500
5971		-1328.125000
5972		-1289.062500
5973		-1328.125000
5974		-1328.125000
5975		-1328.125000
5976		-1328.125000
5977		-1328.125000
5978		-1328.125000
5979		-1328.125000
5980		-1328.125000
5981		-1328.125000
5982		-1328.125000
5983		-1328.125000
5984		-1367.187500
5985		-1367.187500
5986		-1367.187500
5987		-1367.187500
5988		-1367.187500
5989		-1367.187500
5990		-1367.187500
5991		-1367.187500
5992		-1367.187500
5993		-1367.187500
5994		-1367.187500
5995		-1367.187500
5996		-1367.187500
5997		-1367.187500
5998		-1367.187500
5999		-1367.187500
6000		-1367.187500
6001		-1406.250000
6002		-1406.250000
6003		-1367.187500
6004		-1406.250000
6005		-1406.250000
6006		-1406.250000
6007		-1406.250000
6008		-1406.250000
6009		-1406.250000
6010		-1406.250000
6011		-1406.250000
6012		-1406.250000
6013		-1406.250000
6014		-1406.250000
6015		-1406.250000
6016		-1406.250000
6017		-1406.250000
6018		-1406.250000
6019		-1445.312500
6020		-1406.250000
6021		-1406.250000
6022		-1445.312500
6023		-1445.312500
6024		-1445.312500
6025		-1445.312500
6026		-1445.312500
6027		-1445.312500
6028		-1445.312500
6029		-1445.312500
6030		-1445.312500
6031		-1445.312500
6032		-1445.312500
6033		-1445.312500
6034		-1445.312500
6035		-1445.312500
6036		-1445.312500
6037		-1445.312500
6038		-1445.312500
6039		-1445.312500
6040		-1445.312500
6041		-1445.312500
6042		-1445.312500
6043		-1484.375000
6044		-1484.375000
6045		-1484.375000
6046		-1484.375000
6047		-1484.375000
6048		-1484.375000
6049		-1484.375000
6050		-1484.375000
6051		-1484.375000
6052		-1484.375000
6053		-1484.375000
6054		-1484.375000
6055		-1484.375000
6056		-1484.375000
6057		-1484.375000
6058		-1484.375000
6059		-1484.375000
6060		-1484.375000
6061		-1484.375000
6062		-1484.375000
6063		-1523.437500
6064		-1523.437500
6065		-1523.437500
6066		-1523.437500
6067		-1523.437500
6068		-1523.437500
6069		-1523.437500
6070		-1523.437500
6071		-1523.437500
6072		-1523.437500
6073		-1523.437500
6074		-1523.437500
6075		-1523.437500
6076		-1523.437500
6077		-1523.437500
6078		-1523.437500
6079		-1523.437500
6080		-1523.437500
6081		-1523.437500
6082		-1523.437500
6083		-1523.437500
6084		-1562.500000
6085		-1562.500000
6086		-1562.500000
6087		-1562.500000
6088		-1562.500000
6089		-1562.500000
6090		-1562.500000
6091		-1562.500000
6092		-1562.500000
6093		-1562.500000
6094		-1562.500000
6095		-1562.500000
6096		-1562.500000
6097		-1562.500000
6098		-1562.500000
6099		-1562.500000
6100		-1562.500000
6101		-1562.500000
6102		-1562.500000
6103		-1562.500000
6104		-1601.562500
6105		-1562.500000
6106		-1562.500000
6107		-1562.500000
6108		-1562.500000
6109		-1562.500000
6110		-1562.500000
6111		-1562.500000
6112		-1562.500000
6113		-1562.500000
6114		-1562.500000
6115		-1562.500000
6116		-1562.500000
6117		-1601.562500
6118		-1601.562500
6119		-1601.562500
6120		-1601.562500
6121		-1601.562500
6122		-1601.562500
6123		-1601.562500
6124		-1601.562500
6125		-1601.562500
6126		-1601.562500
6127		-1601.562500
6128		-1601.562500
6129		-1601.562500
6130		-1601.562500
6131		-1601.562500
6132		-1601.562500
6133		-1601.562500
6134		-1601.562500
6135		-1601.562500
6136		-1601.562500
6137		-1601.562500
6138		-1601.562500
6139		-1640.625000
6140		-1601.562500
6141		-1601.562500
6142		-1640.625000
6143		-1640.625000
6144		-1640.625000
6145		-1640.625000
6146		-1640.625000
6147		-1640.625000
6148		-1640.625000
6149		-1601.562500
6150		-1640.625000
6151		-1640.625000
6152		-1640.625000
6153		-1640.625000
6154		-1640.625000
6155		-1640.625000
6156		-1640.625000
6157		-1640.625000
6158		-1640.625000
6159		-1640.625000
6160		-1640.625000
6161		-1640.625000
6162		-1640.625000
6163		-1640.625000
6164		-1640.625000
6165		-1640.625000
6166		-1640.625000
6167		-1640.625000
6168		-1640.625000
6169		-1640.625000
6170		-1640.625000
6171		-1640.625000
6172		-1640.625000
6173		-1640.625000
6174		-1640.625000
6175		-1640.625000
6176		-1640.625000
6177		-1640.625000
6178		-1640.625000
6179		-1679.687500
6180		-1679.687500
6181		-1679.687500
6182		-1679.687500
6183		-1640.625000
6184		-1679.687500
6185		-1679.687500
6186		-1679.687500
6187		-1679.687500
6188		-1679.687500
6189		-1679.687500
6190		-1679.687500
6191		-1679.687500
6192		-1679.687500
6193		-1679.687500
6194		-1679.687500
6195		-1679.687500
6196		-1679.687500
6197		-1679.687500
6198		-1679.687500
6199		-1679.687500
6200		-1679.687500
6201		-1679.687500
6202		-1679.687500
6203		-1679.687500
6204		-1679.687500
6205		-1679.687500
6206		-1679.687500
6207		-1679.687500
6208		-1679.687500
6209		-1679.687500
6210		-1679.687500
6211		-1679.687500
6212		-1679.687500
6213		-1679.687500
6214		-1679.687500
6215		-1679.687500
6216		-1679.687500
6217		-1679.687500
6218		-1679.687500
6219		-1679.687500
6220		-1679.687500
6221		-1679.687500
6222		-1679.687500
6223		-1679.687500
6224		-1679.687500
6225		-1679.687500
6226		-1679.687500
6227		-1718.750000
6228		-1718.750000
6229		-1718.750000
6230		-1718.750000
6231		-1679.687500
6232		-1718.750000
6233		-1718.750000
6234		-1718.750000
6235		-1718.750000
6236		-1718.750000
6237		-1679.687500
6238		-1718.750000
6239		-1718.750000
6240		-1718.750000
6241		-1718.750000
6242		-1718.750000
6243		-1718.750000
6244		-1718.750000
6245		-1718.750000
6246		-1718.750000
6247		-1718.750000
6248		-1718.750000
6249		-1718.750000
6250		-1718.750000
6251		-1718.750000
6252		-1718.750000
6253		-1718.750000
6254		-1718.750000
6255		-1718.750000
6256		-1718.750000
6257		-1718.750000
6258		-1718.750000
6259		-1718.750000
6260		-1718.750000
6261		-1718.750000
6262		-1718.750000
6263		-1718.750000
6264		-1718.750000
6265		-1718.750000
6266		-1718.750000
6267		-1718.750000
6268		-1718.750000
6269		-1718.750000
6270		-1718.750000
6271		-1718.750000
6272		-1718.750000
6273		-1718.750000
6274		-1718.750000
6275		-1718.750000
6276		-1718.750000
6277		-1718.750000
6278		-1718.750000
6279		-1718.750000
6280		-1718.750000
6281		-1718.750000
6282		-1757.812500
6283		-1757.812500
6284		-1757.812500
6285		-1757.812500
6286		-1757.812500
6287		-1757.812500
6288		-1757.812500
6289		-1718.750000
6290		-1757.812500
6291		-1718.750000
6292		-1718.750000
6293		-1718.750000
6294		-1718.750000
6295		-1718.750000
6296		-1757.812500
6297		-1718.750000
6298		-1757.812500
6299		-1757.812500
6300		-1757.812500
6301		-1757.812500
6302		-1757.812500
6303		-1757.812500
6304		-1757.812500
6305		-1757.812500
6306		-1757.812500
6307		-1757.812500
6308		-1757.812500
6309		-1757.812500
6310		-1757.812500
6311		-1757.812500
6312		-1757.812500
6313		-1757.812500
6314		-1757.812500
6315		-1757.812500
6316		-1757.812500
6317		-1757.812500
6318		-1757.812500
6319		-1757.812500
6320		-1757.812500
6321		-1757.812500
6322		-1757.812500
6323		-1757.812500
6324		-1757.812500
6325		-1757.812500
6326		-1757.812500
6327		-1757.812500
6328		-1757.812500
6329		-1757.812500
6330		-1757.812500
6331		-1757.812500
6332		-1757.812500
6333		-1757.812500
6334		-1757.812500
6335		-1757.812500
6336		-1757.812500
6337		-1757.812500
6338		-1757.812500
6339		-1757.812500
6340		-1757.812500
6341		-1757.812500
6342		-1796.875000
6343		-1757.812500
6344		-1757.812500
6345		-1757.812500
6346		-1757.812500
6347		-1757.812500
6348		-1757.812500
6349		-1757.812500
6350		-1757.812500
6351		-1757.812500
6352		-1757.812500
6353		-1757.812500
6354		-1757.812500
6355		-1757.812500
6356		-1757.812500
6357		-1757.812500
6358		-1757.812500
6359		-1757.812500
6360		-1757.812500
6361		-1757.812500
6362		-1757.812500
6363		-1757.812500
6364		-1757.812500
6365		-1757.812500
6366		-1757.812500
6367		-1757.812500
6368		-1757.812500
6369		-1757.812500
6370		-1757.812500
6371		-1757.812500
6372		-1757.812500
6373		-1757.812500
6374		-1757.812500
6375		-1757.812500
6376		-1757.812500
6377		-1757.812500
6378		-1757.812500
6379		-1757.812500
6380		-1757.812500
6381		-1757.812500
6382		-1757.812500
6383		-1796.875000
6384		-1757.812500
6385		-1757.812500
6386		-1757.812500
6387		-1757.812500
6388		-1757.812500
6389		-1757.812500
6390		-1757.812500
6391		-1757.812500
6392		-1757.812500
6393		-1757.812500
6394		-1757.812500
6395		-1757.812500
6396		-1757.812500
6397		-1757.812500
6398		-1757.812500
6399		-1757.812500
6400		-1757.812500
6401		-1757.812500
6402		-1757.812500
6403		-1796.875000
6404		-1757.812500
6405		-1757.812500
6406		-1757.812500
6407		-1757.812500
6408		-1757.812500
6409		-1757.812500
6410		-1757.812500
6411		-1757.812500
6412		-1757.812500
6413		-1757.812500
6414		-1757.812500
6415		-1796.875000
6416		-1757.812500
6417		-1757.812500
6418		-1757.812500
6419		-1757.812500
6420		-1757.812500
6421		-1796.875000
6422		-1757.812500
6423		-1757.812500
6424		-1757.812500
6425		-1757.812500
6426		-1757.812500
6427		-1757.812500
6428		-1757.812500
6429		-1757.812500
6430		-1757.812500
6431		-1757.812500
6432		-1757.812500
6433		-1757.812500
6434		-1757.812500
6435		-1757.812500
6436		-1757.812500
6437		-1757.812500
6438		-1757.812500
6439		-1757.812500
6440		-1757.812500
6441		-1757.812500
6442		-1757.812500
6443		-1796.875000
6444		-1796.875000
6445		-1757.812500
6446		-1757.812500
6447		-1757.812500
6448		-1757.812500
6449		-1757.812500
6450		-1757.812500
6451		-1757.812500
6452		-1757.812500
6453		-1757.812500
6454		-1757.812500
6455		-1757.812500
6456		-1757.812500
6457		-1757.812500
6458		-1757.812500
6459		-1757.812500
6460		-1757.812500
6461		-1757.812500
6462		-1757.812500
6463		-1757.812500
6464		-1757.812500
6465		-1757.812500
6466		-1757.812500
6467		-1757.812500
6468		-1757.812500
6469		-1757.812500
6470		-1757.812500
6471		-1757.812500
6472		-1757.812500
6473		-1757.812500
6474		-1757.812500
6475		-1757.812500
6476		-1757.812500
6477		-1757.812500
6478		-1757.812500
6479		-1757.812500
6480		-1757.812500
6481		-1757.812500
6482		-1757.812500
6483		-1757.812500
6484		-1757.812500
6485		-1757.812500
6486		-1757.812500
6487		-1757.812500
6488		-1757.812500
6489		-1757.812500
6490		-1757.812500
6491		-1757.812500
6492		-1757.812500
6493		-1757.812500
6494		-1757.812500
6495		-1757.812500
6496		-1757.812500
6497		-1757.812500
6498		-1757.812500
6499		-1757.812500
6500		-1757.812500
6501		-1757.812500
6502		-1757.812500
6503		-1757.812500
6504		-1757.812500
6505		-1757.812500
6506		-1757.812500
6507		-1757.812500
6508		-1757.812500
6509		-1757.812500
6510		-1757.812500
6511		-1757.812500
6512		-1757.812500
6513		-1757.812500
6514		-1757.812500
6515		-1757.812500
6516		-1757.812500
6517		-1757.812500
6518		-1757.812500
6519		-1757.812500
6520		-1757.812500
6521		-1757.812500
6522		-1757.812500
6523		-1757.812500
6524		-1757.812500
6525		-1757.812500
6526		-1757.812500
6527		-1757.812500
6528		-1757.812500
6529		-1757.812500
6530		-1757.812500
6531		-1757.812500
6532		-1757.812500
6533		-1757.812500
6534		-1757.812500
6535		-1757.812500
6536		-1757.812500
6537		-1757.812500
6538		-1757.812500
6539		-1757.812500
6540		-1757.812500
6541		-1757.812500
6542		-1757.812500
6543		-1757.812500
6544		-1757.812500
6545		-1757.812500
6546		-1757.812500
6547		-1718.750000
6548		-1718.750000
6549		-1718.750000
6550		-1718.750000
6551		-1718.750000
6552		-1718.750000
6553		-1718.750000
6554		-1718.750000
6555		-1757.812500
6556		-1718.750000
6557		-1757.812500
6558		-1718.750000
6559		-1718.750000
6560		-1718.750000
6561		-1718.750000
6562		-1757.812500
6563		-1718.750000
6564		-1718.750000
6565		-1718.750000
6566		-1718.750000
6567		-1718.750000
6568		-1718.750000
6569		-1718.750000
6570		-1718.750000
6571		-1718.750000
6572		-1718.750000
6573		-1718.750000
6574		-1718.750000
6575		-1718.750000
6576		-1718.750000
6577		-1718.750000
6578		-1718.750000
6579		-1718.750000
6580		-1718.750000
6581		-1718.750000
6582		-1718.750000
6583		-1718.750000
6584		-1718.750000
6585		-1718.750000
6586		-1718.750000
6587		-1718.750000
6588		-1718.750000
6589		-1718.750000
6590		-1718.750000
6591		-1718.750000
6592		-1718.750000
6593		-1718.750000
6594		-1718.750000
6595		-1718.750000
6596		-1718.750000
6597		-1718.750000
6598		-1718.750000
6599		-1679.687500
6600		-1718.750000
6601		-1718.750000
6602		-1718.750000
6603		-1718.750000
6604		-1718.750000
6605		-1718.750000
6606		-1718.750000
6607		-1718.750000
6608		-1718.750000
6609		-1679.687500
6610		-1718.750000
6611		-1679.687500
6612		-1718.750000
6613		-1718.750000
6614		-1679.687500
6615		-1679.687500
6616		-1679.687500
6617		-1679.687500
6618		-1679.687500
6619		-1679.687500
6620		-1679.687500
6621		-1679.687500
6622		-1679.687500
6623		-1679.687500
6624		-1679.687500
6625		-1679.687500
6626		-1679.687500
6627		-1679.687500
6628		-1679.687500
6629		-1679.687500
6630		-1679.687500
6631		-1679.687500
6632		-1679.687500
6633		-1679.687500
6634		-1679.687500
6635		-1679.687500
6636		-1679.687500
6637		-1679.687500
6638		-1679.687500
6639		-1679.687500
6640		-1679.687500
6641		-1679.687500
6642		-1679.687500
6643		-1679.687500
6644		-1679.687500
6645		-1679.687500
6646		-1679.687500
6647		-1679.687500
6648		-1679.687500
6649		-1679.687500
6650		-1679.687500
6651		-1640.625000
6652		-1640.625000
6653		-1640.625000
6654		-1640.625000
6655		-1640.625000
6656		-1640.625000
6657		-1640.625000
6658		-1640.625000
6659		-1640.625000
6660		-1640.625000
6661		-1640.625000
6662		-1640.625000
6663		-1640.625000
6664		-1640.625000
6665		-1640.625000
6666		-1640.625000
6667		-1640.625000
6668		-1640.625000
6669		-1640.625000
6670		-1640.625000
6671		-1640.625000
6672		-1640.625000
6673		-1640.625000
6674		-1640.625000
6675		-1640.625000
6676		-1640.625000
6677		-1640.625000
6678		-1640.625000
6679		-1640.625000
6680		-1640.625000
6681		-1640.625000
6682		-1640.625000
6683		-1640.625000
6684		-1640.625000
6685		-1640.625000
6686		-1640.625000
6687		-1601.562500
6688		-1640.625000
6689		-1601.562500
6690		-1601.562500
6691		-1601.562500
6692		-1601.562500
6693		-1601.562500
6694		-1601.562500
6695		-1601.562500
6696		-1601.562500
6697		-1601.562500
6698		-1601.562500
6699		-1601.562500
6700		-1601.562500
6701		-1601.562500
6702		-1601.562500
6703		-1601.562500
6704		-1601.562500
6705		-1601.562500
6706		-1601.562500
6707		-1601.562500
6708		-1601.562500
6709		-1601.562500
6710		-1562.500000
6711		-1562.500000
6712		-1562.500000
6713		-1562.500000
6714		-1562.500000
6715		-1562.500000
6716		-1562.500000
6717		-1562.500000
6718		-1601.562500
6719		-1562.500000
6720		-1562.500000
6721		-1562.500000
6722		-1562.500000
6723		-1562.500000
6724		-1562.500000
6725		-1562.500000
6726		-1562.500000
6727		-1562.500000
6728		-1562.500000
6729		-1562.500000
6730		-1562.500000
6731		-1562.500000
6732		-1562.500000
6733		-1562.500000
6734		-1562.500000
6735		-1562.500000
6736		-1562.500000
6737		-1562.500000
6738		-1562.500000
6739		-1562.500000
6740		-1562.500000
6741		-1562.500000
6742		-1562.500000
6743		-1523.437500
6744		-1562.500000
6745		-1523.437500
6746		-1523.437500
6747		-1523.437500
6748		-1523.437500
6749		-1523.437500
6750		-1523.437500
6751		-1523.437500
6752		-1523.437500
6753		-1523.437500
6754		-1523.437500
6755		-1523.437500
6756		-1523.437500
6757		-1523.437500
6758		-1523.437500
6759		-1523.437500
6760		-1484.375000
6761		-1523.437500
6762		-1523.437500
6763		-1484.375000
6764		-1484.375000
6765		-1484.375000
6766		-1484.375000
6767		-1484.375000
6768		-1484.375000
6769		-1484.375000
6770		-1484.375000
6771		-1484.375000
6772		-1484.375000
6773		-1484.375000
6774		-1484.375000
6775		-1484.375000
6776		-1484.375000
6777		-1484.375000
6778		-1484.375000
6779		-1484.375000
6780		-1484.375000
6781		-1484.375000
6782		-1445.312500
6783		-1445.312500
6784		-1445.312500
6785		-1484.375000
6786		-1445.312500
6787		-1445.312500
6788		-1445.312500
6789		-1445.312500
6790		-1445.312500
6791		-1445.312500
6792		-1445.312500
6793		-1445.312500
6794		-1445.312500
6795		-1445.312500
6796		-1445.312500
6797		-1445.312500
6798		-1445.312500
6799		-1445.312500
6800		-1406.250000
6801		-1406.250000
6802		-1406.250000
6803		-1406.250000
6804		-1406.250000
6805		-1406.250000
6806		-1406.250000
6807		-1406.250000
6808		-1406.250000
6809		-1406.250000
6810		-1406.250000
6811		-1406.250000
6812		-1406.250000
6813		-1406.250000
6814		-1406.250000
6815		-1406.250000
6816		-1406.250000
6817		-1406.250000
6818		-1406.250000
6819		-1406.250000
6820		-1406.250000
6821		-1406.250000
6822		-1367.187500
6823		-1367.187500
6824		-1367.187500
6825		-1367.187500
6826		-1367.187500
6827		-1367.187500
6828		-1367.187500
6829		-1367.187500
6830		-1367.187500
6831		-1367.187500
6832		-1367.187500
6833		-1367.187500
6834		-1367.187500
6835		-1367.187500
6836		-1328.125000
6837		-1328.125000
6838		-1328.125000
6839		-1367.187500
6840		-1328.125000
6841		-1328.125000
6842		-1328.125000
6843		-1328.125000
6844		-1328.125000
6845		-1328.125000
6846		-1328.125000
6847		-1328.125000
6848		-1328.125000
6849		-1328.125000
6850		-1328.125000
6851		-1328.125000
6852		-1328.125000
6853		-1289.062500
6854		-1289.062500
6855		-1289.062500
6856		-1289.062500
6857		-1289.062500
6858		-1289.062500
6859		-1289.062500
6860		-1289.062500
6861		-1289.062500
6862		-1289.062500
6863		-1289.062500
6864		-1289.062500
6865		-1289.062500
6866		-1289.062500
6867		-1289.062500
6868		-1289.062500
6869		-1289.062500
6870		-1250.000000
6871		-1250.000000
6872		-1250.000000
6873		-1250.000000
6874		-1250.000000
6875		-1250.000000
6876		-1250.000000
6877		-1250.000000
6878		-1250.000000
6879		-1250.000000
6880		-1250.000000
6881		-1250.000000
6882		-1250.000000
6883		-1250.000000
6884		-1250.000000
6885		-1250.000000
6886		-1250.000000
6887		-1210.937500
6888		-1210.937500
6889		-1210.937500
6890		-1210.937500
6891		-1210.937500
6892		-1210.937500
6893		-1210.937500
6894		-1210.937500
6895		-1210.937500
6896		-1210.937500
6897		-1210.937500
6898		-1210.937500
6899		-1210.937500
6900		-1171.875000
6901		-1210.937500
6902		-1171.875000
6903		-1171.875000
6904		-1171.875000
6905		-1171.875000
6906		-1171.875000
6907		-1171.875000
6908		-1171.875000
6909		-1171.875000
6910		-1171.875000
6911		-1132.812500
6912		-1132.812500
6913		-1132.812500
6914		-1132.812500
6915		-1132.812500
6916		-1132.812500
6917		-1132.812500
6918		-1132.812500
6919		-1132.812500
6920		-1132.812500
6921		-1132.812500
6922		-1132.812500
6923		-1132.812500
6924		-1132.812500
6925		-1093.750000
6926		-1093.750000
6927		-1093.750000
6928		-1093.750000
6929		-1093.750000
6930		-1093.750000
6931		-1093.750000
6932		-1093.750000
6933		-1093.750000
6934		-1093.750000
6935		-1093.750000
6936		-1093.750000
6937		-1093.750000
6938		-1093.750000
6939		-1093.750000
6940		-1054.687500
6941		-1054.687500
6942		-1054.687500
6943		-1054.687500
6944		-1054.687500
6945		-1054.687500
6946		-1054.687500
6947		-1054.687500
6948		-1054.687500
6949		-1054.687500
6950		-1054.687500
6951		-1015.625000
6952		-1015.625000
6953		-1015.625000
6954		-1015.625000
6955		-1015.625000
6956		-1015.625000
6957		-1015.625000
6958		-1015.625000
6959		-1015.625000
6960		-1015.625000
6961		-1015.625000
6962		-1015.625000
6963		-1015.625000
6964		-1015.625000
6965		-1015.625000
6966		-976.562500
6967		-976.562500
6968		-976.562500
6969		-976.562500
6970		-976.562500
6971		-976.562500
6972		-976.562500
6973		-976.562500
6974		-976.562500
6975		-976.562500
6976		-976.562500
6977		-976.562500
6978		-976.562500
6979		-937.500000
6980		-937.500000
6981		-937.500000
6982		-937.500000
6983		-937.500000
6984		-937.500000
6985		-937.500000
6986		-937.500000
6987		-937.500000
6988		-937.500000
6989		-937.500000
6990		-937.500000
6991		-937.500000
6992		-937.500000
6993		-937.500000
6994		-898.437500
6995		-898.437500
6996		-898.437500
6997		-898.437500
6998		-898.437500
6999		-898.437500
7000		-898.437500
7001		-898.437500
7002		-898.437500
7003		-898.437500
7004		-898.437500
7005		-898.437500
7006		-898.437500
7007		-898.437500
7008		-898.437500
7009		-859.375000
7010		-859.375000
7011		-859.375000
7012		-859.375000
7013		-859.375000
7014		-859.375000
7015		-859.375000
7016		-859.375000
7017		-859.375000
7018		-859.375000
7019		-859.375000
7020		-859.375000
7021		-820.312500
7022		-820.312500
7023		-820.312500
7024		-820.312500
7025		-820.312500
7026		-820.312500
7027		-820.312500
7028		-820.312500
7029		-820.312500
7030		-820.312500
7031		-820.312500
7032		-820.312500
7033		-820.312500
7034		-781.250000
7035		-781.250000
7036		-781.250000
7037		-781.250000
7038		-781.250000
7039		-781.250000
7040		-781.250000
7041		-781.250000
7042		-781.250000
7043		-781.250000
7044		-781.250000
7045		-781.250000
7046		-781.250000
7047		-781.250000
7048		-781.250000
7049		-781.250000
7050		-781.250000
7051		-742.187500
7052		-742.187500
7053		-742.187500
7054		-742.187500
7055		-742.187500
7056		-742.187500
7057		-742.187500
7058		-742.187500
7059		-742.187500
7060		-742.187500
7061		-742.187500
7062		-742.187500
7063		-742.187500
7064		-742.187500
7065		-742.187500
7066		-742.187500
7067		-742.187500
7068		-742.187500
7069		-703.125000
7070		-703.125000
7071		-703.125000
7072		-703.125000
7073		-703.125000
7074		-703.125000
7075		-703.125000
7076		-703.125000
7077		-703.125000
7078		-703.125000
7079		-703.125000
7080		-703.125000
7081		-703.125000
7082		-703.125000
7083		-703.125000
7084		-703.125000
7085		-703.125000
7086		-703.125000
7087		-664.062500
7088		-664.062500
7089		-664.062500
7090		-664.062500
7091		-664.062500
7092		-664.062500
7093		-664.062500
7094		-664.062500
7095		-664.062500
7096		-664.062500
7097		-664.062500
7098		-664.062500
7099		-664.062500
7100		-664.062500
7101		-664.062500
7102		-664.062500
7103		-664.062500
7104		-664.062500
7105		-625.000000
7106		-625.000000
7107		-625.000000
7108		-625.000000
7109		-625.000000
7110		-625.000000
7111		-625.000000
7112		-625.000000
7113		-625.000000
7114		-625.000000
7115		-625.000000
7116		-625.000000
7117		-625.000000
7118		-625.000000
7119		-625.000000
7120		-625.000000
7121		-625.000000
7122		-625.000000
7123		-625.000000
7124		-585.937500
7125		-625.000000
7126		-585.937500
7127		-585.937500
7128		-585.937500
7129		-585.937500
7130		-585.937500
7131		-585.937500
7132		-585.937500
7133		-585.937500
7134		-585.937500
7135		-585.937500
7136		-585.937500
7137		-585.937500
7138		-585.937500
7139		-585.937500
7140		-585.937500
7141		-585.937500
7142		-585.937500
7143		-585.937500
7144		-585.937500
7145		-585.937500
7146		-585.937500
7147		-546.875000
7148		-546.875000
7149		-546.875000
7150		-546.875000
7151		-585.937500
7152		-546.875000
7153		-546.875000
7154		-546.875000
7155		-546.875000
7156		-546.875000
7157		-546.875000
7158		-546.875000
7159		-546.875000
7160		-546.875000
7161		-546.875000
7162		-546.875000
7163		-546.875000
7164		-546.875000
7165		-546.875000
7166		-546.875000
7167		-546.875000
7168		-546.875000
7169		-546.875000
7170		-546.875000
7171		-546.875000
7172		-546.875000
7173		-546.875000
7174		-546.875000
7175		-546.875000
7176		-546.875000
7177		-546.875000
7178		-546.875000
7179		-546.875000
7180		-546.875000
7181		-546.875000
7182		-546.875000
7183		-546.875000
7184		-546.875000
7185		-546.875000
7186		-546.875000
7187		-546.875000
7188		-546.875000
7189		-507.812500
7190		-546.875000
7191		-507.812500
7192		-507.812500
7193		-507.812500
7194		-507.812500
7195		-507.812500
7196		-507.812500
7197		-507.812500
7198		-507.812500
7199		-507.812500
7200		-507.812500
7201		-507.812500
7202		-507.812500
7203		-507.812500
7204		-507.812500
7205		-507.812500
7206		-507.812500
7207		-507.812500
7208		-507.812500
7209		-507.812500
7210		-507.812500
7211		-507.812500
7212		-507.812500
7213		-507.812500
7214		-507.812500
7215		-507.812500
7216		-507.812500
7217		-507.812500
7218		-507.812500
7219		-507.812500
7220		-507.812500
7221		-507.812500
7222		-507.812500
7223		-507.812500
7224		-507.812500
7225		-507.812500
7226		-507.812500
7227		-507.812500
7228		-507.812500
7229		-507.812500
7230		-507.812500
7231		-507.812500
7232		-507.812500
7233		-507.812500
7234		-507.812500
7235		-507.812500
7236		-507.812500
7237		-507.812500
7238		-507.812500
7239		-507.812500
7240		-507.812500
7241		-507.812500
7242		-507.812500
7243		-507.812500
7244		-507.812500
7245		-507.812500
7246		-507.812500
7247		-507.812500
7248		-507.812500
7249		-507.812500
7250		-507.812500
7251		-507.812500
7252		-507.812500
7253		-507.812500
7254		-507.812500
7255		-507.812500
7256		-507.812500
7257		-507.812500
7258		-507.812500
7259		-507.812500
7260		-507.812500
7261		-546.875000
7262		-507.812500
7263		-546.875000
7264		-546.875000
7265		-546.875000
7266		-546.875000
7267		-507.812500
7268		-507.812500
7269		-507.812500
7270		-546.875000
7271		-507.812500
7272		-507.812500
7273		-507.812500
7274		-507.812500
7275		-546.875000
7276		-546.875000
7277		-507.812500
7278		-546.875000
7279		-546.875000
7280		-546.875000
7281		-546.875000
7282		-546.875000
7283		-546.875000
7284		-546.875000
7285		-546.875000
7286		-546.875000
7287		-546.875000
7288		-546.875000
7289		-546.875000
7290		-546.875000
7291		-546.875000
7292		-546.875000
7293		-585.937500
7294		-546.875000
7295		-546.875000
7296		-546.875000
7297		-546.875000
7298		-546.875000
7299		-546.875000
7300		-546.875000
7301		-546.875000
7302		-546.875000
7303		-546.875000
7304		-546.875000
7305		-546.875000
7306		-546.875000
7307		-546.875000
7308		-546.875000
7309		-546.875000
7310		-546.875000
7311		-546.875000
7312		-585.937500
7313		-546.875000
7314		-585.937500
7315		-585.937500
7316		-585.937500
7317		-585.937500
7318		-585.937500
7319		-585.937500
7320		-585.937500
7321		-585.937500
7322		-585.937500
7323		-585.937500
7324		-585.937500
7325		-585.937500
7326		-585.937500
7327		-585.937500
7328		-585.937500
7329		-585.937500
7330		-585.937500
7331		-585.937500
7332		-585.937500
7333		-585.937500
7334		-585.937500
7335		-625.000000
7336		-625.000000
7337		-625.000000
7338		-625.000000
7339		-625.000000
7340		-625.000000
7341		-625.000000
7342		-625.000000
7343		-625.000000
7344		-625.000000
7345		-625.000000
7346		-625.000000
7347		-625.000000
7348		-625.000000
7349		-625.000000
7350		-625.000000
7351		-625.000000
7352		-625.000000
7353		-625.000000
7354		-664.062500
7355		-625.000000
7356		-625.000000
7357		-625.000000
7358		-625.000000
7359		-664.062500
7360		-664.062500
7361		-664.062500
7362		-664.062500
7363		-664.062500
7364		-664.062500
7365		-664.062500
7366		-664.062500
7367		-664.062500
7368		-664.062500
7369		-664.062500
7370		-664.062500
7371		-664.062500
7372		-664.062500
7373		-664.062500
7374		-664.062500
7375		-664.062500
7376		-664.062500
7377		-703.125000
7378		-703.125000
7379		-664.062500
7380		-703.125000
7381		-703.125000
7382		-703.125000
7383		-703.125000
7384		-703.125000
7385		-703.125000
7386		-703.125000
7387		-703.125000
7388		-703.125000
7389		-703.125000
7390		-703.125000
7391		-703.125000
7392		-703.125000
7393		-703.125000
7394		-703.125000
7395		-703.125000
7396		-742.187500
7397		-703.125000
7398		-742.187500
7399		-742.187500
7400		-742.187500
7401		-742.187500
7402		-742.187500
7403		-742.187500
7404		-742.187500
7405		-742.187500
7406		-742.187500
7407		-742.187500
7408		-742.187500
7409		-742.187500
7410		-742.187500
7411		-781.250000
7412		-781.250000
7413		-781.250000
7414		-781.250000
7415		-781.250000
7416		-781.250000
7417		-781.250000
7418		-781.250000
7419		-781.250000
7420		-781.250000
7421		-781.250000
7422		-781.250000
7423		-781.250000
7424		-820.312500
7425		-820.312500
7426		-820.312500
7427		-820.312500
7428		-820.312500
7429		-820.312500
7430		-820.312500
7431		-820.312500
7432		-820.312500
7433		-820.312500
7434		-820.312500
7435		-820.312500
7436		-820.312500
7437		-820.312500
7438		-820.312500
7439		-820.312500
7440		-859.375000
7441		-859.375000
7442		-859.375000
7443		-859.375000
7444		-859.375000
7445		-859.375000
7446		-859.375000
7447		-859.375000
7448		-859.375000
7449		-859.375000
7450		-859.375000
7451		-859.375000
7452		-859.375000
7453		-859.375000
7454		-859.375000
7455		-859.375000
7456		-898.437500
7457		-859.375000
7458		-898.437500
7459		-898.437500
7460		-898.437500
7461		-898.437500
7462		-898.437500
7463		-898.437500
7464		-898.437500
7465		-898.437500
7466		-898.437500
7467		-898.437500
7468		-898.437500
7469		-937.500000
7470		-898.437500
7471		-898.437500
7472		-898.437500
7473		-898.437500
7474		-937.500000
7475		-937.500000
7476		-937.500000
7477		-937.500000
7478		-937.500000
7479		-937.500000
7480		-976.562500
7481		-976.562500
7482		-937.500000
7483		-937.500000
7484		-976.562500
7485		-976.562500
7486		-976.562500
7487		-976.562500
7488		-976.562500
7489		-976.562500
7490		-976.562500
7491		-976.562500
7492		-976.562500
7493		-976.562500
7494		-976.562500
7495		-976.562500
7496		-976.562500
7497		-976.562500
7498		-1015.625000
7499		-1015.625000
7500		-1015.625000
7501		-1015.625000
7502		-1015.625000
7503		-1015.625000
7504		-1015.625000
7505		-1015.625000
7506		-1015.625000
7507		-1015.625000
7508		-1015.625000
7509		-1015.625000
7510		-1015.625000
7511		-1015.625000
7512		-1015.625000
7513		-1015.625000
7514		-1054.687500
7515		-1054.687500
7516		-1054.687500
7517		-1054.687500
7518		-1054.687500
7519		-1054.687500
7520		-1054.687500
7521		-1054.687500
7522		-1054.687500
7523		-1054.687500
7524		-1054.687500
7525		-1054.687500
7526		-1054.687500
7527		-1054.687500
7528		-1054.687500
7529		-1054.687500
7530		-1054.687500
7531		-1093.750000
7532		-1093.750000
7533		-1093.750000
7534		-1093.750000
7535		-1093.750000
7536		-1093.750000
7537		-1093.750000
7538		-1093.750000
7539		-1093.750000
7540		-1093.750000
7541		-1093.750000
7542		-1093.750000
7543		-1093.750000
7544		-1132.812500
7545		-1093.750000
7546		-1132.812500
7547		-1132.812500
7548		-1132.812500
7549		-1132.812500
7550		-1132.812500
7551		-1132.812500
7552		-1132.812500
7553		-1132.812500
7554		-1132.812500
7555		-1132.812500
7556		-1132.812500
7557		-1132.812500
7558		-1132.812500
7559		-1171.875000
7560		-1132.812500
7561		-1171.875000
7562		-1171.875000
7563		-1171.875000
7564		-1171.875000
7565		-1171.875000
7566		-1171.875000
7567		-1171.875000
7568		-1171.875000
7569		-1171.875000
7570		-1171.875000
7571		-1171.875000
7572		-1171.875000
7573		-1171.875000
7574		-1171.875000
7575		-1171.875000
7576		-1171.875000
7577		-1210.937500
7578		-1210.937500
7579		-1210.937500
7580		-1210.937500
7581		-1210.937500
7582		-1210.937500
7583		-1210.937500
7584		-1210.937500
7585		-1210.937500
7586		-1210.937500
7587		-1210.937500
7588		-1210.937500
7589		-1210.937500
7590		-1210.937500
7591		-1210.937500
7592		-1250.000000
7593		-1250.000000
7594		-1250.000000
7595		-1250.000000
7596		-1250.000000
7597		-1250.000000
7598		-1250.000000
7599		-1250.000000
7600		-1250.000000
7601		-1250.000000
7602		-1250.000000
7603		-1289.062500
7604		-1250.000000
7605		-1289.062500
7606		-1289.062500
7607		-1289.062500
7608		-1289.062500
7609		-1289.062500
7610		-1289.062500
7611		-1289.062500
7612		-1289.062500
7613		-1289.062500
7614		-1289.062500
7615		-1289.062500
7616		-1289.062500
7617		-1289.062500
7618		-1289.062500
7619		-1289.062500
7620		-1289.062500
7621		-1289.062500
7622		-1328.125000
7623		-1328.125000
7624		-1328.125000
7625		-1328.125000
7626		-1328.125000
7627		-1328.125000
7628		-1328.125000
7629		-1328.125000
7630		-1328.125000
7631		-1328.125000
7632		-1328.125000
7633		-1328.125000
7634		-1289.062500
7635		-1328.125000
7636		-1328.125000
7637		-1328.125000
7638		-1328.125000
7639		-1328.125000
7640		-1367.187500
7641		-1367.187500
7642		-1367.187500
7643		-1367.187500
7644		-1367.187500
7645		-1367.187500
7646		-1367.187500
7647		-1367.187500
7648		-1367.187500
7649		-1367.187500
7650		-1367.187500
7651		-1367.187500
7652		-1367.187500
7653		-1367.187500
7654		-1367.187500
7655		-1367.187500
7656		-1367.187500
7657		-1367.187500
7658		-1367.187500
7659		-1406.250000
7660		-1367.187500
7661		-1367.187500
7662		-1406.250000
7663		-1406.250000
7664		-1406.250000
7665		-1406.250000
7666		-1406.250000
7667		-1406.250000
7668		-1406.250000
7669		-1406.250000
7670		-1406.250000
7671		-1406.250000
7672		-1406.250000
7673		-1406.250000
7674		-1406.250000
7675		-1406.250000
7676		-1406.250000
7677		-1406.250000
7678		-1406.250000
7679		-1445.312500
7680		-1445.312500
7681		-1445.312500
7682		-1445.312500
7683		-1445.312500
7684		-1445.312500
7685		-1445.312500
7686		-1445.312500
7687		-1445.312500
7688		-1445.312500
7689		-1445.312500
7690		-1445.312500
7691		-1445.312500
7692		-1445.312500
7693		-1445.312500
7694		-1445.312500
7695		-1445.312500
7696		-1445.312500
7697		-1445.312500
7698		-1445.312500
7699		-1445.312500
7700		-1445.312500
7701		-1484.375000
7702		-1445.312500
7703		-1484.375000
7704		-1484.375000
7705		-1484.375000
7706		-1484.375000
7707		-1484.375000
7708		-1484.375000
7709		-1484.375000
7710		-1484.375000
7711		-1484.375000
7712		-1484.375000
7713		-1484.375000
7714		-1484.375000
7715		-1484.375000
7716		-1484.375000
7717		-1484.375000
7718		-1484.375000
7719		-1484.375000
7720		-1484.375000
7721		-1484.375000
7722		-1484.375000
7723		-1523.437500
7724		-1523.437500
7725		-1523.437500
7726		-1484.375000
7727		-1523.437500
7728		-1523.437500
7729		-1523.437500
7730		-1523.437500
7731		-1523.437500
7732		-1523.437500
7733		-1523.437500
7734		-1523.437500
7735		-1523.437500
7736		-1523.437500
7737		-1523.437500
7738		-1523.437500
7739		-1523.437500
7740		-1523.437500
7741		-1523.437500
7742		-1523.437500
7743		-1523.437500
7744		-1523.437500
7745		-1523.437500
7746		-1523.437500
7747		-1523.437500
7748		-1523.437500
7749		-1562.500000
7750		-1562.500000
7751		-1562.500000
7752		-1562.500000
7753		-1562.500000
7754		-1562.500000
7755		-1562.500000
7756		-1523.437500
7757		-1562.500000
7758		-1562.500000
7759		-1562.500000
7760		-1562.500000
7761		-1562.500000
7762		-1562.500000
7763		-1562.500000
7764		-1562.500000
7765		-1562.500000
7766		-1562.500000
7767		-1562.500000
7768		-1562.500000
7769		-1562.500000
7770		-1562.500000
7771		-1562.500000
7772		-1562.500000
7773		-1562.500000
7774		-1562.500000
7775		-1562.500000
7776		-1562.500000
7777		-1562.500000
7778		-1562.500000
7779		-1601.562500
7780		-1562.500000
7781		-1601.562500
7782		-1562.500000
7783		-1601.562500
7784		-1601.562500
7785		-1601.562500
7786		-1601.562500
7787		-1601.562500
7788		-1601.562500
7789		-1601.562500
7790		-1601.562500
7791		-1601.562500
7792		-1601.562500
7793		-1601.562500
7794		-1601.562500
7795		-1601.562500
7796		-1601.562500
7797		-1601.562500
7798		-1601.562500
7799		-1601.562500
7800		-1601.562500
7801		-1601.562500
7802		-1601.562500
7803		-1640.625000
7804		-1601.562500
7805		-1601.562500
7806		-1601.562500
7807		-1601.562500
7808		-1601.562500
7809		-1601.562500
7810		-1601.562500
7811		-1601.562500
7812		-1601.562500
7813		-1601.562500
7814		-1601.562500
7815		-1640.625000
7816		-1601.562500
7817		-1640.625000
7818		-1640.625000
7819		-1640.625000
7820		-1640.625000
7821		-1640.625000
7822		-1640.625000
7823		-1640.625000
7824		-1640.625000
7825		-1640.625000
7826		-1640.625000
7827		-1640.625000
7828		-1640.625000
7829		-1640.625000
7830		-1640.625000
7831		-1640.625000
7832		-1640.625000
7833		-1640.625000
7834		-1640.625000
7835		-1640.625000
7836		-1640.625000
7837		-1640.625000
7838		-1640.625000
7839		-1640.625000
7840		-1640.625000
7841		-1640.625000
7842		-1640.625000
7843		-1640.625000
7844		-1640.625000
7845		-1640.625000
7846		-1640.625000
7847		-1640.625000
7848		-1640.625000
7849		-1640.625000
7850		-1640.625000
7851		-1640.625000
7852		-1640.625000
7853		-1640.625000
7854		-1640.625000
7855		-1640.625000
7856		-1679.687500
7857		-1679.687500
7858		-1679.687500
7859		-1679.687500
7860		-1679.687500
7861		-1679.687500
7862		-1679.687500
7863		-1679.687500
7864		-1679.687500
7865		-1679.687500
7866		-1679.687500
7867		-1679.687500
7868		-1679.687500
7869		-1679.687500
7870		-1679.687500
7871		-1679.687500
7872		-1679.687500
7873		-1679.687500
7874		-1679.687500
7875		-1679.687500
7876		-1679.687500
7877		-1679.687500
7878		-1679.687500
7879		-1679.687500
7880		-1679.687500
7881		-1679.687500
7882		-1679.687500
7883		-1679.687500
7884		-1679.687500
7885		-1679.687500
7886		-1679.687500
7887		-1679.687500
7888		-1679.687500
7889		-1679.687500
7890		-1679.687500
7891		-1679.687500
7892		-1679.687500
7893		-1679.687500
7894		-1679.687500
7895		-1679.687500
7896		-1679.687500
7897		-1679.687500
7898		-1679.687500
7899		-1718.750000
7900		-1718.750000
7901		-1718.750000
7902		-1718.750000
7903		-1718.750000
7904		-1679.687500
7905		-1718.750000
7906		-1718.750000
7907		-1718.750000
7908		-1718.750000
7909		-1718.750000
7910		-1718.750000
7911		-1718.750000
7912		-1718.750000
7913		-1718.750000
7914		-1718.750000
7915		-1718.750000
7916		-1679.687500
7917		-1718.750000
7918		-1718.750000
7919		-1718.750000
7920		-1718.750000
7921		-1718.750000
7922		-1718.750000
7923		-1718.750000
7924		-1718.750000
7925		-1718.750000
7926		-1718.750000
7927		-1718.750000
7928		-1718.750000
7929		-1718.750000
7930		-1718.750000
7931		-1718.750000
7932		-1718.750000
7933		-1718.750000
7934		-1718.750000
7935		-1718.750000
7936		-1718.750000
7937		-1718.750000
7938		-1718.750000
7939		-1718.750000
7940		-1718.750000
7941		-1718.750000
7942		-1718.750000
7943		-1718.750000
7944		-1718.750000
7945		-1718.750000
7946		-1718.750000
7947		-1718.750000
7948		-1718.750000
7949		-1718.750000
7950		-1718.750000
7951		-1718.750000
7952		-1718.750000
7953		-1718.750000
7954		-1718.750000
7955		-1718.750000
7956		-1718.750000
7957		-1718.750000
7958		-1718.750000
7959		-1757.812500
7960		-1718.750000
7961		-1718.750000
7962		-1718.750000
7963		-1757.812500
7964		-1757.812500
7965		-1757.812500
7966		-1757.812500
7967		-1718.750000
7968		-1757.812500
7969		-1757.812500
7970		-1757.812500
7971		-1757.812500
7972		-1718.750000
7973		-1718.750000
7974		-1718.750000
7975		-1757.812500
7976		-1718.750000
7977		-1718.750000
7978		-1718.750000
7979		-1718.750000
7980		-1757.812500
7981		-1757.812500
7982		-1757.812500
7983		-1757.812500
7984		-1757.812500
7985		-1757.812500
7986		-1757.812500
7987		-1757.812500
7988		-1757.812500
7989		-1757.812500
7990		-1757.812500
7991		-1718.750000
7992		-1757.812500
7993		-1757.812500
7994		-1718.750000
7995		-1757.812500
7996		-1757.812500
7997		-1757.812500
7998		-1757.812500
7999		-1757.812500
8000		-1757.812500
8001		-1757.812500
8002		-1757.812500
8003		-1757.812500
8004		-1757.812500
8005		-1757.812500
8006		-1757.812500
8007		-1757.812500
8008		-1757.812500
8009		-1757.812500
8010		-1757.812500
8011		-1757.812500
8012		-1757.812500
8013		-1757.812500
8014		-1757.812500
8015		-1757.812500
8016		-1757.812500
8017		-1757.812500
8018		-1757.812500
8019		-1757.812500
8020		-1757.812500
8021		-1757.812500
8022		-1757.812500
8023		-1757.812500
8024		-1757.812500
8025		-1757.812500
8026		-1757.812500
8027		-1757.812500
8028		-1757.812500
8029		-1757.812500
8030		-1757.812500
8031		-1757.812500
8032		-1757.812500
8033		-1757.812500
8034		-1757.812500
8035		-1757.812500
8036		-1757.812500
8037		-1757.812500
8038		-1757.812500
8039		-1757.812500
8040		-1757.812500
8041		-1757.812500
8042		-1757.812500
8043		-1757.812500
8044		-1757.812500
8045		-1757.812500
8046		-1757.812500
8047		-1757.812500
8048		-1757.812500
8049		-1757.812500
8050		-1757.812500
8051		-1757.812500
8052		-1757.812500
8053		-1757.812500
8054		-1757.812500
8055		-1757.812500
8056		-1757.812500
8057		-1757.812500
8058		-1757.812500
8059		-1757.812500
8060		-1757.812500
8061		-1757.812500
8062		-1757.812500
8063		-1757.812500
8064		-1757.812500
8065		-1757.812500
8066		-1757.812500
8067		-1757.812500
8068		-1757.812500
8069		-1757.812500
8070		-1757.812500
8071		-1757.812500
8072		-1757.812500
8073		-1757.812500
8074		-1757.812500
8075		-1757.812500
8076		-1796.875000
8077		-1757.812500
8078		-1757.812500
8079		-1757.812500
8080		-1757.812500
8081		-1757.812500
8082		-1757.812500
8083		-1757.812500
8084		-1757.812500
8085		-1757.812500
8086		-1757.812500
8087		-1757.812500
8088		-1757.812500
8089		-1757.812500
8090		-1757.812500
8091		-1757.812500
8092		-1757.812500
8093		-1757.812500
8094		-1757.812500
8095		-1757.812500
8096		-1757.812500
8097		-1757.812500
8098		-1757.812500
8099		-1757.812500
8100		-1757.812500
8101		-1757.812500
8102		-1757.812500
8103		-1757.812500
8104		-1757.812500
8105		-1757.812500
8106		-1757.812500
8107		-1757.812500
8108		-1757.812500
8109		-1757.812500
8110		-1757.812500
8111		-1757.812500
8112		-1757.812500
8113		-1757.812500
8114		-1757.812500
8115		-1718.750000
8116		-1757.812500
8117		-1757.812500
8118		-1757.812500
8119		-1757.812500
8120		-1757.812500
8121		-1757.812500
8122		-1757.812500
8123		-1757.812500
8124		-1757.812500
8125		-1718.750000
8126		-1757.812500
8127		-1757.812500
8128		-1757.812500
8129		-1757.812500
8130		-1757.812500
8131		-1757.812500
8132		-1757.812500
8133		-1757.812500
8134		-1757.812500
8135		-1757.812500
8136		-1718.750000
8137		-1718.750000
8138		-1757.812500
8139		-1718.750000
8140		-1718.750000
8141		-1718.750000
8142		-1757.812500
8143		-1757.812500
8144		-1757.812500
8145		-1757.812500
8146		-1757.812500
8147		-1757.812500
8148		-1757.812500
8149		-1757.812500
8150		-1757.812500
8151		-1718.750000
8152		-1718.750000
8153		-1718.750000
8154		-1718.750000
8155		-1718.750000
8156		-1718.750000
8157		-1718.750000
8158		-1718.750000
8159		-1718.750000
8160		-1718.750000
8161		-1718.750000
8162		-1757.812500
8163		-1718.750000
8164		-1718.750000
8165		-1718.750000
8166		-1757.812500
8167		-1718.750000
8168		-1718.750000
8169		-1718.750000
8170		-1718.750000
8171		-1718.750000
8172		-1718.750000
8173		-1718.750000
8174		-1718.750000
8175		-1718.750000
8176		-1718.750000
8177		-1718.750000
8178		-1718.750000
8179		-1718.750000
8180		-1718.750000
8181		-1718.750000
8182		-1718.750000
8183		-1718.750000
8184		-1718.750000
8185		-1718.750000
8186		-1718.750000
8187		-1718.750000
8188		-1718.750000
8189		-1718.750000
8190		-1718.750000
8191		-1718.750000
8192		-1718.750000
8193		-1718.750000
8194		-1718.750000
8195		-1718.750000
8196		-1718.750000
8197		-1718.750000
8198		-1718.750000
8199		-1718.750000
8200		-1718.750000
8201		-1718.750000
8202		-1718.750000
8203		-1718.750000
8204		-1718.750000
8205		-1718.750000
8206		-1718.750000
8207		-1718.750000
8208		-1718.750000
8209		-1718.750000
8210		-1718.750000
8211		-1718.750000
8212		-1718.750000
8213		-1679.687500
8214		-1718.750000
8215		-1718.750000
8216		-1718.750000
8217		-1718.750000
8218		-1718.750000
8219		-1718.750000
8220		-1718.750000
8221		-1718.750000
8222		-1718.750000
8223		-1718.750000
8224		-1718.750000
8225		-1718.750000
8226		-1718.750000
8227		-1679.687500
8228		-1679.687500
8229		-1679.687500
8230		-1679.687500
8231		-1679.687500
8232		-1679.687500
8233		-1679.687500
8234		-1718.750000
8235		-1679.687500
8236		-1679.687500
8237		-1679.687500
8238		-1679.687500
8239		-1718.750000
8240		-1679.687500
8241		-1679.687500
8242		-1679.687500
8243		-1679.687500
8244		-1679.687500
8245		-1679.687500
8246		-1679.687500
8247		-1679.687500
8248		-1679.687500
8249		-1679.687500
8250		-1679.687500
8251		-1679.687500
8252		-1679.687500
8253		-1679.687500
8254		-1679.687500
8255		-1679.687500
8256		-1679.687500
8257		-1679.687500
8258		-1679.687500
8259		-1679.687500
8260		-1679.687500
8261		-1679.687500
8262		-1679.687500
8263		-1679.687500
8264		-1679.687500
8265		-1679.687500
8266		-1679.687500
8267		-1679.687500
8268		-1679.687500
8269		-1679.687500
8270		-1679.687500
8271		-1679.687500
8272		-1640.625000
8273		-1640.625000
8274		-1679.687500
8275		-1679.687500
8276		-1679.687500
8277		-1679.687500
8278		-1679.687500
8279		-1640.625000
8280		-1640.625000
8281		-1640.625000
8282		-1640.625000
8283		-1640.625000
8284		-1640.625000
8285		-1640.625000
8286		-1640.625000
8287		-1640.625000
8288		-1640.625000
8289		-1640.625000
8290		-1640.625000
8291		-1640.625000
8292		-1640.625000
8293		-1640.625000
8294		-1640.625000
8295		-1640.625000
8296		-1640.625000
8297		-1640.625000
8298		-1640.625000
8299		-1640.625000
8300		-1640.625000
8301		-1640.625000
8302		-1640.625000
8303		-1640.625000
8304		-1640.625000
8305		-1640.625000
8306		-1640.625000
8307		-1640.625000
8308		-1640.625000
8309		-1640.625000
8310		-1640.625000
8311		-1640.625000
8312		-1640.625000
8313		-1601.562500
8314		-1601.562500
8315		-1601.562500
8316		-1640.625000
8317		-1601.562500
8318		-1640.625000
8319		-1601.562500
8320		-1601.562500
8321		-1601.562500
8322		-1601.562500
8323		-1601.562500
8324		-1640.625000
8325		-1601.562500
8326		-1601.562500
8327		-1601.562500
8328		-1601.562500
8329		-1601.562500
8330		-1640.625000
8331		-1601.562500
8332		-1601.562500
8333		-1601.562500
8334		-1601.562500
8335		-1601.562500
8336		-1601.562500
8337		-1601.562500
8338		-1562.500000
8339		-1601.562500
8340		-1601.562500
8341		-1601.562500
8342		-1601.562500
8343		-1601.562500
8344		-1562.500000
8345		-1601.562500
8346		-1601.562500
8347		-1601.562500
8348		-1562.500000
8349		-1562.500000
8350		-1562.500000
8351		-1562.500000
8352		-1562.500000
8353		-1562.500000
8354		-1562.500000
8355		-1562.500000
8356		-1562.500000
8357		-1562.500000
8358		-1562.500000
8359		-1562.500000
8360		-1562.500000
8361		-1562.500000
8362		-1562.500000
8363		-1562.500000
8364		-1562.500000
8365		-1562.500000
8366		-1562.500000
8367		-1562.500000
8368		-1562.500000
8369		-1562.500000
8370		-1562.500000
8371		-1523.437500
8372		-1523.437500
8373		-1523.437500
8374		-1523.437500
8375		-1523.437500
8376		-1523.437500
8377		-1523.437500
8378		-1523.437500
8379		-1523.437500
8380		-1523.437500
8381		-1523.437500
8382		-1523.437500
8383		-1523.437500
8384		-1523.437500
8385		-1523.437500
8386		-1523.437500
8387		-1523.437500
8388		-1523.437500
8389		-1523.437500
8390		-1523.437500
8391		-1523.437500
8392		-1484.375000
8393		-1484.375000
8394		-1484.375000
8395		-1484.375000
8396		-1484.375000
8397		-1484.375000
8398		-1484.375000
8399		-1523.437500
8400		-1523.437500
8401		-1484.375000
8402		-1523.437500
8403		-1484.375000
8404		-1484.375000
8405		-1484.375000
8406		-1484.375000
8407		-1484.375000
8408		-1484.375000
8409		-1484.375000
8410		-1484.375000
8411		-1484.375000
8412		-1484.375000
8413		-1445.312500
8414		-1484.375000
8415		-1445.312500
8416		-1484.375000
8417		-1484.375000
8418		-1484.375000
8419		-1484.375000
8420		-1484.375000
8421		-1484.375000
8422		-1484.375000
8423		-1445.312500
8424		-1484.375000
8425		-1445.312500
8426		-1445.312500
8427		-1445.312500
8428		-1445.312500
8429		-1445.312500
8430		-1445.312500
8431		-1445.312500
8432		-1445.312500
8433		-1445.312500
8434		-1445.312500
8435		-1445.312500
8436		-1445.312500
8437		-1445.312500
8438		-1445.312500
8439		-1445.312500
8440		-1445.312500
8441		-1406.250000
8442		-1445.312500
8443		-1406.250000
8444		-1406.250000
8445		-1406.250000
8446		-1406.250000
8447		-1406.250000
8448		-1406.250000
8449		-1406.250000
8450		-1406.250000
8451		-1406.250000
8452		-1406.250000
8453		-1406.250000
8454		-1406.250000
8455		-1406.250000
8456		-1406.250000
8457		-1406.250000
8458		-1406.250000
8459		-1406.250000
8460		-1406.250000
8461		-1406.250000
8462		-1367.187500
8463		-1367.187500
8464		-1367.187500
8465		-1367.187500
8466		-1367.187500
8467		-1367.187500
8468		-1367.187500
8469		-1367.187500
8470		-1367.187500
8471		-1367.187500
8472		-1367.187500
8473		-1367.187500
8474		-1367.187500
8475		-1367.187500
8476		-1328.125000
8477		-1367.187500
8478		-1328.125000
8479		-1328.125000
8480		-1328.125000
8481		-1328.125000
8482		-1328.125000
8483		-1328.125000
8484		-1328.125000
8485		-1328.125000
8486		-1328.125000
8487		-1328.125000
8488		-1328.125000
8489		-1328.125000
8490		-1328.125000
8491		-1328.125000
8492		-1328.125000
8493		-1289.062500
8494		-1289.062500
8495		-1289.062500
8496		-1289.062500
8497		-1289.062500
8498		-1289.062500
8499		-1289.062500
8500		-1289.062500
8501		-1289.062500
8502		-1289.062500
8503		-1289.062500
8504		-1289.062500
8505		-1289.062500
8506		-1289.062500
8507		-1250.000000
8508		-1289.062500
8509		-1289.062500
8510		-1250.000000
8511		-1250.000000
8512		-1250.000000
8513		-1250.000000
8514		-1250.000000
8515		-1250.000000
8516		-1250.000000
8517		-1250.000000
8518		-1250.000000
8519		-1250.000000
8520		-1250.000000
8521		-1250.000000
8522		-1250.000000
8523		-1210.937500
8524		-1210.937500
8525		-1210.937500
8526		-1210.937500
8527		-1210.937500
8528		-1210.937500
8529		-1210.937500
8530		-1210.937500
8531		-1210.937500
8532		-1210.937500
8533		-1210.937500
8534		-1171.875000
8535		-1210.937500
8536		-1210.937500
8537		-1171.875000
8538		-1171.875000
8539		-1171.875000
8540		-1171.875000
8541		-1171.875000
8542		-1171.875000
8543		-1171.875000
8544		-1171.875000
8545		-1132.812500
8546		-1171.875000
8547		-1171.875000
8548		-1171.875000
8549		-1171.875000
8550		-1171.875000
8551		-1171.875000
8552		-1132.812500
8553		-1132.812500
8554		-1132.812500
8555		-1132.812500
8556		-1132.812500
8557		-1132.812500
8558		-1132.812500
8559		-1132.812500
8560		-1132.812500
8561		-1132.812500
8562		-1132.812500
8563		-1132.812500
8564		-1132.812500
8565		-1132.812500
8566		-1132.812500
8567		-1132.812500
8568		-1132.812500
8569		-1093.750000
8570		-1093.750000
8571		-1093.750000
8572		-1093.750000
8573		-1093.750000
8574		-1093.750000
8575		-1093.750000
8576		-1093.750000
8577		-1093.750000
8578		-1093.750000
8579		-1093.750000
8580		-1093.750000
8581		-1093.750000
8582		-1054.687500
8583		-1054.687500
8584		-1054.687500
8585		-1054.687500
8586		-1054.687500
8587		-1054.687500
8588		-1054.687500
8589		-1054.687500
8590		-1054.687500
8591		-1054.687500
8592		-1015.625000
8593		-1015.625000
8594		-1015.625000
8595		-1015.625000
8596		-1015.625000
8597		-1015.625000
8598		-1015.625000
8599		-1015.625000
8600		-1015.625000
8601		-1015.625000
8602		-1015.625000
8603		-1015.625000
8604		-1015.625000
8605		-1015.625000
8606		-1015.625000
8607		-976.562500
8608		-976.562500
8609		-976.562500
8610		-976.562500
8611		-976.562500
8612		-976.562500
8613		-976.562500
8614		-976.562500
8615		-976.562500
8616		-976.562500
8617		-976.562500
8618		-976.562500
8619		-976.562500
8620		-976.562500
8621		-976.562500
8622		-976.562500
8623		-976.562500
8624		-937.500000
8625		-937.500000
8626		-937.500000
8627		-937.500000
8628		-937.500000
8629		-937.500000
8630		-937.500000
8631		-937.500000
8632		-937.500000
8633		-937.500000
8634		-937.500000
8635		-937.500000
8636		-898.437500
8637		-898.437500
8638		-898.437500
8639		-937.500000
8640		-898.437500
8641		-898.437500
8642		-898.437500
8643		-898.437500
8644		-898.437500
8645		-898.437500
8646		-898.437500
8647		-898.437500
8648		-859.375000
8649		-859.375000
8650		-859.375000
8651		-859.375000
8652		-859.375000
8653		-859.375000
8654		-859.375000
8655		-859.375000
8656		-859.375000
8657		-859.375000
8658		-859.375000
8659		-859.375000
8660		-859.375000
8661		-859.375000
8662		-820.312500
8663		-859.375000
8664		-820.312500
8665		-820.312500
8666		-820.312500
8667		-820.312500
8668		-820.312500
8669		-820.312500
8670		-820.312500
8671		-820.312500
8672		-820.312500
8673		-820.312500
8674		-820.312500
8675		-820.312500
8676		-820.312500
8677		-820.312500
8678		-781.250000
8679		-781.250000
8680		-781.250000
8681		-781.250000
8682		-781.250000
8683		-781.250000
8684		-781.250000
8685		-781.250000
8686		-781.250000
8687		-781.250000
8688		-781.250000
8689		-781.250000
8690		-781.250000
8691		-781.250000
8692		-781.250000
8693		-742.187500
8694		-742.187500
8695		-742.187500
8696		-742.187500
8697		-742.187500
8698		-742.187500
8699		-742.187500
8700		-742.187500
8701		-742.187500
8702		-742.187500
8703		-742.187500
8704		-742.187500
8705		-742.187500
8706		-742.187500
8707		-742.187500
8708		-742.187500
8709		-742.187500
8710		-703.125000
8711		-703.125000
8712		-703.125000
8713		-742.187500
8714		-703.125000
8715		-703.125000
8716		-703.125000
8717		-703.125000
8718		-703.125000
8719		-703.125000
8720		-703.125000
8721		-703.125000
8722		-703.125000
8723		-703.125000
8724		-703.125000
8725		-703.125000
8726		-703.125000
8727		-664.062500
8728		-703.125000
8729		-664.062500
8730		-664.062500
8731		-664.062500
8732		-664.062500
8733		-664.062500
8734		-664.062500
8735		-664.062500
8736		-664.062500
8737		-664.062500
8738		-664.062500
8739		-664.062500
8740		-664.062500
8741		-664.062500
8742		-664.062500
8743		-664.062500
8744		-664.062500
8745		-625.000000
8746		-625.000000
8747		-625.000000
8748		-625.000000
8749		-625.000000
8750		-625.000000
8751		-625.000000
8752		-625.000000
8753		-625.000000
8754		-625.000000
8755		-625.000000
8756		-625.000000
8757		-625.000000
8758		-625.000000
8759		-625.000000
8760		-625.000000
8761		-625.000000
8762		-625.000000
8763		-625.000000
8764		-625.000000
8765		-625.000000
8766		-585.937500
8767		-585.937500
8768		-585.937500
8769		-585.937500
8770		-585.937500
8771		-585.937500
8772		-585.937500
8773		-585.937500
8774		-585.937500
8775		-585.937500
8776		-585.937500
8777		-585.937500
8778		-585.937500
8779		-585.937500
8780		-585.937500
8781		-585.937500
8782		-585.937500
8783		-585.937500
8784		-585.937500
8785		-585.937500
8786		-585.937500
8787		-546.875000
8788		-546.875000
8789		-546.875000
8790		-546.875000
8791		-546.875000
8792		-546.875000
8793		-546.875000
8794		-546.875000
8795		-546.875000
8796		-546.875000
8797		-546.875000
8798		-546.875000
8799		-546.875000
8800		-546.875000
8801		-546.875000
8802		-546.875000
8803		-546.875000
8804		-546.875000
8805		-546.875000
8806		-546.875000
8807		-546.875000
8808		-546.875000
8809		-546.875000
8810		-546.875000
8811		-507.812500
8812		-546.875000
8813		-546.875000
8814		-546.875000
8815		-546.875000
8816		-546.875000
8817		-546.875000
8818		-546.875000
8819		-546.875000
8820		-546.875000
8821		-546.875000
8822		-546.875000
8823		-507.812500
8824		-546.875000
8825		-507.812500
8826		-507.812500
8827		-507.812500
8828		-507.812500
8829		-507.812500
8830		-507.812500
8831		-507.812500
8832		-507.812500
8833		-507.812500
8834		-507.812500
8835		-507.812500
8836		-507.812500
8837		-507.812500
8838		-507.812500
8839		-507.812500
8840		-507.812500
8841		-507.812500
8842		-507.812500
8843		-507.812500
8844		-507.812500
8845		-507.812500
8846		-507.812500
8847		-507.812500
8848		-507.812500
8849		-507.812500
8850		-507.812500
8851		-507.812500
8852		-507.812500
8853		-507.812500
8854		-507.812500
8855		-507.812500
8856		-507.812500
8857		-507.812500
8858		-507.812500
8859		-507.812500
8860		-507.812500
8861		-507.812500
8862		-507.812500
8863		-507.812500
8864		-507.812500
8865		-507.812500
8866		-507.812500
8867		-507.812500
8868		-507.812500
8869		-507.812500
8870		-507.812500
8871		-507.812500
8872		-507.812500
8873		-507.812500
8874		-507.812500
8875		-507.812500
8876		-507.812500
8877		-507.812500
8878		-507.812500
8879		-507.812500
8880		-507.812500
8881		-507.812500
8882		-507.812500
8883		-507.812500
8884		-507.812500
8885		-507.812500
8886		-507.812500
8887		-507.812500
8888		-507.812500
8889		-507.812500
8890		-507.812500
8891		-507.812500
8892		-507.812500
8893		-507.812500
8894		-507.812500
8895		-507.812500
8896		-507.812500
8897		-507.812500
8898		-507.812500
8899		-507.812500
8900		-507.812500
8901		-507.812500
8902		-507.812500
8903		-507.812500
8904		-507.812500
8905		-507.812500
8906		-507.812500
8907		-507.812500
8908		-507.812500
8909		-507.812500
8910		-507.812500
8911		-507.812500
8912		-507.812500
8913		-507.812500
8914		-507.812500
8915		-507.812500
8916		-507.812500
8917		-507.812500
8918		-507.812500
8919		-507.812500
8920		-507.812500
8921		-507.812500
8922		-507.812500
8923		-507.812500
8924		-507.812500
8925		-507.812500
8926		-507.812500
8927		-507.812500
8928		-507.812500
8929		-507.812500
8930		-507.812500
8931		-507.812500
8932		-507.812500
8933		-507.812500
8934		-507.812500
8935		-507.812500
8936		-507.812500
8937		-507.812500
8938		-507.812500
8939		-507.812500
8940		-546.875000
8941		-546.875000
8942		-546.875000
8943		-546.875000
8944		-546.875000
8945		-546.875000
8946		-546.875000
8947		-546.875000
8948		-546.875000
8949		-546.875000
8950		-546.875000
8951		-546.875000
8952		-546.875000
8953		-546.875000
8954		-546.875000
8955		-546.875000
8956		-546.875000
8957		-546.875000
8958		-546.875000
8959		-546.875000
8960		-546.875000
8961		-546.875000
8962		-546.875000
8963		-546.875000
8964		-585.937500
8965		-546.875000
8966		-546.875000
8967		-546.875000
8968		-546.875000
8969		-546.875000
8970		-585.937500
8971		-546.875000
8972		-546.875000
8973		-546.875000
8974		-585.937500
8975		-585.937500
8976		-585.937500
8977		-585.937500
8978		-585.937500
8979		-585.937500
8980		-585.937500
8981		-585.937500
8982		-585.937500
8983		-585.937500
8984		-585.937500
8985		-546.875000
8986		-585.937500
8987		-585.937500
8988		-585.937500
8989		-585.937500
8990		-585.937500
8991		-585.937500
8992		-585.937500
8993		-585.937500
8994		-625.000000
8995		-625.000000
8996		-625.000000
8997		-625.000000
8998		-625.000000
8999		-625.000000
9000		-625.000000
9001		-625.000000
9002		-625.000000
9003		-625.000000
9004		-625.000000
9005		-625.000000
9006		-625.000000
9007		-625.000000
9008		-625.000000
9009		-625.000000
9010		-625.000000
9011		-625.000000
9012		-664.062500
9013		-625.000000
9014		-625.000000
9015		-664.062500
9016		-664.062500
9017		-664.062500
9018		-664.062500
9019		-664.062500
9020		-664.062500
9021		-664.062500
9022		-664.062500
9023		-664.062500
9024		-664.062500
9025		-664.062500
9026		-664.062500
9027		-664.062500
9028		-664.062500
9029		-664.062500
9030		-703.125000
9031		-664.062500
9032		-664.062500
9033		-703.125000
9034		-703.125000
9035		-703.125000
9036		-703.125000
9037		-703.125000
9038		-703.125000
9039		-703.125000
9040		-703.125000
9041		-703.125000
9042		-703.125000
9043		-703.125000
9044		-703.125000
9045		-703.125000
9046		-703.125000
9047		-703.125000
9048		-742.187500
9049		-703.125000
9050		-742.187500
9051		-742.187500
9052		-742.187500
9053		-742.187500
9054		-742.187500
9055		-742.187500
9056		-742.187500
9057		-742.187500
9058		-742.187500
9059		-742.187500
9060		-742.187500
9061		-742.187500
9062		-742.187500
9063		-742.187500
9064		-742.187500
9065		-781.250000
9066		-742.187500
9067		-781.250000
9068		-781.250000
9069		-781.250000
9070		-781.250000
9071		-781.250000
9072		-781.250000
9073		-781.250000
9074		-781.250000
9075		-781.250000
9076		-781.250000
9077		-781.250000
9078		-781.250000
9079		-781.250000
9080		-781.250000
9081		-820.312500
9082		-820.312500
9083		-820.312500
9084		-820.312500
9085		-820.312500
9086		-820.312500
9087		-820.312500
9088		-820.312500
9089		-820.312500
9090		-820.312500
9091		-820.312500
9092		-820.312500
9093		-820.312500
9094		-820.312500
9095		-820.312500
9096		-859.375000
9097		-820.312500
9098		-859.375000
9099		-859.375000
9100		-859.375000
9101		-859.375000
9102		-859.375000
9103		-859.375000
9104		-859.375000
9105		-859.375000
9106		-859.375000
9107		-859.375000
9108		-859.375000
9109		-859.375000
9110		-859.375000
9111		-859.375000
9112		-898.437500
9113		-898.437500
9114		-898.437500
9115		-898.437500
9116		-898.437500
9117		-898.437500
9118		-898.437500
9119		-898.437500
9120		-898.437500
9121		-898.437500
9122		-898.437500
9123		-937.500000
9124		-937.500000
9125		-937.500000
9126		-937.500000
9127		-937.500000
9128		-937.500000
9129		-937.500000
9130		-937.500000
9131		-937.500000
9132		-937.500000
9133		-937.500000
9134		-937.500000
9135		-937.500000
9136		-976.562500
9137		-937.500000
9138		-976.562500
9139		-976.562500
9140		-976.562500
9141		-976.562500
9142		-976.562500
9143		-976.562500
9144		-976.562500
9145		-976.562500
9146		-976.562500
9147		-976.562500
9148		-976.562500
9149		-976.562500
9150		-976.562500
9151		-976.562500
9152		-976.562500
9153		-976.562500
9154		-976.562500
9155		-1015.625000
9156		-1015.625000
9157		-1015.625000
9158		-1015.625000
9159		-1015.625000
9160		-1015.625000
9161		-1015.625000
9162		-1015.625000
9163		-1015.625000
9164		-1015.625000
9165		-1015.625000
9166		-1054.687500
9167		-1054.687500
9168		-1054.687500
9169		-1054.687500
9170		-1015.625000
9171		-1054.687500
9172		-1054.687500
9173		-1054.687500
9174		-1054.687500
9175		-1054.687500
9176		-1054.687500
9177		-1054.687500
9178		-1054.687500
9179		-1093.750000
9180		-1093.750000
9181		-1093.750000
9182		-1093.750000
9183		-1093.750000
9184		-1093.750000
9185		-1093.750000
9186		-1093.750000
9187		-1093.750000
9188		-1093.750000
9189		-1093.750000
9190		-1093.750000
9191		-1093.750000
9192		-1093.750000
9193		-1093.750000
9194		-1093.750000
9195		-1093.750000
9196		-1132.812500
9197		-1132.812500
9198		-1132.812500
9199		-1132.812500
9200		-1132.812500
9201		-1132.812500
9202		-1132.812500
9203		-1132.812500
9204		-1132.812500
9205		-1093.750000
9206		-1132.812500
9207		-1132.812500
9208		-1132.812500
9209		-1132.812500
9210		-1132.812500
9211		-1132.812500
9212		-1132.812500
9213		-1171.875000
9214		-1171.875000
9215		-1171.875000
9216		-1171.875000
9217		-1171.875000
9218		-1171.875000
9219		-1171.875000
9220		-1171.875000
9221		-1171.875000
9222		-1171.875000
9223		-1171.875000
9224		-1171.875000
9225		-1171.875000
9226		-1171.875000
9227		-1171.875000
9228		-1171.875000
9229		-1171.875000
9230		-1171.875000
9231		-1210.937500
9232		-1210.937500
9233		-1210.937500
9234		-1210.937500
9235		-1210.937500
9236		-1210.937500
9237		-1210.937500
9238		-1210.937500
9239		-1210.937500
9240		-1210.937500
9241		-1210.937500
9242		-1210.937500
9243		-1210.937500
9244		-1210.937500
9245		-1250.000000
9246		-1250.000000
9247		-1250.000000
9248		-1250.000000
9249		-1250.000000
9250		-1250.000000
9251		-1250.000000
9252		-1250.000000
9253		-1250.000000
9254		-1250.000000
9255		-1250.000000
9256		-1250.000000
9257		-1250.000000
9258		-1250.000000
9259		-1289.062500
9260		-1289.062500
9261		-1289.062500
9262		-1210.937500
9263		-1289.062500
9264		-1289.062500
9265		-1289.062500
9266		-1289.062500
9267		-1289.062500
9268		-1289.062500
9269		-1289.062500
9270		-1289.062500
9271		-1289.062500
9272		-1289.062500
9273		-1289.062500
9274		-1289.062500
9275		-1289.062500
9276		-1289.062500
9277		-1289.062500
9278		-1289.062500
9279		-1328.125000
9280		-1328.125000
9281		-1328.125000
9282		-1328.125000
9283		-1328.125000
9284		-1328.125000
9285		-1328.125000
9286		-1328.125000
9287		-1328.125000
9288		-1328.125000
9289		-1328.125000
9290		-1328.125000
9291		-1328.125000
9292		-1328.125000
9293		-1328.125000
9294		-1328.125000
9295		-1328.125000
9296		-1328.125000
9297		-1328.125000
9298		-1328.125000
9299		-1367.187500
9300		-1367.187500
9301		-1367.187500
9302		-1367.187500
9303		-1367.187500
9304		-1367.187500
9305		-1367.187500
9306		-1367.187500
9307		-1367.187500
9308		-1367.187500
9309		-1367.187500
9310		-1367.187500
9311		-1367.187500
9312		-1367.187500
9313		-1367.187500
9314		-1367.187500
9315		-1367.187500
9316		-1367.187500
9317		-1406.250000
9318		-1406.250000
9319		-1406.250000
9320		-1406.250000
9321		-1406.250000
9322		-1406.250000
9323		-1406.250000
9324		-1406.250000
9325		-1406.250000
9326		-1406.250000
9327		-1406.250000
9328		-1406.250000
9329		-1406.250000
9330		-1406.250000
9331		-1406.250000
9332		-1406.250000
9333		-1406.250000
9334		-1406.250000
9335		-1406.250000
9336		-1406.250000
9337		-1445.312500
9338		-1445.312500
9339		-1445.312500
9340		-1445.312500
9341		-1445.312500
9342		-1445.312500
9343		-1445.312500
9344		-1445.312500
9345		-1445.312500
9346		-1445.312500
9347		-1445.312500
9348		-1445.312500
9349		-1445.312500
9350		-1445.312500
9351		-1445.312500
9352		-1445.312500
9353		-1445.312500
9354		-1445.312500
9355		-1445.312500
9356		-1445.312500
9357		-1445.312500
9358		-1484.375000
9359		-1484.375000
9360		-1484.375000
9361		-1484.375000
9362		-1484.375000
9363		-1484.375000
9364		-1484.375000
9365		-1484.375000
9366		-1484.375000
9367		-1484.375000
9368		-1484.375000
9369		-1484.375000
9370		-1484.375000
9371		-1484.375000
9372		-1484.375000
9373		-1484.375000
9374		-1484.375000
9375		-1484.375000
9376		-1484.375000
9377		-1484.375000
9378		-1484.375000
9379		-1523.437500
9380		-1523.437500
9381		-1523.437500
9382		-1523.437500
9383		-1523.437500
9384		-1523.437500
9385		-1523.437500
9386		-1484.375000
9387		-1523.437500
9388		-1523.437500
9389		-1523.437500
9390		-1523.437500
9391		-1523.437500
9392		-1523.437500
9393		-1523.437500
9394		-1523.437500
9395		-1523.437500
9396		-1523.437500
9397		-1523.437500
9398		-1523.437500
9399		-1523.437500
9400		-1523.437500
9401		-1523.437500
9402		-1523.437500
9403		-1523.437500
9404		-1562.500000
9405		-1523.437500
9406		-1523.437500
9407		-1562.500000
9408		-1523.437500
9409		-1523.437500
9410		-1562.500000
9411		-1562.500000
9412		-1562.500000
9413		-1562.500000
9414		-1562.500000
9415		-1562.500000
9416		-1562.500000
9417		-1562.500000
9418		-1562.500000
9419		-1562.500000
9420		-1562.500000
9421		-1562.500000
9422		-1562.500000
9423		-1562.500000
9424		-1562.500000
9425		-1562.500000
9426		-1562.500000
9427		-1562.500000
9428		-1562.500000
9429		-1562.500000
9430		-1562.500000
9431		-1562.500000
9432		-1562.500000
9433		-1562.500000
9434		-1562.500000
9435		-1562.500000
9436		-1562.500000
9437		-1601.562500
9438		-1562.500000
9439		-1601.562500
9440		-1601.562500
9441		-1562.500000
9442		-1601.562500
9443		-1601.562500
9444		-1601.562500
9445		-1601.562500
9446		-1601.562500
9447		-1601.562500
9448		-1601.562500
9449		-1601.562500
9450		-1601.562500
9451		-1601.562500
9452		-1601.562500
9453		-1601.562500
9454		-1601.562500
9455		-1601.562500
9456		-1601.562500
9457		-1601.562500
9458		-1601.562500
9459		-1601.562500
9460		-1601.562500
9461		-1601.562500
9462		-1601.562500
9463		-1601.562500
9464		-1601.562500
9465		-1601.562500
9466		-1601.562500
9467		-1601.562500
9468		-1601.562500
9469		-1601.562500
9470		-1601.562500
9471		-1601.562500
9472		-1601.562500
9473		-1601.562500
9474		-1601.562500
9475		-1601.562500
9476		-1640.625000
9477		-1640.625000
9478		-1640.625000
9479		-1640.625000
9480		-1640.625000
9481		-1640.625000
9482		-1640.625000
9483		-1640.625000
9484		-1640.625000
9485		-1640.625000
9486		-1640.625000
9487		-1640.625000
9488		-1640.625000
9489		-1640.625000
9490		-1640.625000
9491		-1640.625000
9492		-1640.625000
9493		-1640.625000
9494		-1640.625000
9495		-1640.625000
9496		-1640.625000
9497		-1640.625000
9498		-1640.625000
9499		-1640.625000
9500		-1640.625000
9501		-1640.625000
9502		-1640.625000
9503		-1679.687500
9504		-1640.625000
9505		-1640.625000
9506		-1640.625000
9507		-1640.625000
9508		-1640.625000
9509		-1640.625000
9510		-1640.625000
9511		-1640.625000
9512		-1640.625000
9513		-1640.625000
9514		-1640.625000
9515		-1640.625000
9516		-1640.625000
9517		-1640.625000
9518		-1679.687500
9519		-1679.687500
9520		-1679.687500
9521		-1679.687500
9522		-1679.687500
9523		-1679.687500
9524		-1679.687500
9525		-1679.687500
9526		-1679.687500
9527		-1679.687500
9528		-1679.687500
9529		-1679.687500
9530		-1679.687500
9531		-1679.687500
9532		-1640.625000
9533		-1679.687500
9534		-1679.687500
9535		-1679.687500
9536		-1679.687500
9537		-1679.687500
9538		-1679.687500
9539		-1679.687500
9540		-1679.687500
9541		-1679.687500
9542		-1679.687500
9543		-1679.687500
9544		-1679.687500
9545		-1679.687500
9546		-1679.687500
9547		-1679.687500
9548		-1679.687500
9549		-1679.687500
9550		-1679.687500
9551		-1679.687500
9552		-1679.687500
9553		-1679.687500
9554		-1679.687500
9555		-1679.687500
9556		-1679.687500
9557		-1679.687500
9558		-1679.687500
9559		-1679.687500
9560		-1679.687500
9561		-1718.750000
9562		-1718.750000
9563		-1679.687500
9564		-1679.687500
9565		-1679.687500
9566		-1679.687500
9567		-1679.687500
9568		-1679.687500
9569		-1679.687500
9570		-1679.687500
9571		-1679.687500
9572		-1679.687500
9573		-1679.687500
9574		-1718.750000
9575		-1718.750000
9576		-1718.750000
9577		-1718.750000
9578		-1718.750000
9579		-1718.750000
9580		-1718.750000
9581		-1718.750000
9582		-1718.750000
9583		-1718.750000
9584		-1718.750000
9585		-1718.750000
9586		-1718.750000
9587		-1718.750000
9588		-1718.750000
9589		-1718.750000
9590		-1718.750000
9591		-1718.750000
9592		-1718.750000
9593		-1718.750000
9594		-1718.750000
9595		-1718.750000
9596		-1718.750000
9597		-1718.750000
9598		-1718.750000
9599		-1718.750000
9600		-1718.750000
9601		-1718.750000
9602		-1718.750000
9603		-1718.750000
9604		-1718.750000
9605		-1718.750000
9606		-1679.687500
9607		-1718.750000
9608		-1718.750000
9609		-1718.750000
9610		-1718.750000
9611		-1718.750000
9612		-1718.750000
9613		-1718.750000
9614		-1718.750000
9615		-1718.750000
9616		-1718.750000
9617		-1718.750000
9618		-1718.750000
9619		-1718.750000
9620		-1718.750000
9621		-1718.750000
9622		-1718.750000
9623		-1718.750000
9624		-1718.750000
9625		-1718.750000
9626		-1718.750000
9627		-1718.750000
9628		-1718.750000
9629		-1718.750000
9630		-1718.750000
9631		-1718.750000
9632		-1718.750000
9633		-1718.750000
9634		-1718.750000
9635		-1718.750000
9636		-1718.750000
9637		-1718.750000
9638		-1718.750000
9639		-1718.750000
9640		-1718.750000
9641		-1718.750000
9642		-1718.750000
9643		-1718.750000
9644		-1718.750000
9645		-1757.812500
9646		-1757.812500
9647		-1718.750000
9648		-1718.750000
9649		-1718.750000
9650		-1718.750000
9651		-1718.750000
9652		-1757.812500
9653		-1718.750000
9654		-1718.750000
9655		-1718.750000
9656		-1718.750000
9657		-1718.750000
9658		-1718.750000
9659		-1718.750000
9660		-1718.750000
9661		-1718.750000
9662		-1718.750000
9663		-1757.812500
9664		-1718.750000
9665		-1718.750000
9666		-1757.812500
9667		-1718.750000
9668		-1718.750000
9669		-1718.750000
9670		-1718.750000
9671		-1718.750000
9672		-1718.750000
9673		-1718.750000
9674		-1718.750000
9675		-1718.750000
9676		-1718.750000
9677		-1718.750000
9678		-1718.750000
9679		-1757.812500
9680		-1718.750000
9681		-1718.750000
9682		-1757.812500
9683		-1757.812500
9684		-1718.750000
9685		-1757.812500
9686		-1718.750000
9687		-1718.750000
9688		-1718.750000
9689		-1718.750000
9690		-1757.812500
9691		-1718.750000
9692		-1718.750000
9693		-1718.750000
9694		-1718.750000
9695		-1718.750000
9696		-1718.750000
9697		-1718.750000
9698		-1718.750000
9699		-1757.812500
9700		-1718.750000
9701		-1757.812500
9702		-1757.812500
9703		-1757.812500
9704		-1757.812500
9705		-1757.812500
9706		-1718.750000
9707		-1757.812500
9708		-1718.750000
9709		-1718.750000
9710		-1718.750000
9711		-1757.812500
9712		-1718.750000
9713		-1718.750000
9714		-1718.750000
9715		-1718.750000
9716		-1718.750000
9717		-1757.812500
9718		-1757.812500
9719		-1757.812500
9720		-1757.812500
9721		-1757.812500
9722		-1757.812500
9723		-1757.812500
9724		-1757.812500
9725		-1757.812500
9726		-1757.812500
9727		-1757.812500
9728		-1718.750000
9729		-1718.750000
9730		-1718.750000
9731		-1718.750000
9732		-1718.750000
9733		-1718.750000
9734		-1718.750000
9735		-1718.750000
9736		-1718.750000
9737		-1718.750000
9738		-1757.812500
9739		-1757.812500
9740		-1757.812500
9741		-1757.812500
9742		-1757.812500
9743		-1757.812500
9744		-1718.750000
9745		-1718.750000
9746		-1718.750000
9747		-1718.750000
9748		-1718.750000
9749		-1718.750000
9750		-1718.750000
9751		-1718.750000
9752		-1718.750000
9753		-1718.750000
9754		-1718.750000
9755		-1718.750000
9756		-1718.750000
9757		-1757.812500
9758		-1757.812500
9759		-1718.750000
9760		-1757.812500
9761		-1718.750000
9762		-1718.750000
9763		-1757.812500
9764		-1718.750000
9765		-1718.750000
9766		-1718.750000
9767		-1718.750000
9768		-1718.750000
9769		-1718.750000
9770		-1718.750000
9771		-1718.750000
9772		-1718.750000
9773		-1718.750000
9774		-1718.750000
9775		-1718.750000
9776		-1718.750000
9777		-1718.750000
9778		-1718.750000
9779		-1718.750000
9780		-1718.750000
9781		-1718.750000
9782		-1718.750000
9783		-1718.750000
9784		-1718.750000
9785		-1718.750000
9786		-1718.750000
9787		-1718.750000
9788		-1718.750000
9789		-1718.750000
9790		-1718.750000
9791		-1718.750000
9792		-1718.750000
9793		-1718.750000
9794		-1718.750000
9795		-1718.750000
9796		-1718.750000
9797		-1718.750000
9798		-1718.750000
9799		-1718.750000
9800		-1718.750000
9801		-1718.750000
9802		-1718.750000
9803		-1718.750000
9804		-1718.750000
9805		-1718.750000
9806		-1718.750000
9807		-1718.750000
9808		-1718.750000
9809		-1718.750000
9810		-1718.750000
9811		-1718.750000
9812		-1718.750000
9813		-1718.750000
9814		-1718.750000
9815		-1718.750000
9816		-1718.750000
9817		-1718.750000
9818		-1718.750000
9819		-1718.750000
9820		-1718.750000
9821		-1718.750000
9822		-1718.750000
9823		-1718.750000
9824		-1718.750000
9825		-1718.750000
9826		-1718.750000
9827		-1718.750000
9828		-1718.750000
9829		-1718.750000
9830		-1718.750000
9831		-1718.750000
9832		-1718.750000
9833		-1718.750000
9834		-1718.750000
9835		-1718.750000
9836		-1718.750000
9837		-1718.750000
9838		-1718.750000
9839		-1718.750000
9840		-1718.750000
9841		-1718.750000
9842		-1718.750000
9843		-1718.750000
9844		-1718.750000
9845		-1679.687500
9846		-1718.750000
9847		-1718.750000
9848		-1718.750000
9849		-1718.750000
9850		-1718.750000
9851		-1679.687500
9852		-1679.687500
9853		-1679.687500
9854		-1679.687500
9855		-1718.750000
9856		-1679.687500
9857		-1679.687500
9858		-1679.687500
9859		-1679.687500
9860		-1679.687500
9861		-1679.687500
9862		-1679.687500
9863		-1679.687500
9864		-1679.687500
9865		-1679.687500
9866		-1679.687500
9867		-1679.687500
9868		-1679.687500
9869		-1679.687500
9870		-1679.687500
9871		-1679.687500
9872		-1679.687500
9873		-1679.687500
9874		-1679.687500
9875		-1679.687500
9876		-1679.687500
9877		-1679.687500
9878		-1679.687500
9879		-1679.687500
9880		-1679.687500
9881		-1679.687500
9882		-1679.687500
9883		-1679.687500
9884		-1679.687500
9885		-1679.687500
9886		-1679.687500
9887		-1679.687500
9888		-1679.687500
9889		-1679.687500
9890		-1679.687500
9891		-1679.687500
9892		-1679.687500
9893		-1679.687500
9894		-1679.687500
9895		-1679.687500
9896		-1679.687500
9897		-1679.687500
9898		-1679.687500
9899		-1679.687500
9900		-1679.687500
9901		-1679.687500
9902		-1679.687500
9903		-1679.687500
9904		-1679.687500
9905		-1679.687500
9906		-1679.687500
9907		-1679.687500
9908		-1640.625000
9909		-1640.625000
9910		-1640.625000
9911		-1640.625000
9912		-1640.625000
9913		-1640.625000
9914		-1640.625000
9915		-1640.625000
9916		-1640.625000
9917		-1640.625000
9918		-1640.625000
9919		-1640.625000
9920		-1640.625000
9921		-1640.625000
9922		-1640.625000
9923		-1640.625000
9924		-1640.625000
9925		-1640.625000
9926		-1640.625000
9927		-1640.625000
9928		-1640.625000
9929		-1640.625000
9930		-1640.625000
9931		-1640.625000
9932		-1640.625000
9933		-1640.625000
9934		-1640.625000
9935		-1640.625000
9936		-1640.625000
9937		-1640.625000
9938		-1640.625000
9939		-1640.625000
9940		-1640.625000
9941		-1640.625000
9942		-1640.625000
9943		-1640.625000
9944		-1640.625000
9945		-1640.625000
9946		-1601.562500
9947		-1601.562500
9948		-1601.562500
9949		-1601.562500
9950		-1601.562500
9951		-1601.562500
9952		-1601.562500
9953		-1601.562500
9954		-1601.562500
9955		-1601.562500
9956		-1601.562500
9957		-1601.562500
9958		-1601.562500
9959		-1601.562500
9960		-1601.562500
9961		-1601.562500
9962		-1601.562500
9963		-1601.562500
9964		-1601.562500
9965		-1601.562500
9966		-1601.562500
9967		-1601.562500
9968		-1601.562500
9969		-1601.562500
9970		-1601.562500
9971		-1601.562500
9972		-1601.562500
9973		-1601.562500
9974		-1601.562500
9975		-1601.562500
9976		-1601.562500
9977		-1601.562500
9978		-1601.562500
9979		-1601.562500
9980		-1601.562500
9981		-1601.562500
9982		-1562.500000
9983		-1562.500000
9984		-1562.500000
9985		-1562.500000
9986		-1562.500000
9987		-1562.500000
9988		-1562.500000
9989		-1562.500000
9990		-1562.500000
9991		-1562.500000
9992		-1562.500000
9993		-1562.500000
9994		-1562.500000
9995		-1562.500000
9996		-1562.500000
9997		-1562.500000
9998		-1562.500000
9999		-1562.500000
10000		-1562.500000
