Channel              :		CH1
Frequency            :		  ?
Period               :		  ?
PK-PK                :		6.328V
Probe attenuation    :		1X
Voltage per ADC value:		2.441406mV
Time interval        :		1000.00000us

index		CH1_Voltage(mV)
1		664.062500
2		664.062500
3		664.062500
4		703.125000
5		742.187500
6		742.187500
7		781.250000
8		820.312500
9		859.375000
10		859.375000
11		898.437500
12		937.500000
13		937.500000
14		976.562500
15		1015.625000
16		1054.687500
17		1054.687500
18		1093.750000
19		1132.812500
20		1132.812500
21		1171.875000
22		1210.937500
23		1210.937500
24		1250.000000
25		1289.062500
26		1289.062500
27		1328.125000
28		1367.187500
29		1367.187500
30		1445.312500
31		1445.312500
32		1484.375000
33		1523.437500
34		1523.437500
35		1562.500000
36		1601.562500
37		1601.562500
38		1640.625000
39		1679.687500
40		1718.750000
41		1718.750000
42		1757.812500
43		1796.875000
44		1796.875000
45		1835.937500
46		1875.000000
47		1914.062500
48		1953.125000
49		1953.125000
50		1992.187500
51		2031.250000
52		2070.312500
53		2070.312500
54		2109.375000
55		2148.437500
56		2187.500000
57		2226.562500
58		2226.562500
59		2265.625000
60		2304.687500
61		2343.750000
62		2343.750000
63		2382.812500
64		2421.875000
65		2421.875000
66		2460.937500
67		2500.000000
68		2539.062500
69		2578.125000
70		2617.187500
71		2617.187500
72		2656.250000
73		2695.312500
74		2734.375000
75		2773.437500
76		2773.437500
77		2812.500000
78		2851.562500
79		2890.625000
80		2929.687500
81		2929.687500
82		2968.750000
83		3007.812500
84		3046.875000
85		3046.875000
86		3085.937500
87		3085.937500
88		3085.937500
89		3085.937500
90		3085.937500
91		3085.937500
92		3085.937500
93		3085.937500
94		3085.937500
95		3085.937500
96		3085.937500
97		3085.937500
98		3085.937500
99		3085.937500
100		3085.937500
101		3085.937500
102		3085.937500
103		3085.937500
104		3085.937500
105		3085.937500
106		3085.937500
107		3085.937500
108		3085.937500
109		3085.937500
110		3125.000000
111		3085.937500
112		3085.937500
113		3085.937500
114		3085.937500
115		3085.937500
116		3085.937500
117		3085.937500
118		3085.937500
119		3085.937500
120		3085.937500
121		3085.937500
122		3085.937500
123		3085.937500
124		3085.937500
125		3085.937500
126		3085.937500
127		3085.937500
128		3085.937500
129		3085.937500
130		3085.937500
131		3085.937500
132		3085.937500
133		3085.937500
134		3085.937500
135		3085.937500
136		3085.937500
137		3085.937500
138		3085.937500
139		3085.937500
140		3085.937500
141		3085.937500
142		3085.937500
143		3085.937500
144		3085.937500
145		3085.937500
146		3085.937500
147		3085.937500
148		3085.937500
149		3085.937500
150		3085.937500
151		3085.937500
152		3085.937500
153		3085.937500
154		3085.937500
155		3085.937500
156		3125.000000
157		3085.937500
158		3085.937500
159		3085.937500
160		3085.937500
161		3125.000000
162		3085.937500
163		3085.937500
164		3085.937500
165		3085.937500
166		3085.937500
167		3085.937500
168		3085.937500
169		3085.937500
170		3085.937500
171		3085.937500
172		3085.937500
173		3085.937500
174		3085.937500
175		3085.937500
176		3085.937500
177		3085.937500
178		3085.937500
179		3085.937500
180		3085.937500
181		3085.937500
182		3085.937500
183		3085.937500
184		3085.937500
185		3085.937500
186		3085.937500
187		3085.937500
188		3085.937500
189		3085.937500
190		3085.937500
191		3085.937500
192		3085.937500
193		3085.937500
194		3085.937500
195		3085.937500
196		3085.937500
197		3085.937500
198		3085.937500
199		3085.937500
200		3085.937500
201		3085.937500
202		3085.937500
203		3085.937500
204		3085.937500
205		3085.937500
206		3085.937500
207		3085.937500
208		3085.937500
209		3085.937500
210		3125.000000
211		3085.937500
212		3085.937500
213		3085.937500
214		3085.937500
215		3085.937500
216		3085.937500
217		3085.937500
218		3085.937500
219		3085.937500
220		3085.937500
221		3085.937500
222		3085.937500
223		3085.937500
224		3085.937500
225		3085.937500
226		3085.937500
227		3085.937500
228		3085.937500
229		3085.937500
230		3085.937500
231		3085.937500
232		3085.937500
233		3085.937500
234		3085.937500
235		3085.937500
236		3085.937500
237		3085.937500
238		3085.937500
239		3085.937500
240		3085.937500
241		3085.937500
242		3085.937500
243		3085.937500
244		3085.937500
245		3085.937500
246		3085.937500
247		3085.937500
248		3085.937500
249		3085.937500
250		3085.937500
251		3085.937500
252		3085.937500
253		3085.937500
254		3085.937500
255		3085.937500
256		3085.937500
257		3085.937500
258		3085.937500
259		3085.937500
260		3085.937500
261		3085.937500
262		3085.937500
263		3085.937500
264		3085.937500
265		3085.937500
266		3085.937500
267		3085.937500
268		3085.937500
269		3085.937500
270		3085.937500
271		3085.937500
272		3125.000000
273		3085.937500
274		3085.937500
275		3085.937500
276		3085.937500
277		3085.937500
278		3085.937500
279		3085.937500
280		3085.937500
281		3085.937500
282		3085.937500
283		3085.937500
284		3085.937500
285		3085.937500
286		3085.937500
287		3085.937500
288		3085.937500
289		3085.937500
290		3085.937500
291		3085.937500
292		3085.937500
293		3085.937500
294		3085.937500
295		3085.937500
296		3085.937500
297		3085.937500
298		3085.937500
299		3085.937500
300		3085.937500
301		3085.937500
302		3085.937500
303		3085.937500
304		3085.937500
305		3085.937500
306		3085.937500
307		3085.937500
308		3085.937500
309		3085.937500
310		3085.937500
311		3085.937500
312		3085.937500
313		3085.937500
314		3085.937500
315		3125.000000
316		3085.937500
317		3085.937500
318		3085.937500
319		3125.000000
320		3085.937500
321		3085.937500
322		3085.937500
323		3085.937500
324		3125.000000
325		3085.937500
326		3085.937500
327		3085.937500
328		3085.937500
329		3085.937500
330		3085.937500
331		3085.937500
332		3085.937500
333		3085.937500
334		3085.937500
335		3085.937500
336		3085.937500
337		3085.937500
338		3085.937500
339		3085.937500
340		3085.937500
341		3085.937500
342		3085.937500
343		3085.937500
344		3085.937500
345		3085.937500
346		3085.937500
347		3085.937500
348		3085.937500
349		3085.937500
350		3085.937500
351		3125.000000
352		3085.937500
353		3085.937500
354		3085.937500
355		3085.937500
356		3085.937500
357		3085.937500
358		3085.937500
359		3085.937500
360		3085.937500
361		3085.937500
362		3085.937500
363		3085.937500
364		3085.937500
365		3085.937500
366		3085.937500
367		3085.937500
368		3125.000000
369		3125.000000
370		3085.937500
371		3085.937500
372		3085.937500
373		3085.937500
374		3085.937500
375		3125.000000
376		3085.937500
377		3085.937500
378		3125.000000
379		3085.937500
380		3085.937500
381		3085.937500
382		3085.937500
383		3085.937500
384		3085.937500
385		3085.937500
386		3085.937500
387		3125.000000
388		3085.937500
389		3085.937500
390		3085.937500
391		3085.937500
392		3085.937500
393		3085.937500
394		3085.937500
395		3085.937500
396		3085.937500
397		3085.937500
398		3085.937500
399		3085.937500
400		3085.937500
401		3085.937500
402		3085.937500
403		3085.937500
404		3085.937500
405		3085.937500
406		3085.937500
407		3085.937500
408		3085.937500
409		3085.937500
410		3085.937500
411		3085.937500
412		3085.937500
413		3085.937500
414		3085.937500
415		3085.937500
416		3085.937500
417		3085.937500
418		3085.937500
419		3085.937500
420		3085.937500
421		3085.937500
422		3085.937500
423		3085.937500
424		3085.937500
425		3085.937500
426		3085.937500
427		3085.937500
428		3085.937500
429		3085.937500
430		3085.937500
431		3085.937500
432		3085.937500
433		3085.937500
434		3125.000000
435		3085.937500
436		3085.937500
437		3085.937500
438		3085.937500
439		3085.937500
440		3085.937500
441		3085.937500
442		3085.937500
443		3085.937500
444		3085.937500
445		3085.937500
446		3085.937500
447		3085.937500
448		3125.000000
449		3085.937500
450		3085.937500
451		3085.937500
452		3085.937500
453		3085.937500
454		3085.937500
455		3085.937500
456		3085.937500
457		3085.937500
458		3085.937500
459		3085.937500
460		3085.937500
461		3085.937500
462		3085.937500
463		3085.937500
464		3085.937500
465		3085.937500
466		3125.000000
467		3085.937500
468		3085.937500
469		3085.937500
470		3085.937500
471		3085.937500
472		3085.937500
473		3085.937500
474		3085.937500
475		3085.937500
476		3085.937500
477		3085.937500
478		3085.937500
479		3085.937500
480		3085.937500
481		3085.937500
482		3085.937500
483		3085.937500
484		3085.937500
485		3085.937500
486		3085.937500
487		3085.937500
488		3085.937500
489		3085.937500
490		3085.937500
491		3085.937500
492		3085.937500
493		3085.937500
494		3085.937500
495		3085.937500
496		3085.937500
497		3085.937500
498		3085.937500
499		3085.937500
500		3085.937500
501		3085.937500
502		3085.937500
503		3085.937500
504		3085.937500
505		3085.937500
506		3085.937500
507		3085.937500
508		3085.937500
509		3085.937500
510		3085.937500
511		3085.937500
512		3085.937500
513		3085.937500
514		3085.937500
515		3085.937500
516		3085.937500
517		3085.937500
518		3085.937500
519		3085.937500
520		3085.937500
521		3085.937500
522		3085.937500
523		3085.937500
524		3085.937500
525		3085.937500
526		3085.937500
527		3085.937500
528		3085.937500
529		3085.937500
530		3085.937500
531		3085.937500
532		3085.937500
533		3085.937500
534		3085.937500
535		3085.937500
536		3085.937500
537		3085.937500
538		3085.937500
539		3085.937500
540		3085.937500
541		3085.937500
542		3085.937500
543		3085.937500
544		3085.937500
545		3085.937500
546		3085.937500
547		3085.937500
548		3085.937500
549		3085.937500
550		3085.937500
551		3085.937500
552		3085.937500
553		3085.937500
554		3085.937500
555		3085.937500
556		3085.937500
557		3085.937500
558		3085.937500
559		3085.937500
560		3085.937500
561		3085.937500
562		3085.937500
563		3085.937500
564		3085.937500
565		3085.937500
566		3085.937500
567		3085.937500
568		3085.937500
569		3085.937500
570		3085.937500
571		3085.937500
572		3085.937500
573		3085.937500
574		3085.937500
575		3085.937500
576		3085.937500
577		3085.937500
578		3085.937500
579		3085.937500
580		3085.937500
581		3085.937500
582		3085.937500
583		3085.937500
584		3085.937500
585		3085.937500
586		3125.000000
587		3085.937500
588		3085.937500
589		3085.937500
590		3085.937500
591		3085.937500
592		3085.937500
593		3085.937500
594		3085.937500
595		3085.937500
596		3085.937500
597		3085.937500
598		3085.937500
599		3085.937500
600		3085.937500
601		3085.937500
602		3085.937500
603		3085.937500
604		3085.937500
605		3085.937500
606		3085.937500
607		3085.937500
608		3085.937500
609		3085.937500
610		3085.937500
611		3085.937500
612		3125.000000
613		3125.000000
614		3085.937500
615		3085.937500
616		3085.937500
617		3085.937500
618		3085.937500
619		3085.937500
620		3085.937500
621		3085.937500
622		3085.937500
623		3085.937500
624		3085.937500
625		3085.937500
626		3085.937500
627		3085.937500
628		3085.937500
629		3085.937500
630		3085.937500
631		3085.937500
632		3085.937500
633		3085.937500
634		3125.000000
635		3085.937500
636		3085.937500
637		3085.937500
638		3085.937500
639		3085.937500
640		3085.937500
641		3085.937500
642		3085.937500
643		3085.937500
644		3085.937500
645		3085.937500
646		3085.937500
647		3085.937500
648		3085.937500
649		3085.937500
650		3085.937500
651		3085.937500
652		3085.937500
653		3085.937500
654		3085.937500
655		3085.937500
656		3085.937500
657		3085.937500
658		3085.937500
659		3085.937500
660		3085.937500
661		3085.937500
662		3085.937500
663		3085.937500
664		3085.937500
665		3085.937500
666		3085.937500
667		3085.937500
668		3085.937500
669		3085.937500
670		3085.937500
671		3085.937500
672		3085.937500
673		3085.937500
674		3085.937500
675		3085.937500
676		3085.937500
677		3085.937500
678		3085.937500
679		3125.000000
680		3085.937500
681		3085.937500
682		3085.937500
683		3085.937500
684		3085.937500
685		3085.937500
686		3085.937500
687		3085.937500
688		3085.937500
689		3085.937500
690		3085.937500
691		3085.937500
692		3085.937500
693		3085.937500
694		3085.937500
695		3085.937500
696		3085.937500
697		3085.937500
698		3085.937500
699		3085.937500
700		3085.937500
701		3085.937500
702		3085.937500
703		3085.937500
704		3085.937500
705		3085.937500
706		3085.937500
707		3085.937500
708		3085.937500
709		3085.937500
710		3125.000000
711		3085.937500
712		3085.937500
713		3085.937500
714		3085.937500
715		3085.937500
716		3085.937500
717		3085.937500
718		3085.937500
719		3085.937500
720		3085.937500
721		3085.937500
722		3085.937500
723		3085.937500
724		3085.937500
725		3085.937500
726		3085.937500
727		3085.937500
728		3085.937500
729		3085.937500
730		3085.937500
731		3085.937500
732		3125.000000
733		3085.937500
734		3085.937500
735		3085.937500
736		3085.937500
737		3085.937500
738		3085.937500
739		3085.937500
740		3085.937500
741		3085.937500
742		3085.937500
743		3085.937500
744		3085.937500
745		3085.937500
746		3085.937500
747		3085.937500
748		3085.937500
749		3125.000000
750		3085.937500
751		3085.937500
752		3085.937500
753		3085.937500
754		3085.937500
755		3085.937500
756		3085.937500
757		3085.937500
758		3085.937500
759		3125.000000
760		3085.937500
761		3085.937500
762		3085.937500
763		3085.937500
764		3085.937500
765		3085.937500
766		3085.937500
767		3085.937500
768		3085.937500
769		3085.937500
770		3125.000000
771		3085.937500
772		3085.937500
773		3085.937500
774		3085.937500
775		3085.937500
776		3046.875000
777		3046.875000
778		3007.812500
779		3007.812500
780		2968.750000
781		2968.750000
782		2929.687500
783		2890.625000
784		2890.625000
785		2851.562500
786		2812.500000
787		2812.500000
788		2773.437500
789		2734.375000
790		2734.375000
791		2695.312500
792		2656.250000
793		2656.250000
794		2617.187500
795		2578.125000
796		2539.062500
797		2539.062500
798		2500.000000
799		2460.937500
800		2421.875000
801		2421.875000
802		2382.812500
803		2343.750000
804		2304.687500
805		2265.625000
806		2265.625000
807		2226.562500
808		2187.500000
809		2187.500000
810		2148.437500
811		2109.375000
812		2109.375000
813		2070.312500
814		2031.250000
815		1992.187500
816		1992.187500
817		1953.125000
818		1914.062500
819		1875.000000
820		1875.000000
821		1835.937500
822		1796.875000
823		1796.875000
824		1757.812500
825		1718.750000
826		1679.687500
827		1679.687500
828		1640.625000
829		1601.562500
830		1601.562500
831		1562.500000
832		1523.437500
833		1523.437500
834		1484.375000
835		1445.312500
836		1445.312500
837		1406.250000
838		1367.187500
839		1367.187500
840		1328.125000
841		1289.062500
842		1250.000000
843		1250.000000
844		1210.937500
845		1210.937500
846		1171.875000
847		1132.812500
848		1093.750000
849		1093.750000
850		1054.687500
851		1054.687500
852		1015.625000
853		976.562500
854		976.562500
855		937.500000
856		898.437500
857		898.437500
858		859.375000
859		820.312500
860		820.312500
861		781.250000
862		781.250000
863		742.187500
864		703.125000
865		703.125000
866		664.062500
867		625.000000
868		625.000000
869		585.937500
870		546.875000
871		546.875000
872		507.812500
873		507.812500
874		468.750000
875		468.750000
876		429.687500
877		390.625000
878		390.625000
879		351.562500
880		351.562500
881		312.500000
882		273.437500
883		273.437500
884		234.375000
885		195.312500
886		195.312500
887		156.250000
888		156.250000
889		117.187500
890		117.187500
891		78.125000
892		39.062500
893		39.062500
894		39.062500
895		0.000000
896		0.000000
897		-39.062500
898		-39.062500
899		-78.125000
900		-117.187500
901		-117.187500
902		-156.250000
903		-156.250000
904		-195.312500
905		-234.375000
906		-234.375000
907		-273.437500
908		-273.437500
909		-312.500000
910		-312.500000
911		-351.562500
912		-351.562500
913		-390.625000
914		-390.625000
915		-390.625000
916		-429.687500
917		-429.687500
918		-468.750000
919		-507.812500
920		-507.812500
921		-546.875000
922		-546.875000
923		-585.937500
924		-585.937500
925		-625.000000
926		-625.000000
927		-664.062500
928		-664.062500
929		-703.125000
930		-703.125000
931		-742.187500
932		-742.187500
933		-742.187500
934		-781.250000
935		-781.250000
936		-820.312500
937		-820.312500
938		-859.375000
939		-859.375000
940		-898.437500
941		-898.437500
942		-937.500000
943		-937.500000
944		-976.562500
945		-976.562500
946		-1015.625000
947		-1015.625000
948		-1015.625000
949		-1054.687500
950		-1054.687500
951		-1054.687500
952		-1093.750000
953		-1093.750000
954		-1132.812500
955		-1132.812500
956		-1171.875000
957		-1171.875000
958		-1171.875000
959		-1210.937500
960		-1210.937500
961		-1250.000000
962		-1250.000000
963		-1289.062500
964		-1289.062500
965		-1328.125000
966		-1328.125000
967		-1328.125000
968		-1367.187500
969		-1367.187500
970		-1367.187500
971		-1406.250000
972		-1406.250000
973		-1445.312500
974		-1445.312500
975		-1445.312500
976		-1484.375000
977		-1484.375000
978		-1523.437500
979		-1523.437500
980		-1523.437500
981		-1562.500000
982		-1562.500000
983		-1601.562500
984		-1601.562500
985		-1601.562500
986		-1601.562500
987		-1640.625000
988		-1640.625000
989		-1679.687500
990		-1679.687500
991		-1679.687500
992		-1718.750000
993		-1718.750000
994		-1718.750000
995		-1757.812500
996		-1757.812500
997		-1796.875000
998		-1796.875000
999		-1796.875000
1000		-1835.937500
1001		-1835.937500
1002		-1835.937500
1003		-1875.000000
1004		-1875.000000
1005		-1875.000000
1006		-1914.062500
1007		-1914.062500
1008		-1914.062500
1009		-1914.062500
1010		-1953.125000
1011		-1953.125000
1012		-1953.125000
1013		-1992.187500
1014		-1992.187500
1015		-1992.187500
1016		-2031.250000
1017		-2031.250000
1018		-2031.250000
1019		-2070.312500
1020		-2070.312500
1021		-2070.312500
1022		-2109.375000
1023		-2109.375000
1024		-2109.375000
1025		-2148.437500
1026		-2148.437500
1027		-2148.437500
1028		-2148.437500
1029		-2187.500000
1030		-2187.500000
1031		-2187.500000
1032		-2226.562500
1033		-2226.562500
1034		-2265.625000
1035		-2226.562500
1036		-2265.625000
1037		-2265.625000
1038		-2265.625000
1039		-2304.687500
1040		-2304.687500
1041		-2304.687500
1042		-2304.687500
1043		-2343.750000
1044		-2343.750000
1045		-2343.750000
1046		-2382.812500
1047		-2382.812500
1048		-2382.812500
1049		-2382.812500
1050		-2421.875000
1051		-2421.875000
1052		-2421.875000
1053		-2421.875000
1054		-2460.937500
1055		-2460.937500
1056		-2460.937500
1057		-2460.937500
1058		-2460.937500
1059		-2500.000000
1060		-2500.000000
1061		-2500.000000
1062		-2500.000000
1063		-2539.062500
1064		-2539.062500
1065		-2539.062500
1066		-2578.125000
1067		-2578.125000
1068		-2578.125000
1069		-2617.187500
1070		-2578.125000
1071		-2617.187500
1072		-2617.187500
1073		-2617.187500
1074		-2617.187500
1075		-2656.250000
1076		-2656.250000
1077		-2656.250000
1078		-2656.250000
1079		-2656.250000
1080		-2656.250000
1081		-2695.312500
1082		-2695.312500
1083		-2695.312500
1084		-2734.375000
1085		-2734.375000
1086		-2734.375000
1087		-2734.375000
1088		-2734.375000
1089		-2734.375000
1090		-2773.437500
1091		-2773.437500
1092		-2773.437500
1093		-2773.437500
1094		-2773.437500
1095		-2773.437500
1096		-2812.500000
1097		-2812.500000
1098		-2812.500000
1099		-2812.500000
1100		-2851.562500
1101		-2851.562500
1102		-2851.562500
1103		-2851.562500
1104		-2851.562500
1105		-2890.625000
1106		-2890.625000
1107		-2890.625000
1108		-2890.625000
1109		-2890.625000
1110		-2890.625000
1111		-2890.625000
1112		-2929.687500
1113		-2929.687500
1114		-2929.687500
1115		-2929.687500
1116		-2929.687500
1117		-2929.687500
1118		-2968.750000
1119		-2968.750000
1120		-2968.750000
1121		-2968.750000
1122		-2968.750000
1123		-3007.812500
1124		-3007.812500
1125		-3007.812500
1126		-3007.812500
1127		-3007.812500
1128		-3007.812500
1129		-3046.875000
1130		-3007.812500
1131		-3046.875000
1132		-3046.875000
1133		-3046.875000
1134		-3046.875000
1135		-3046.875000
1136		-3046.875000
1137		-3046.875000
1138		-3085.937500
1139		-3085.937500
1140		-3085.937500
1141		-3085.937500
1142		-3085.937500
1143		-3085.937500
1144		-3125.000000
1145		-3125.000000
1146		-3125.000000
1147		-3125.000000
1148		-3125.000000
1149		-3125.000000
1150		-3125.000000
1151		-3125.000000
1152		-3125.000000
1153		-3164.062500
1154		-3164.062500
1155		-3164.062500
1156		-3164.062500
1157		-3164.062500
1158		-3164.062500
1159		-3164.062500
1160		-3164.062500
1161		-3164.062500
1162		-3203.125000
1163		-3203.125000
1164		-3203.125000
1165		-3203.125000
1166		-3203.125000
1167		-3203.125000
1168		-3203.125000
1169		-3203.125000
1170		-3203.125000
1171		-3203.125000
1172		-3203.125000
1173		-3242.187500
1174		-3242.187500
1175		-3242.187500
1176		-3242.187500
1177		-3242.187500
1178		-3242.187500
1179		-3242.187500
1180		-3242.187500
1181		-3242.187500
1182		-3281.250000
1183		-3281.250000
1184		-3281.250000
1185		-3281.250000
1186		-3281.250000
1187		-3281.250000
1188		-3281.250000
1189		-3281.250000
1190		-3281.250000
1191		-3281.250000
1192		-3281.250000
1193		-3281.250000
1194		-3281.250000
1195		-3281.250000
1196		-3281.250000
1197		-3320.312500
1198		-3320.312500
1199		-3320.312500
1200		-3320.312500
1201		-3320.312500
1202		-3320.312500
1203		-3320.312500
1204		-3320.312500
1205		-3320.312500
1206		-3320.312500
1207		-3320.312500
1208		-3320.312500
1209		-3320.312500
1210		-3320.312500
1211		-3320.312500
1212		-3320.312500
1213		-3359.375000
1214		-3320.312500
1215		-3359.375000
1216		-3359.375000
1217		-3359.375000
1218		-3359.375000
1219		-3359.375000
1220		-3359.375000
1221		-3359.375000
1222		-3359.375000
1223		-3359.375000
1224		-3359.375000
1225		-3359.375000
1226		-3359.375000
1227		-3359.375000
1228		-3359.375000
1229		-3359.375000
1230		-3359.375000
1231		-3359.375000
1232		-3359.375000
1233		-3359.375000
1234		-3359.375000
1235		-3359.375000
1236		-3359.375000
1237		-3359.375000
1238		-3359.375000
1239		-3359.375000
1240		-3359.375000
1241		-3359.375000
1242		-3359.375000
1243		-3359.375000
1244		-3359.375000
1245		-3359.375000
1246		-3398.437500
1247		-3359.375000
1248		-3398.437500
1249		-3398.437500
1250		-3398.437500
1251		-3398.437500
1252		-3398.437500
1253		-3398.437500
1254		-3398.437500
1255		-3398.437500
1256		-3359.375000
1257		-3359.375000
1258		-3398.437500
1259		-3398.437500
1260		-3359.375000
1261		-3359.375000
1262		-3398.437500
1263		-3398.437500
1264		-3398.437500
1265		-3398.437500
1266		-3398.437500
1267		-3398.437500
1268		-3398.437500
1269		-3359.375000
1270		-3359.375000
1271		-3398.437500
1272		-3359.375000
1273		-3359.375000
1274		-3359.375000
1275		-3359.375000
1276		-3359.375000
1277		-3359.375000
1278		-3359.375000
1279		-3359.375000
1280		-3359.375000
1281		-3359.375000
1282		-3359.375000
1283		-3359.375000
1284		-3359.375000
1285		-3359.375000
1286		-3359.375000
1287		-3359.375000
1288		-3359.375000
1289		-3359.375000
1290		-3359.375000
1291		-3359.375000
1292		-3359.375000
1293		-3359.375000
1294		-3359.375000
1295		-3359.375000
1296		-3359.375000
1297		-3320.312500
1298		-3359.375000
1299		-3320.312500
1300		-3359.375000
1301		-3359.375000
1302		-3320.312500
1303		-3320.312500
1304		-3359.375000
1305		-3359.375000
1306		-3320.312500
1307		-3320.312500
1308		-3320.312500
1309		-3320.312500
1310		-3320.312500
1311		-3320.312500
1312		-3320.312500
1313		-3320.312500
1314		-3320.312500
1315		-3320.312500
1316		-3320.312500
1317		-3281.250000
1318		-3281.250000
1319		-3281.250000
1320		-3281.250000
1321		-3281.250000
1322		-3281.250000
1323		-3281.250000
1324		-3281.250000
1325		-3281.250000
1326		-3281.250000
1327		-3281.250000
1328		-3281.250000
1329		-3281.250000
1330		-3281.250000
1331		-3281.250000
1332		-3242.187500
1333		-3242.187500
1334		-3242.187500
1335		-3242.187500
1336		-3242.187500
1337		-3242.187500
1338		-3242.187500
1339		-3242.187500
1340		-3242.187500
1341		-3242.187500
1342		-3242.187500
1343		-3242.187500
1344		-3242.187500
1345		-3203.125000
1346		-3203.125000
1347		-3203.125000
1348		-3203.125000
1349		-3203.125000
1350		-3203.125000
1351		-3164.062500
1352		-3164.062500
1353		-3164.062500
1354		-3164.062500
1355		-3164.062500
1356		-3164.062500
1357		-3164.062500
1358		-3164.062500
1359		-3164.062500
1360		-3164.062500
1361		-3164.062500
1362		-3125.000000
1363		-3125.000000
1364		-3125.000000
1365		-3125.000000
1366		-3125.000000
1367		-3125.000000
1368		-3125.000000
1369		-3085.937500
1370		-3085.937500
1371		-3085.937500
1372		-3085.937500
1373		-3085.937500
1374		-3085.937500
1375		-3085.937500
1376		-3046.875000
1377		-3046.875000
1378		-3046.875000
1379		-3046.875000
1380		-3046.875000
1381		-3046.875000
1382		-3046.875000
1383		-3007.812500
1384		-3007.812500
1385		-3007.812500
1386		-3007.812500
1387		-3007.812500
1388		-3007.812500
1389		-3007.812500
1390		-2968.750000
1391		-2968.750000
1392		-2968.750000
1393		-2968.750000
1394		-2968.750000
1395		-2968.750000
1396		-2929.687500
1397		-2929.687500
1398		-2929.687500
1399		-2929.687500
1400		-2929.687500
1401		-2890.625000
1402		-2890.625000
1403		-2890.625000
1404		-2890.625000
1405		-2890.625000
1406		-2890.625000
1407		-2890.625000
1408		-2851.562500
1409		-2851.562500
1410		-2851.562500
1411		-2851.562500
1412		-2851.562500
1413		-2812.500000
1414		-2812.500000
1415		-2812.500000
1416		-2812.500000
1417		-2773.437500
1418		-2773.437500
1419		-2773.437500
1420		-2773.437500
1421		-2773.437500
1422		-2734.375000
1423		-2734.375000
1424		-2734.375000
1425		-2734.375000
1426		-2734.375000
1427		-2734.375000
1428		-2695.312500
1429		-2695.312500
1430		-2695.312500
1431		-2695.312500
1432		-2656.250000
1433		-2656.250000
1434		-2656.250000
1435		-2656.250000
1436		-2656.250000
1437		-2617.187500
1438		-2617.187500
1439		-2617.187500
1440		-2617.187500
1441		-2578.125000
1442		-2578.125000
1443		-2578.125000
1444		-2578.125000
1445		-2539.062500
1446		-2539.062500
1447		-2539.062500
1448		-2539.062500
1449		-2539.062500
1450		-2500.000000
1451		-2500.000000
1452		-2500.000000
1453		-2460.937500
1454		-2460.937500
1455		-2460.937500
1456		-2460.937500
1457		-2421.875000
1458		-2421.875000
1459		-2421.875000
1460		-2421.875000
1461		-2421.875000
1462		-2382.812500
1463		-2382.812500
1464		-2382.812500
1465		-2343.750000
1466		-2343.750000
1467		-2343.750000
1468		-2343.750000
1469		-2304.687500
1470		-2304.687500
1471		-2304.687500
1472		-2265.625000
1473		-2265.625000
1474		-2265.625000
1475		-2226.562500
1476		-2226.562500
1477		-2226.562500
1478		-2187.500000
1479		-2187.500000
1480		-2187.500000
1481		-2187.500000
1482		-2187.500000
1483		-2148.437500
1484		-2148.437500
1485		-2148.437500
1486		-2109.375000
1487		-2109.375000
1488		-2109.375000
1489		-2070.312500
1490		-2070.312500
1491		-2070.312500
1492		-2031.250000
1493		-2031.250000
1494		-2031.250000
1495		-1992.187500
1496		-1992.187500
1497		-1992.187500
1498		-1953.125000
1499		-1953.125000
1500		-1953.125000
1501		-1953.125000
1502		-1914.062500
1503		-1914.062500
1504		-1914.062500
1505		-1875.000000
1506		-1875.000000
1507		-1875.000000
1508		-1835.937500
1509		-1835.937500
1510		-1796.875000
1511		-1796.875000
1512		-1796.875000
1513		-1757.812500
1514		-1757.812500
1515		-1757.812500
1516		-1718.750000
1517		-1718.750000
1518		-1718.750000
1519		-1679.687500
1520		-1679.687500
1521		-1679.687500
1522		-1640.625000
1523		-1640.625000
1524		-1640.625000
1525		-1601.562500
1526		-1601.562500
1527		-1601.562500
1528		-1562.500000
1529		-1523.437500
1530		-1523.437500
1531		-1523.437500
1532		-1484.375000
1533		-1484.375000
1534		-1445.312500
1535		-1445.312500
1536		-1445.312500
1537		-1406.250000
1538		-1406.250000
1539		-1406.250000
1540		-1367.187500
1541		-1367.187500
1542		-1367.187500
1543		-1328.125000
1544		-1328.125000
1545		-1289.062500
1546		-1289.062500
1547		-1250.000000
1548		-1250.000000
1549		-1210.937500
1550		-1210.937500
1551		-1171.875000
1552		-1171.875000
1553		-1171.875000
1554		-1132.812500
1555		-1132.812500
1556		-1093.750000
1557		-1093.750000
1558		-1054.687500
1559		-1054.687500
1560		-1054.687500
1561		-976.562500
1562		-1015.625000
1563		-976.562500
1564		-976.562500
1565		-976.562500
1566		-937.500000
1567		-898.437500
1568		-898.437500
1569		-898.437500
1570		-859.375000
1571		-859.375000
1572		-820.312500
1573		-820.312500
1574		-781.250000
1575		-781.250000
1576		-781.250000
1577		-742.187500
1578		-703.125000
1579		-703.125000
1580		-664.062500
1581		-664.062500
1582		-625.000000
1583		-625.000000
1584		-585.937500
1585		-585.937500
1586		-546.875000
1587		-546.875000
1588		-507.812500
1589		-507.812500
1590		-468.750000
1591		-429.687500
1592		-429.687500
1593		-429.687500
1594		-390.625000
1595		-390.625000
1596		-351.562500
1597		-312.500000
1598		-312.500000
1599		-312.500000
1600		-273.437500
1601		-234.375000
1602		-234.375000
1603		-195.312500
1604		-195.312500
1605		-195.312500
1606		-156.250000
1607		-117.187500
1608		-117.187500
1609		-78.125000
1610		-78.125000
1611		-39.062500
1612		0.000000
1613		0.000000
1614		39.062500
1615		39.062500
1616		78.125000
1617		117.187500
1618		117.187500
1619		156.250000
1620		156.250000
1621		195.312500
1622		195.312500
1623		234.375000
1624		273.437500
1625		273.437500
1626		312.500000
1627		312.500000
1628		351.562500
1629		390.625000
1630		390.625000
1631		429.687500
1632		429.687500
1633		468.750000
1634		507.812500
1635		507.812500
1636		546.875000
1637		585.937500
1638		585.937500
1639		625.000000
1640		664.062500
1641		664.062500
1642		703.125000
1643		703.125000
1644		742.187500
1645		781.250000
1646		781.250000
1647		820.312500
1648		820.312500
1649		859.375000
1650		898.437500
1651		937.500000
1652		937.500000
1653		976.562500
1654		1015.625000
1655		1015.625000
1656		1054.687500
1657		1093.750000
1658		1093.750000
1659		1132.812500
1660		1171.875000
1661		1171.875000
1662		1210.937500
1663		1250.000000
1664		1250.000000
1665		1289.062500
1666		1328.125000
1667		1328.125000
1668		1367.187500
1669		1367.187500
1670		1445.312500
1671		1445.312500
1672		1484.375000
1673		1523.437500
1674		1523.437500
1675		1562.500000
1676		1601.562500
1677		1640.625000
1678		1640.625000
1679		1679.687500
1680		1718.750000
1681		1718.750000
1682		1757.812500
1683		1796.875000
1684		1796.875000
1685		1835.937500
1686		1875.000000
1687		1875.000000
1688		1914.062500
1689		1953.125000
1690		1992.187500
1691		2031.250000
1692		2070.312500
1693		2070.312500
1694		2109.375000
1695		2148.437500
1696		2187.500000
1697		2187.500000
1698		2226.562500
1699		2265.625000
1700		2304.687500
1701		2304.687500
1702		2343.750000
1703		2382.812500
1704		2382.812500
1705		2421.875000
1706		2460.937500
1707		2500.000000
1708		2539.062500
1709		2539.062500
1710		2578.125000
1711		2617.187500
1712		2656.250000
1713		2695.312500
1714		2695.312500
1715		2734.375000
1716		2773.437500
1717		2812.500000
1718		2851.562500
1719		2851.562500
1720		2890.625000
1721		2929.687500
1722		2968.750000
1723		2968.750000
1724		3007.812500
1725		3046.875000
1726		3085.937500
1727		3085.937500
1728		3085.937500
1729		3085.937500
1730		3085.937500
1731		3085.937500
1732		3085.937500
1733		3085.937500
1734		3085.937500
1735		3085.937500
1736		3085.937500
1737		3085.937500
1738		3085.937500
1739		3085.937500
1740		3085.937500
1741		3085.937500
1742		3085.937500
1743		3085.937500
1744		3085.937500
1745		3085.937500
1746		3085.937500
1747		3085.937500
1748		3085.937500
1749		3085.937500
1750		3085.937500
1751		3085.937500
1752		3085.937500
1753		3085.937500
1754		3085.937500
1755		3085.937500
1756		3085.937500
1757		3085.937500
1758		3085.937500
1759		3085.937500
1760		3085.937500
1761		3085.937500
1762		3085.937500
1763		3085.937500
1764		3085.937500
1765		3085.937500
1766		3085.937500
1767		3085.937500
1768		3085.937500
1769		3085.937500
1770		3085.937500
1771		3085.937500
1772		3085.937500
1773		3085.937500
1774		3085.937500
1775		3085.937500
1776		3085.937500
1777		3085.937500
1778		3085.937500
1779		3085.937500
1780		3085.937500
1781		3085.937500
1782		3085.937500
1783		3085.937500
1784		3085.937500
1785		3085.937500
1786		3085.937500
1787		3085.937500
1788		3085.937500
1789		3085.937500
1790		3085.937500
1791		3085.937500
1792		3085.937500
1793		3085.937500
1794		3125.000000
1795		3085.937500
1796		3085.937500
1797		3085.937500
1798		3125.000000
1799		3085.937500
1800		3085.937500
1801		3085.937500
1802		3085.937500
1803		3085.937500
1804		3085.937500
1805		3085.937500
1806		3085.937500
1807		3085.937500
1808		3085.937500
1809		3085.937500
1810		3085.937500
1811		3085.937500
1812		3085.937500
1813		3085.937500
1814		3085.937500
1815		3085.937500
1816		3125.000000
1817		3085.937500
1818		3085.937500
1819		3085.937500
1820		3085.937500
1821		3085.937500
1822		3085.937500
1823		3085.937500
1824		3085.937500
1825		3125.000000
1826		3085.937500
1827		3085.937500
1828		3085.937500
1829		3085.937500
1830		3085.937500
1831		3085.937500
1832		3085.937500
1833		3085.937500
1834		3085.937500
1835		3085.937500
1836		3085.937500
1837		3085.937500
1838		3085.937500
1839		3085.937500
1840		3085.937500
1841		3085.937500
1842		3085.937500
1843		3085.937500
1844		3085.937500
1845		3085.937500
1846		3085.937500
1847		3085.937500
1848		3085.937500
1849		3085.937500
1850		3085.937500
1851		3085.937500
1852		3125.000000
1853		3085.937500
1854		3085.937500
1855		3085.937500
1856		3085.937500
1857		3085.937500
1858		3085.937500
1859		3125.000000
1860		3085.937500
1861		3085.937500
1862		3085.937500
1863		3125.000000
1864		3085.937500
1865		3085.937500
1866		3085.937500
1867		3085.937500
1868		3085.937500
1869		3085.937500
1870		3085.937500
1871		3085.937500
1872		3085.937500
1873		3085.937500
1874		3085.937500
1875		3085.937500
1876		3085.937500
1877		3085.937500
1878		3085.937500
1879		3085.937500
1880		3085.937500
1881		3085.937500
1882		3085.937500
1883		3085.937500
1884		3085.937500
1885		3085.937500
1886		3085.937500
1887		3085.937500
1888		3085.937500
1889		3085.937500
1890		3125.000000
1891		3125.000000
1892		3085.937500
1893		3085.937500
1894		3085.937500
1895		3085.937500
1896		3125.000000
1897		3085.937500
1898		3085.937500
1899		3085.937500
1900		3085.937500
1901		3085.937500
1902		3085.937500
1903		3085.937500
1904		3085.937500
1905		3085.937500
1906		3085.937500
1907		3085.937500
1908		3085.937500
1909		3085.937500
1910		3085.937500
1911		3085.937500
1912		3085.937500
1913		3085.937500
1914		3085.937500
1915		3085.937500
1916		3085.937500
1917		3085.937500
1918		3125.000000
1919		3085.937500
1920		3085.937500
1921		3085.937500
1922		3085.937500
1923		3085.937500
1924		3085.937500
1925		3085.937500
1926		3085.937500
1927		3085.937500
1928		3085.937500
1929		3085.937500
1930		3085.937500
1931		3085.937500
1932		3085.937500
1933		3085.937500
1934		3085.937500
1935		3085.937500
1936		3085.937500
1937		3085.937500
1938		3085.937500
1939		3085.937500
1940		3085.937500
1941		3085.937500
1942		3085.937500
1943		3085.937500
1944		3085.937500
1945		3085.937500
1946		3085.937500
1947		3085.937500
1948		3085.937500
1949		3085.937500
1950		3085.937500
1951		3085.937500
1952		3125.000000
1953		3085.937500
1954		3085.937500
1955		3085.937500
1956		3085.937500
1957		3085.937500
1958		3085.937500
1959		3085.937500
1960		3085.937500
1961		3125.000000
1962		3085.937500
1963		3085.937500
1964		3085.937500
1965		3085.937500
1966		3085.937500
1967		3085.937500
1968		3085.937500
1969		3085.937500
1970		3085.937500
1971		3085.937500
1972		3085.937500
1973		3085.937500
1974		3085.937500
1975		3085.937500
1976		3085.937500
1977		3085.937500
1978		3085.937500
1979		3085.937500
1980		3085.937500
1981		3085.937500
1982		3085.937500
1983		3125.000000
1984		3085.937500
1985		3085.937500
1986		3085.937500
1987		3085.937500
1988		3085.937500
1989		3085.937500
1990		3085.937500
1991		3085.937500
1992		3085.937500
1993		3085.937500
1994		3085.937500
1995		3085.937500
1996		3085.937500
1997		3085.937500
1998		3085.937500
1999		3085.937500
2000		3085.937500
2001		3085.937500
2002		3085.937500
2003		3085.937500
2004		3085.937500
2005		3085.937500
2006		3085.937500
2007		3085.937500
2008		3085.937500
2009		3085.937500
2010		3085.937500
2011		3085.937500
2012		3085.937500
2013		3085.937500
2014		3085.937500
2015		3125.000000
2016		3085.937500
2017		3085.937500
2018		3085.937500
2019		3085.937500
2020		3085.937500
2021		3085.937500
2022		3085.937500
2023		3085.937500
2024		3085.937500
2025		3085.937500
2026		3085.937500
2027		3085.937500
2028		3085.937500
2029		3085.937500
2030		3085.937500
2031		3085.937500
2032		3085.937500
2033		3125.000000
2034		3085.937500
2035		3085.937500
2036		3085.937500
2037		3085.937500
2038		3085.937500
2039		3085.937500
2040		3085.937500
2041		3085.937500
2042		3085.937500
2043		3085.937500
2044		3085.937500
2045		3085.937500
2046		3085.937500
2047		3085.937500
2048		3085.937500
2049		3085.937500
2050		3085.937500
2051		3085.937500
2052		3085.937500
2053		3085.937500
2054		3085.937500
2055		3085.937500
2056		3085.937500
2057		3085.937500
2058		3085.937500
2059		3085.937500
2060		3085.937500
2061		3085.937500
2062		3085.937500
2063		3085.937500
2064		3085.937500
2065		3085.937500
2066		3085.937500
2067		3085.937500
2068		3085.937500
2069		3085.937500
2070		3085.937500
2071		3085.937500
2072		3085.937500
2073		3085.937500
2074		3085.937500
2075		3085.937500
2076		3085.937500
2077		3085.937500
2078		3085.937500
2079		3085.937500
2080		3085.937500
2081		3085.937500
2082		3085.937500
2083		3085.937500
2084		3085.937500
2085		3085.937500
2086		3085.937500
2087		3085.937500
2088		3085.937500
2089		3085.937500
2090		3085.937500
2091		3085.937500
2092		3085.937500
2093		3085.937500
2094		3085.937500
2095		3085.937500
2096		3085.937500
2097		3085.937500
2098		3085.937500
2099		3085.937500
2100		3085.937500
2101		3085.937500
2102		3085.937500
2103		3085.937500
2104		3085.937500
2105		3085.937500
2106		3085.937500
2107		3085.937500
2108		3085.937500
2109		3085.937500
2110		3085.937500
2111		3085.937500
2112		3085.937500
2113		3085.937500
2114		3085.937500
2115		3085.937500
2116		3085.937500
2117		3085.937500
2118		3085.937500
2119		3085.937500
2120		3085.937500
2121		3085.937500
2122		3085.937500
2123		3085.937500
2124		3085.937500
2125		3125.000000
2126		3085.937500
2127		3085.937500
2128		3085.937500
2129		3085.937500
2130		3125.000000
2131		3085.937500
2132		3085.937500
2133		3085.937500
2134		3085.937500
2135		3085.937500
2136		3085.937500
2137		3085.937500
2138		3085.937500
2139		3085.937500
2140		3085.937500
2141		3085.937500
2142		3085.937500
2143		3085.937500
2144		3085.937500
2145		3085.937500
2146		3085.937500
2147		3085.937500
2148		3085.937500
2149		3085.937500
2150		3085.937500
2151		3085.937500
2152		3125.000000
2153		3085.937500
2154		3085.937500
2155		3085.937500
2156		3085.937500
2157		3085.937500
2158		3085.937500
2159		3085.937500
2160		3085.937500
2161		3085.937500
2162		3085.937500
2163		3085.937500
2164		3085.937500
2165		3085.937500
2166		3085.937500
2167		3085.937500
2168		3085.937500
2169		3125.000000
2170		3085.937500
2171		3085.937500
2172		3085.937500
2173		3085.937500
2174		3085.937500
2175		3085.937500
2176		3085.937500
2177		3085.937500
2178		3085.937500
2179		3125.000000
2180		3085.937500
2181		3085.937500
2182		3085.937500
2183		3085.937500
2184		3085.937500
2185		3085.937500
2186		3085.937500
2187		3085.937500
2188		3085.937500
2189		3085.937500
2190		3085.937500
2191		3085.937500
2192		3085.937500
2193		3085.937500
2194		3085.937500
2195		3085.937500
2196		3085.937500
2197		3085.937500
2198		3085.937500
2199		3085.937500
2200		3085.937500
2201		3085.937500
2202		3085.937500
2203		3085.937500
2204		3085.937500
2205		3085.937500
2206		3085.937500
2207		3085.937500
2208		3085.937500
2209		3085.937500
2210		3085.937500
2211		3085.937500
2212		3085.937500
2213		3125.000000
2214		3085.937500
2215		3085.937500
2216		3085.937500
2217		3085.937500
2218		3085.937500
2219		3085.937500
2220		3085.937500
2221		3085.937500
2222		3085.937500
2223		3125.000000
2224		3085.937500
2225		3085.937500
2226		3085.937500
2227		3085.937500
2228		3085.937500
2229		3085.937500
2230		3085.937500
2231		3085.937500
2232		3085.937500
2233		3085.937500
2234		3085.937500
2235		3085.937500
2236		3085.937500
2237		3085.937500
2238		3085.937500
2239		3085.937500
2240		3085.937500
2241		3085.937500
2242		3085.937500
2243		3085.937500
2244		3125.000000
2245		3085.937500
2246		3085.937500
2247		3085.937500
2248		3085.937500
2249		3125.000000
2250		3125.000000
2251		3085.937500
2252		3085.937500
2253		3085.937500
2254		3085.937500
2255		3085.937500
2256		3085.937500
2257		3085.937500
2258		3085.937500
2259		3085.937500
2260		3085.937500
2261		3125.000000
2262		3085.937500
2263		3085.937500
2264		3085.937500
2265		3085.937500
2266		3085.937500
2267		3125.000000
2268		3085.937500
2269		3085.937500
2270		3085.937500
2271		3085.937500
2272		3085.937500
2273		3085.937500
2274		3085.937500
2275		3085.937500
2276		3085.937500
2277		3085.937500
2278		3085.937500
2279		3085.937500
2280		3085.937500
2281		3085.937500
2282		3125.000000
2283		3085.937500
2284		3085.937500
2285		3085.937500
2286		3085.937500
2287		3085.937500
2288		3085.937500
2289		3085.937500
2290		3085.937500
2291		3085.937500
2292		3085.937500
2293		3085.937500
2294		3085.937500
2295		3085.937500
2296		3085.937500
2297		3085.937500
2298		3125.000000
2299		3085.937500
2300		3085.937500
2301		3085.937500
2302		3085.937500
2303		3085.937500
2304		3085.937500
2305		3125.000000
2306		3085.937500
2307		3085.937500
2308		3085.937500
2309		3085.937500
2310		3085.937500
2311		3085.937500
2312		3085.937500
2313		3085.937500
2314		3085.937500
2315		3125.000000
2316		3085.937500
2317		3085.937500
2318		3085.937500
2319		3085.937500
2320		3085.937500
2321		3085.937500
2322		3085.937500
2323		3085.937500
2324		3085.937500
2325		3085.937500
2326		3085.937500
2327		3085.937500
2328		3085.937500
2329		3085.937500
2330		3085.937500
2331		3085.937500
2332		3125.000000
2333		3085.937500
2334		3085.937500
2335		3085.937500
2336		3085.937500
2337		3085.937500
2338		3085.937500
2339		3125.000000
2340		3085.937500
2341		3085.937500
2342		3125.000000
2343		3125.000000
2344		3085.937500
2345		3085.937500
2346		3085.937500
2347		3085.937500
2348		3085.937500
2349		3085.937500
2350		3085.937500
2351		3085.937500
2352		3085.937500
2353		3085.937500
2354		3085.937500
2355		3085.937500
2356		3085.937500
2357		3085.937500
2358		3085.937500
2359		3125.000000
2360		3085.937500
2361		3085.937500
2362		3085.937500
2363		3085.937500
2364		3085.937500
2365		3085.937500
2366		3085.937500
2367		3085.937500
2368		3085.937500
2369		3085.937500
2370		3085.937500
2371		3085.937500
2372		3085.937500
2373		3085.937500
2374		3085.937500
2375		3085.937500
2376		3085.937500
2377		3085.937500
2378		3085.937500
2379		3085.937500
2380		3085.937500
2381		3085.937500
2382		3085.937500
2383		3085.937500
2384		3085.937500
2385		3085.937500
2386		3085.937500
2387		3085.937500
2388		3085.937500
2389		3085.937500
2390		3085.937500
2391		3085.937500
2392		3085.937500
2393		3085.937500
2394		3085.937500
2395		3085.937500
2396		3085.937500
2397		3085.937500
2398		3085.937500
2399		3085.937500
2400		3085.937500
2401		3085.937500
2402		3085.937500
2403		3085.937500
2404		3085.937500
2405		3085.937500
2406		3085.937500
2407		3085.937500
2408		3085.937500
2409		3085.937500
2410		3085.937500
2411		3085.937500
2412		3085.937500
2413		3085.937500
2414		3085.937500
2415		3085.937500
2416		3085.937500
2417		3085.937500
2418		3085.937500
2419		3085.937500
2420		3085.937500
2421		3085.937500
2422		3085.937500
2423		3085.937500
2424		3085.937500
2425		3085.937500
2426		3085.937500
2427		3085.937500
2428		3085.937500
2429		3085.937500
2430		3046.875000
2431		3046.875000
2432		3046.875000
2433		3007.812500
2434		3007.812500
2435		2968.750000
2436		2929.687500
2437		2929.687500
2438		2890.625000
2439		2890.625000
2440		2851.562500
2441		2812.500000
2442		2773.437500
2443		2773.437500
2444		2734.375000
2445		2695.312500
2446		2695.312500
2447		2656.250000
2448		2617.187500
2449		2617.187500
2450		2578.125000
2451		2539.062500
2452		2539.062500
2453		2500.000000
2454		2460.937500
2455		2460.937500
2456		2421.875000
2457		2382.812500
2458		2343.750000
2459		2304.687500
2460		2304.687500
2461		2265.625000
2462		2226.562500
2463		2187.500000
2464		2187.500000
2465		2148.437500
2466		2109.375000
2467		2109.375000
2468		2070.312500
2469		2031.250000
2470		2031.250000
2471		1992.187500
2472		1953.125000
2473		1953.125000
2474		1914.062500
2475		1875.000000
2476		1875.000000
2477		1835.937500
2478		1796.875000
2479		1757.812500
2480		1757.812500
2481		1718.750000
2482		1679.687500
2483		1679.687500
2484		1640.625000
2485		1601.562500
2486		1562.500000
2487		1562.500000
2488		1523.437500
2489		1523.437500
2490		1484.375000
2491		1445.312500
2492		1445.312500
2493		1406.250000
2494		1367.187500
2495		1367.187500
2496		1328.125000
2497		1289.062500
2498		1289.062500
2499		1250.000000
2500		1210.937500
2501		1210.937500
2502		1171.875000
2503		1132.812500
2504		1132.812500
2505		1093.750000
2506		1093.750000
2507		1054.687500
2508		1015.625000
2509		1015.625000
2510		976.562500
2511		976.562500
2512		937.500000
2513		898.437500
2514		898.437500
2515		859.375000
2516		820.312500
2517		820.312500
2518		781.250000
2519		781.250000
2520		742.187500
2521		703.125000
2522		703.125000
2523		664.062500
2524		664.062500
2525		625.000000
2526		625.000000
2527		585.937500
2528		546.875000
2529		546.875000
2530		507.812500
2531		507.812500
2532		468.750000
2533		429.687500
2534		429.687500
2535		390.625000
2536		390.625000
2537		351.562500
2538		351.562500
2539		312.500000
2540		273.437500
2541		273.437500
2542		234.375000
2543		234.375000
2544		195.312500
2545		156.250000
2546		156.250000
2547		156.250000
2548		117.187500
2549		78.125000
2550		78.125000
2551		39.062500
2552		39.062500
2553		0.000000
2554		0.000000
2555		-39.062500
2556		-39.062500
2557		-78.125000
2558		-78.125000
2559		-117.187500
2560		-117.187500
2561		-156.250000
2562		-156.250000
2563		-195.312500
2564		-195.312500
2565		-234.375000
2566		-234.375000
2567		-273.437500
2568		-273.437500
2569		-312.500000
2570		-351.562500
2571		-351.562500
2572		-351.562500
2573		-390.625000
2574		-390.625000
2575		-429.687500
2576		-429.687500
2577		-468.750000
2578		-468.750000
2579		-507.812500
2580		-507.812500
2581		-546.875000
2582		-546.875000
2583		-585.937500
2584		-585.937500
2585		-625.000000
2586		-625.000000
2587		-664.062500
2588		-664.062500
2589		-664.062500
2590		-703.125000
2591		-703.125000
2592		-742.187500
2593		-742.187500
2594		-781.250000
2595		-781.250000
2596		-781.250000
2597		-820.312500
2598		-820.312500
2599		-859.375000
2600		-859.375000
2601		-898.437500
2602		-898.437500
2603		-937.500000
2604		-937.500000
2605		-976.562500
2606		-976.562500
2607		-976.562500
2608		-1015.625000
2609		-1015.625000
2610		-1015.625000
2611		-1054.687500
2612		-1054.687500
2613		-1054.687500
2614		-1093.750000
2615		-1093.750000
2616		-1132.812500
2617		-1132.812500
2618		-1132.812500
2619		-1171.875000
2620		-1171.875000
2621		-1210.937500
2622		-1210.937500
2623		-1250.000000
2624		-1250.000000
2625		-1289.062500
2626		-1289.062500
2627		-1289.062500
2628		-1328.125000
2629		-1328.125000
2630		-1328.125000
2631		-1367.187500
2632		-1367.187500
2633		-1367.187500
2634		-1406.250000
2635		-1406.250000
2636		-1406.250000
2637		-1445.312500
2638		-1445.312500
2639		-1484.375000
2640		-1484.375000
2641		-1523.437500
2642		-1523.437500
2643		-1523.437500
2644		-1562.500000
2645		-1562.500000
2646		-1562.500000
2647		-1601.562500
2648		-1601.562500
2649		-1601.562500
2650		-1640.625000
2651		-1640.625000
2652		-1640.625000
2653		-1679.687500
2654		-1679.687500
2655		-1679.687500
2656		-1718.750000
2657		-1718.750000
2658		-1718.750000
2659		-1757.812500
2660		-1757.812500
2661		-1757.812500
2662		-1796.875000
2663		-1796.875000
2664		-1835.937500
2665		-1835.937500
2666		-1835.937500
2667		-1835.937500
2668		-1835.937500
2669		-1875.000000
2670		-1875.000000
2671		-1875.000000
2672		-1914.062500
2673		-1914.062500
2674		-1914.062500
2675		-1953.125000
2676		-1953.125000
2677		-1953.125000
2678		-1992.187500
2679		-1992.187500
2680		-1992.187500
2681		-2031.250000
2682		-2031.250000
2683		-2031.250000
2684		-2031.250000
2685		-2070.312500
2686		-2070.312500
2687		-2070.312500
2688		-2070.312500
2689		-2070.312500
2690		-2109.375000
2691		-2109.375000
2692		-2109.375000
2693		-2148.437500
2694		-2148.437500
2695		-2148.437500
2696		-2187.500000
2697		-2187.500000
2698		-2187.500000
2699		-2187.500000
2700		-2226.562500
2701		-2226.562500
2702		-2226.562500
2703		-2226.562500
2704		-2265.625000
2705		-2265.625000
2706		-2265.625000
2707		-2265.625000
2708		-2304.687500
2709		-2304.687500
2710		-2304.687500
2711		-2304.687500
2712		-2343.750000
2713		-2343.750000
2714		-2382.812500
2715		-2343.750000
2716		-2382.812500
2717		-2382.812500
2718		-2382.812500
2719		-2382.812500
2720		-2421.875000
2721		-2421.875000
2722		-2421.875000
2723		-2421.875000
2724		-2421.875000
2725		-2460.937500
2726		-2460.937500
2727		-2460.937500
2728		-2460.937500
2729		-2500.000000
2730		-2500.000000
2731		-2500.000000
2732		-2500.000000
2733		-2500.000000
2734		-2539.062500
2735		-2539.062500
2736		-2539.062500
2737		-2539.062500
2738		-2539.062500
2739		-2578.125000
2740		-2578.125000
2741		-2578.125000
2742		-2578.125000
2743		-2617.187500
2744		-2617.187500
2745		-2617.187500
2746		-2617.187500
2747		-2617.187500
2748		-2656.250000
2749		-2656.250000
2750		-2656.250000
2751		-2656.250000
2752		-2656.250000
2753		-2656.250000
2754		-2695.312500
2755		-2695.312500
2756		-2695.312500
2757		-2695.312500
2758		-2695.312500
2759		-2695.312500
2760		-2734.375000
2761		-2734.375000
2762		-2734.375000
2763		-2734.375000
2764		-2734.375000
2765		-2773.437500
2766		-2773.437500
2767		-2773.437500
2768		-2773.437500
2769		-2773.437500
2770		-2773.437500
2771		-2812.500000
2772		-2812.500000
2773		-2812.500000
2774		-2812.500000
2775		-2812.500000
2776		-2812.500000
2777		-2851.562500
2778		-2851.562500
2779		-2851.562500
2780		-2851.562500
2781		-2851.562500
2782		-2851.562500
2783		-2890.625000
2784		-2890.625000
2785		-2890.625000
2786		-2890.625000
2787		-2890.625000
2788		-2890.625000
2789		-2890.625000
2790		-2929.687500
2791		-2890.625000
2792		-2929.687500
2793		-2929.687500
2794		-2929.687500
2795		-2929.687500
2796		-2929.687500
2797		-2929.687500
2798		-2929.687500
2799		-2968.750000
2800		-2968.750000
2801		-2968.750000
2802		-2968.750000
2803		-2968.750000
2804		-2968.750000
2805		-3007.812500
2806		-3007.812500
2807		-3007.812500
2808		-3007.812500
2809		-3007.812500
2810		-3007.812500
2811		-3007.812500
2812		-3007.812500
2813		-3007.812500
2814		-3007.812500
2815		-3007.812500
2816		-3046.875000
2817		-3046.875000
2818		-3046.875000
2819		-3046.875000
2820		-3046.875000
2821		-3046.875000
2822		-3085.937500
2823		-3085.937500
2824		-3085.937500
2825		-3085.937500
2826		-3085.937500
2827		-3085.937500
2828		-3085.937500
2829		-3085.937500
2830		-3085.937500
2831		-3085.937500
2832		-3085.937500
2833		-3085.937500
2834		-3085.937500
2835		-3085.937500
2836		-3125.000000
2837		-3125.000000
2838		-3125.000000
2839		-3125.000000
2840		-3125.000000
2841		-3125.000000
2842		-3125.000000
2843		-3125.000000
2844		-3125.000000
2845		-3164.062500
2846		-3164.062500
2847		-3164.062500
2848		-3164.062500
2849		-3164.062500
2850		-3164.062500
2851		-3164.062500
2852		-3164.062500
2853		-3164.062500
2854		-3164.062500
2855		-3164.062500
2856		-3164.062500
2857		-3164.062500
2858		-3164.062500
2859		-3164.062500
2860		-3164.062500
2861		-3164.062500
2862		-3164.062500
2863		-3203.125000
2864		-3203.125000
2865		-3203.125000
2866		-3203.125000
2867		-3203.125000
2868		-3203.125000
2869		-3203.125000
2870		-3203.125000
2871		-3203.125000
2872		-3203.125000
2873		-3203.125000
2874		-3203.125000
2875		-3203.125000
2876		-3203.125000
2877		-3203.125000
2878		-3203.125000
2879		-3203.125000
2880		-3203.125000
2881		-3203.125000
2882		-3203.125000
2883		-3203.125000
2884		-3203.125000
2885		-3203.125000
2886		-3203.125000
2887		-3203.125000
2888		-3203.125000
2889		-3203.125000
2890		-3203.125000
2891		-3203.125000
2892		-3203.125000
2893		-3203.125000
2894		-3203.125000
2895		-3203.125000
2896		-3203.125000
2897		-3203.125000
2898		-3203.125000
2899		-3203.125000
2900		-3203.125000
2901		-3203.125000
2902		-3203.125000
2903		-3203.125000
2904		-3203.125000
2905		-3203.125000
2906		-3203.125000
2907		-3203.125000
2908		-3203.125000
2909		-3203.125000
2910		-3203.125000
2911		-3203.125000
2912		-3203.125000
2913		-3203.125000
2914		-3203.125000
2915		-3203.125000
2916		-3203.125000
2917		-3203.125000
2918		-3203.125000
2919		-3203.125000
2920		-3203.125000
2921		-3203.125000
2922		-3203.125000
2923		-3203.125000
2924		-3203.125000
2925		-3203.125000
2926		-3203.125000
2927		-3203.125000
2928		-3203.125000
2929		-3203.125000
2930		-3203.125000
2931		-3203.125000
2932		-3203.125000
2933		-3203.125000
2934		-3203.125000
2935		-3203.125000
2936		-3203.125000
2937		-3203.125000
2938		-3203.125000
2939		-3203.125000
2940		-3164.062500
2941		-3203.125000
2942		-3164.062500
2943		-3164.062500
2944		-3164.062500
2945		-3164.062500
2946		-3164.062500
2947		-3164.062500
2948		-3164.062500
2949		-3164.062500
2950		-3164.062500
2951		-3164.062500
2952		-3164.062500
2953		-3164.062500
2954		-3164.062500
2955		-3164.062500
2956		-3164.062500
2957		-3164.062500
2958		-3164.062500
2959		-3164.062500
2960		-3125.000000
2961		-3164.062500
2962		-3125.000000
2963		-3125.000000
2964		-3125.000000
2965		-3125.000000
2966		-3125.000000
2967		-3125.000000
2968		-3125.000000
2969		-3125.000000
2970		-3125.000000
2971		-3125.000000
2972		-3125.000000
2973		-3125.000000
2974		-3125.000000
2975		-3125.000000
2976		-3085.937500
2977		-3085.937500
2978		-3085.937500
2979		-3085.937500
2980		-3085.937500
2981		-3085.937500
2982		-3085.937500
2983		-3085.937500
2984		-3085.937500
2985		-3085.937500
2986		-3085.937500
2987		-3085.937500
2988		-3085.937500
2989		-3046.875000
2990		-3046.875000
2991		-3046.875000
2992		-3046.875000
2993		-3046.875000
2994		-3046.875000
2995		-3046.875000
2996		-3007.812500
2997		-3007.812500
2998		-3007.812500
2999		-3007.812500
3000		-3007.812500
3001		-3007.812500
3002		-3007.812500
3003		-3007.812500
3004		-3007.812500
3005		-3007.812500
3006		-3007.812500
3007		-3007.812500
3008		-2968.750000
3009		-2968.750000
3010		-2968.750000
3011		-2968.750000
3012		-2968.750000
3013		-2968.750000
3014		-2929.687500
3015		-2929.687500
3016		-2929.687500
3017		-2929.687500
3018		-2929.687500
3019		-2929.687500
3020		-2929.687500
3021		-2929.687500
3022		-2929.687500
3023		-2929.687500
3024		-2929.687500
3025		-2890.625000
3026		-2890.625000
3027		-2890.625000
3028		-2890.625000
3029		-2890.625000
3030		-2890.625000
3031		-2851.562500
3032		-2851.562500
3033		-2851.562500
3034		-2851.562500
3035		-2851.562500
3036		-2812.500000
3037		-2812.500000
3038		-2812.500000
3039		-2812.500000
3040		-2812.500000
3041		-2812.500000
3042		-2812.500000
3043		-2812.500000
3044		-2773.437500
3045		-2773.437500
3046		-2773.437500
3047		-2773.437500
3048		-2773.437500
3049		-2734.375000
3050		-2734.375000
3051		-2734.375000
3052		-2695.312500
3053		-2734.375000
3054		-2695.312500
3055		-2695.312500
3056		-2695.312500
3057		-2695.312500
3058		-2695.312500
3059		-2656.250000
3060		-2695.312500
3061		-2656.250000
3062		-2656.250000
3063		-2656.250000
3064		-2656.250000
3065		-2617.187500
3066		-2617.187500
3067		-2617.187500
3068		-2617.187500
3069		-2617.187500
3070		-2578.125000
3071		-2578.125000
3072		-2578.125000
3073		-2578.125000
3074		-2539.062500
3075		-2539.062500
3076		-2539.062500
3077		-2539.062500
3078		-2539.062500
3079		-2539.062500
3080		-2500.000000
3081		-2500.000000
3082		-2500.000000
3083		-2500.000000
3084		-2500.000000
3085		-2460.937500
3086		-2460.937500
3087		-2460.937500
3088		-2460.937500
3089		-2421.875000
3090		-2421.875000
3091		-2421.875000
3092		-2421.875000
3093		-2382.812500
3094		-2382.812500
3095		-2382.812500
3096		-2382.812500
3097		-2343.750000
3098		-2343.750000
3099		-2343.750000
3100		-2343.750000
3101		-2343.750000
3102		-2304.687500
3103		-2304.687500
3104		-2304.687500
3105		-2265.625000
3106		-2265.625000
3107		-2265.625000
3108		-2265.625000
3109		-2226.562500
3110		-2226.562500
3111		-2226.562500
3112		-2187.500000
3113		-2187.500000
3114		-2187.500000
3115		-2187.500000
3116		-2187.500000
3117		-2148.437500
3118		-2148.437500
3119		-2148.437500
3120		-2148.437500
3121		-2109.375000
3122		-2109.375000
3123		-2109.375000
3124		-2070.312500
3125		-2070.312500
3126		-2070.312500
3127		-2031.250000
3128		-2031.250000
3129		-2031.250000
3130		-1992.187500
3131		-2031.250000
3132		-1992.187500
3133		-1992.187500
3134		-1953.125000
3135		-1953.125000
3136		-1953.125000
3137		-1953.125000
3138		-1914.062500
3139		-1914.062500
3140		-1914.062500
3141		-1875.000000
3142		-1875.000000
3143		-1875.000000
3144		-1835.937500
3145		-1835.937500
3146		-1835.937500
3147		-1796.875000
3148		-1796.875000
3149		-1796.875000
3150		-1757.812500
3151		-1757.812500
3152		-1757.812500
3153		-1718.750000
3154		-1718.750000
3155		-1718.750000
3156		-1679.687500
3157		-1679.687500
3158		-1679.687500
3159		-1640.625000
3160		-1640.625000
3161		-1640.625000
3162		-1601.562500
3163		-1601.562500
3164		-1601.562500
3165		-1562.500000
3166		-1562.500000
3167		-1562.500000
3168		-1523.437500
3169		-1523.437500
3170		-1484.375000
3171		-1484.375000
3172		-1445.312500
3173		-1445.312500
3174		-1445.312500
3175		-1406.250000
3176		-1406.250000
3177		-1367.187500
3178		-1367.187500
3179		-1367.187500
3180		-1328.125000
3181		-1328.125000
3182		-1328.125000
3183		-1289.062500
3184		-1289.062500
3185		-1289.062500
3186		-1250.000000
3187		-1250.000000
3188		-1210.937500
3189		-1210.937500
3190		-1171.875000
3191		-1171.875000
3192		-1171.875000
3193		-1132.812500
3194		-1132.812500
3195		-1093.750000
3196		-1093.750000
3197		-1093.750000
3198		-1054.687500
3199		-1054.687500
3200		-1015.625000
3201		-1015.625000
3202		-1015.625000
3203		-976.562500
3204		-976.562500
3205		-937.500000
3206		-937.500000
3207		-898.437500
3208		-898.437500
3209		-859.375000
3210		-859.375000
3211		-820.312500
3212		-820.312500
3213		-781.250000
3214		-781.250000
3215		-742.187500
3216		-742.187500
3217		-742.187500
3218		-703.125000
3219		-703.125000
3220		-664.062500
3221		-664.062500
3222		-625.000000
3223		-625.000000
3224		-625.000000
3225		-585.937500
3226		-546.875000
3227		-546.875000
3228		-507.812500
3229		-507.812500
3230		-468.750000
3231		-468.750000
3232		-429.687500
3233		-429.687500
3234		-390.625000
3235		-390.625000
3236		-351.562500
3237		-351.562500
3238		-312.500000
3239		-312.500000
3240		-273.437500
3241		-273.437500
3242		-234.375000
3243		-234.375000
3244		-195.312500
3245		-195.312500
3246		-156.250000
3247		-156.250000
3248		-117.187500
3249		-117.187500
3250		-78.125000
3251		-39.062500
3252		-39.062500
3253		0.000000
3254		0.000000
3255		39.062500
3256		39.062500
3257		78.125000
3258		78.125000
3259		117.187500
3260		117.187500
3261		156.250000
3262		156.250000
3263		195.312500
3264		234.375000
3265		234.375000
3266		273.437500
3267		312.500000
3268		312.500000
3269		351.562500
3270		351.562500
3271		390.625000
3272		390.625000
3273		429.687500
3274		429.687500
3275		468.750000
3276		507.812500
3277		507.812500
3278		546.875000
3279		546.875000
3280		585.937500
3281		625.000000
3282		625.000000
3283		664.062500
3284		703.125000
3285		703.125000
3286		742.187500
3287		781.250000
3288		781.250000
3289		820.312500
3290		820.312500
3291		859.375000
3292		898.437500
3293		898.437500
3294		937.500000
3295		976.562500
3296		976.562500
3297		1015.625000
3298		1015.625000
3299		1054.687500
3300		1093.750000
3301		1132.812500
3302		1132.812500
3303		1171.875000
3304		1171.875000
3305		1210.937500
3306		1250.000000
3307		1250.000000
3308		1289.062500
3309		1328.125000
3310		1328.125000
3311		1367.187500
3312		1406.250000
3313		1445.312500
3314		1445.312500
3315		1484.375000
3316		1523.437500
3317		1523.437500
3318		1562.500000
3319		1601.562500
3320		1601.562500
3321		1640.625000
3322		1679.687500
3323		1679.687500
3324		1718.750000
3325		1757.812500
3326		1796.875000
3327		1796.875000
3328		1835.937500
3329		1875.000000
3330		1875.000000
3331		1914.062500
3332		1953.125000
3333		1992.187500
3334		1992.187500
3335		2031.250000
3336		2070.312500
3337		2109.375000
3338		2109.375000
3339		2148.437500
3340		2187.500000
3341		2226.562500
3342		2226.562500
3343		2265.625000
3344		2304.687500
3345		2304.687500
3346		2343.750000
3347		2382.812500
3348		2382.812500
3349		2421.875000
3350		2460.937500
3351		2500.000000
3352		2539.062500
3353		2578.125000
3354		2578.125000
3355		2617.187500
3356		2656.250000
3357		2695.312500
3358		2734.375000
3359		2734.375000
3360		2773.437500
3361		2812.500000
3362		2812.500000
3363		2851.562500
3364		2890.625000
3365		2929.687500
3366		2929.687500
3367		2968.750000
3368		3007.812500
3369		3046.875000
3370		3085.937500
3371		3085.937500
3372		3085.937500
3373		3085.937500
3374		3085.937500
3375		3046.875000
3376		3085.937500
3377		3085.937500
3378		3085.937500
3379		3085.937500
3380		3085.937500
3381		3085.937500
3382		3085.937500
3383		3085.937500
3384		3085.937500
3385		3085.937500
3386		3085.937500
3387		3085.937500
3388		3085.937500
3389		3085.937500
3390		3085.937500
3391		3085.937500
3392		3085.937500
3393		3085.937500
3394		3085.937500
3395		3085.937500
3396		3085.937500
3397		3085.937500
3398		3085.937500
3399		3085.937500
3400		3085.937500
3401		3085.937500
3402		3085.937500
3403		3085.937500
3404		3085.937500
3405		3085.937500
3406		3085.937500
3407		3085.937500
3408		3085.937500
3409		3085.937500
3410		3085.937500
3411		3085.937500
3412		3085.937500
3413		3085.937500
3414		3085.937500
3415		3085.937500
3416		3085.937500
3417		3085.937500
3418		3085.937500
3419		3085.937500
3420		3085.937500
3421		3085.937500
3422		3085.937500
3423		3085.937500
3424		3085.937500
3425		3085.937500
3426		3085.937500
3427		3085.937500
3428		3085.937500
3429		3085.937500
3430		3085.937500
3431		3085.937500
3432		3085.937500
3433		3085.937500
3434		3085.937500
3435		3085.937500
3436		3085.937500
3437		3085.937500
3438		3085.937500
3439		3085.937500
3440		3085.937500
3441		3085.937500
3442		3085.937500
3443		3085.937500
3444		3085.937500
3445		3125.000000
3446		3085.937500
3447		3085.937500
3448		3085.937500
3449		3085.937500
3450		3085.937500
3451		3085.937500
3452		3085.937500
3453		3085.937500
3454		3085.937500
3455		3085.937500
3456		3085.937500
3457		3085.937500
3458		3085.937500
3459		3085.937500
3460		3085.937500
3461		3085.937500
3462		3085.937500
3463		3085.937500
3464		3085.937500
3465		3085.937500
3466		3085.937500
3467		3085.937500
3468		3085.937500
3469		3085.937500
3470		3085.937500
3471		3085.937500
3472		3085.937500
3473		3085.937500
3474		3085.937500
3475		3085.937500
3476		3085.937500
3477		3085.937500
3478		3085.937500
3479		3125.000000
3480		3085.937500
3481		3085.937500
3482		3085.937500
3483		3085.937500
3484		3085.937500
3485		3085.937500
3486		3085.937500
3487		3085.937500
3488		3085.937500
3489		3085.937500
3490		3085.937500
3491		3085.937500
3492		3085.937500
3493		3085.937500
3494		3085.937500
3495		3085.937500
3496		3085.937500
3497		3085.937500
3498		3085.937500
3499		3085.937500
3500		3085.937500
3501		3125.000000
3502		3085.937500
3503		3085.937500
3504		3085.937500
3505		3085.937500
3506		3085.937500
3507		3085.937500
3508		3085.937500
3509		3085.937500
3510		3085.937500
3511		3085.937500
3512		3085.937500
3513		3085.937500
3514		3085.937500
3515		3085.937500
3516		3085.937500
3517		3085.937500
3518		3085.937500
3519		3085.937500
3520		3085.937500
3521		3085.937500
3522		3085.937500
3523		3085.937500
3524		3085.937500
3525		3085.937500
3526		3085.937500
3527		3085.937500
3528		3085.937500
3529		3085.937500
3530		3085.937500
3531		3085.937500
3532		3085.937500
3533		3085.937500
3534		3085.937500
3535		3085.937500
3536		3085.937500
3537		3085.937500
3538		3085.937500
3539		3085.937500
3540		3085.937500
3541		3085.937500
3542		3085.937500
3543		3085.937500
3544		3085.937500
3545		3085.937500
3546		3085.937500
3547		3085.937500
3548		3085.937500
3549		3085.937500
3550		3085.937500
3551		3085.937500
3552		3085.937500
3553		3085.937500
3554		3085.937500
3555		3085.937500
3556		3085.937500
3557		3085.937500
3558		3085.937500
3559		3085.937500
3560		3085.937500
3561		3085.937500
3562		3085.937500
3563		3085.937500
3564		3125.000000
3565		3085.937500
3566		3085.937500
3567		3085.937500
3568		3085.937500
3569		3085.937500
3570		3085.937500
3571		3085.937500
3572		3085.937500
3573		3085.937500
3574		3085.937500
3575		3085.937500
3576		3085.937500
3577		3085.937500
3578		3085.937500
3579		3085.937500
3580		3085.937500
3581		3085.937500
3582		3085.937500
3583		3085.937500
3584		3085.937500
3585		3085.937500
3586		3085.937500
3587		3085.937500
3588		3085.937500
3589		3085.937500
3590		3085.937500
3591		3085.937500
3592		3085.937500
3593		3085.937500
3594		3085.937500
3595		3085.937500
3596		3085.937500
3597		3085.937500
3598		3085.937500
3599		3125.000000
3600		3085.937500
3601		3085.937500
3602		3085.937500
3603		3085.937500
3604		3085.937500
3605		3085.937500
3606		3085.937500
3607		3085.937500
3608		3085.937500
3609		3085.937500
3610		3085.937500
3611		3085.937500
3612		3085.937500
3613		3085.937500
3614		3085.937500
3615		3085.937500
3616		3085.937500
3617		3085.937500
3618		3085.937500
3619		3085.937500
3620		3085.937500
3621		3085.937500
3622		3085.937500
3623		3085.937500
3624		3085.937500
3625		3125.000000
3626		3085.937500
3627		3085.937500
3628		3085.937500
3629		3085.937500
3630		3085.937500
3631		3085.937500
3632		3085.937500
3633		3085.937500
3634		3085.937500
3635		3085.937500
3636		3085.937500
3637		3085.937500
3638		3085.937500
3639		3085.937500
3640		3085.937500
3641		3085.937500
3642		3085.937500
3643		3125.000000
3644		3085.937500
3645		3085.937500
3646		3085.937500
3647		3085.937500
3648		3085.937500
3649		3085.937500
3650		3085.937500
3651		3085.937500
3652		3085.937500
3653		3085.937500
3654		3085.937500
3655		3085.937500
3656		3085.937500
3657		3085.937500
3658		3085.937500
3659		3085.937500
3660		3085.937500
3661		3085.937500
3662		3085.937500
3663		3085.937500
3664		3085.937500
3665		3085.937500
3666		3085.937500
3667		3085.937500
3668		3085.937500
3669		3085.937500
3670		3085.937500
3671		3085.937500
3672		3085.937500
3673		3085.937500
3674		3085.937500
3675		3085.937500
3676		3085.937500
3677		3085.937500
3678		3085.937500
3679		3085.937500
3680		3085.937500
3681		3085.937500
3682		3085.937500
3683		3085.937500
3684		3085.937500
3685		3085.937500
3686		3085.937500
3687		3085.937500
3688		3125.000000
3689		3085.937500
3690		3085.937500
3691		3085.937500
3692		3085.937500
3693		3085.937500
3694		3085.937500
3695		3085.937500
3696		3085.937500
3697		3125.000000
3698		3085.937500
3699		3085.937500
3700		3085.937500
3701		3085.937500
3702		3085.937500
3703		3085.937500
3704		3085.937500
3705		3085.937500
3706		3085.937500
3707		3085.937500
3708		3125.000000
3709		3085.937500
3710		3085.937500
3711		3085.937500
3712		3085.937500
3713		3085.937500
3714		3085.937500
3715		3085.937500
3716		3085.937500
3717		3085.937500
3718		3085.937500
3719		3085.937500
3720		3085.937500
3721		3085.937500
3722		3085.937500
3723		3085.937500
3724		3125.000000
3725		3085.937500
3726		3085.937500
3727		3085.937500
3728		3085.937500
3729		3085.937500
3730		3085.937500
3731		3085.937500
3732		3085.937500
3733		3085.937500
3734		3085.937500
3735		3085.937500
3736		3085.937500
3737		3085.937500
3738		3085.937500
3739		3085.937500
3740		3085.937500
3741		3085.937500
3742		3085.937500
3743		3085.937500
3744		3085.937500
3745		3085.937500
3746		3085.937500
3747		3085.937500
3748		3085.937500
3749		3085.937500
3750		3085.937500
3751		3085.937500
3752		3085.937500
3753		3085.937500
3754		3085.937500
3755		3085.937500
3756		3085.937500
3757		3085.937500
3758		3085.937500
3759		3085.937500
3760		3085.937500
3761		3085.937500
3762		3085.937500
3763		3085.937500
3764		3085.937500
3765		3085.937500
3766		3085.937500
3767		3085.937500
3768		3085.937500
3769		3085.937500
3770		3085.937500
3771		3085.937500
3772		3085.937500
3773		3085.937500
3774		3085.937500
3775		3085.937500
3776		3085.937500
3777		3085.937500
3778		3085.937500
3779		3125.000000
3780		3085.937500
3781		3085.937500
3782		3085.937500
3783		3085.937500
3784		3085.937500
3785		3085.937500
3786		3085.937500
3787		3085.937500
3788		3085.937500
3789		3085.937500
3790		3085.937500
3791		3085.937500
3792		3085.937500
3793		3085.937500
3794		3085.937500
3795		3085.937500
3796		3085.937500
3797		3085.937500
3798		3085.937500
3799		3085.937500
3800		3085.937500
3801		3085.937500
3802		3085.937500
3803		3085.937500
3804		3085.937500
3805		3085.937500
3806		3085.937500
3807		3085.937500
3808		3085.937500
3809		3085.937500
3810		3085.937500
3811		3085.937500
3812		3085.937500
3813		3085.937500
3814		3085.937500
3815		3085.937500
3816		3085.937500
3817		3085.937500
3818		3085.937500
3819		3085.937500
3820		3085.937500
3821		3085.937500
3822		3085.937500
3823		3085.937500
3824		3085.937500
3825		3085.937500
3826		3085.937500
3827		3085.937500
3828		3085.937500
3829		3085.937500
3830		3085.937500
3831		3085.937500
3832		3085.937500
3833		3125.000000
3834		3085.937500
3835		3085.937500
3836		3085.937500
3837		3085.937500
3838		3085.937500
3839		3125.000000
3840		3085.937500
3841		3085.937500
3842		3085.937500
3843		3085.937500
3844		3085.937500
3845		3085.937500
3846		3085.937500
3847		3085.937500
3848		3085.937500
3849		3085.937500
3850		3085.937500
3851		3085.937500
3852		3085.937500
3853		3085.937500
3854		3085.937500
3855		3085.937500
3856		3085.937500
3857		3085.937500
3858		3085.937500
3859		3085.937500
3860		3125.000000
3861		3085.937500
3862		3085.937500
3863		3085.937500
3864		3085.937500
3865		3085.937500
3866		3085.937500
3867		3085.937500
3868		3085.937500
3869		3085.937500
3870		3085.937500
3871		3085.937500
3872		3085.937500
3873		3085.937500
3874		3085.937500
3875		3085.937500
3876		3085.937500
3877		3085.937500
3878		3125.000000
3879		3085.937500
3880		3085.937500
3881		3085.937500
3882		3125.000000
3883		3085.937500
3884		3085.937500
3885		3085.937500
3886		3085.937500
3887		3125.000000
3888		3085.937500
3889		3085.937500
3890		3085.937500
3891		3085.937500
3892		3085.937500
3893		3085.937500
3894		3085.937500
3895		3085.937500
3896		3085.937500
3897		3085.937500
3898		3085.937500
3899		3085.937500
3900		3085.937500
3901		3085.937500
3902		3085.937500
3903		3085.937500
3904		3085.937500
3905		3085.937500
3906		3085.937500
3907		3085.937500
3908		3085.937500
3909		3085.937500
3910		3085.937500
3911		3085.937500
3912		3085.937500
3913		3085.937500
3914		3085.937500
3915		3085.937500
3916		3085.937500
3917		3085.937500
3918		3085.937500
3919		3085.937500
3920		3085.937500
3921		3085.937500
3922		3085.937500
3923		3085.937500
3924		3085.937500
3925		3085.937500
3926		3125.000000
3927		3085.937500
3928		3085.937500
3929		3085.937500
3930		3085.937500
3931		3085.937500
3932		3085.937500
3933		3085.937500
3934		3085.937500
3935		3085.937500
3936		3085.937500
3937		3085.937500
3938		3085.937500
3939		3085.937500
3940		3085.937500
3941		3085.937500
3942		3085.937500
3943		3085.937500
3944		3085.937500
3945		3085.937500
3946		3085.937500
3947		3085.937500
3948		3125.000000
3949		3085.937500
3950		3085.937500
3951		3085.937500
3952		3085.937500
3953		3085.937500
3954		3085.937500
3955		3085.937500
3956		3085.937500
3957		3085.937500
3958		3085.937500
3959		3085.937500
3960		3085.937500
3961		3085.937500
3962		3085.937500
3963		3085.937500
3964		3085.937500
3965		3085.937500
3966		3085.937500
3967		3085.937500
3968		3085.937500
3969		3085.937500
3970		3085.937500
3971		3085.937500
3972		3085.937500
3973		3085.937500
3974		3085.937500
3975		3085.937500
3976		3085.937500
3977		3085.937500
3978		3085.937500
3979		3085.937500
3980		3085.937500
3981		3085.937500
3982		3085.937500
3983		3085.937500
3984		3085.937500
3985		3085.937500
3986		3085.937500
3987		3085.937500
3988		3085.937500
3989		3085.937500
3990		3085.937500
3991		3085.937500
3992		3085.937500
3993		3085.937500
3994		3085.937500
3995		3085.937500
3996		3125.000000
3997		3085.937500
3998		3085.937500
3999		3085.937500
4000		3085.937500
4001		3085.937500
4002		3085.937500
4003		3085.937500
4004		3085.937500
4005		3125.000000
4006		3085.937500
4007		3085.937500
4008		3085.937500
4009		3085.937500
4010		3085.937500
4011		3085.937500
4012		3085.937500
4013		3085.937500
4014		3085.937500
4015		3085.937500
4016		3085.937500
4017		3085.937500
4018		3085.937500
4019		3085.937500
4020		3085.937500
4021		3085.937500
4022		3085.937500
4023		3085.937500
4024		3085.937500
4025		3085.937500
4026		3085.937500
4027		3085.937500
4028		3085.937500
4029		3085.937500
4030		3085.937500
4031		3085.937500
4032		3085.937500
4033		3085.937500
4034		3085.937500
4035		3085.937500
4036		3085.937500
4037		3085.937500
4038		3085.937500
4039		3085.937500
4040		3085.937500
4041		3125.000000
4042		3085.937500
4043		3085.937500
4044		3085.937500
4045		3085.937500
4046		3085.937500
4047		3085.937500
4048		3085.937500
4049		3085.937500
4050		3085.937500
4051		3125.000000
4052		3085.937500
4053		3085.937500
4054		3085.937500
4055		3085.937500
4056		3085.937500
4057		3085.937500
4058		3085.937500
4059		3085.937500
4060		3085.937500
4061		3085.937500
4062		3085.937500
4063		3085.937500
4064		3085.937500
4065		3085.937500
4066		3085.937500
4067		3085.937500
4068		3085.937500
4069		3085.937500
4070		3085.937500
4071		3085.937500
4072		3085.937500
4073		3085.937500
4074		3085.937500
4075		3085.937500
4076		3085.937500
4077		3085.937500
4078		3085.937500
4079		3085.937500
4080		3085.937500
4081		3085.937500
4082		3046.875000
4083		3046.875000
4084		3007.812500
4085		3007.812500
4086		2968.750000
4087		2968.750000
4088		2929.687500
4089		2929.687500
4090		2890.625000
4091		2890.625000
4092		2851.562500
4093		2812.500000
4094		2812.500000
4095		2773.437500
4096		2734.375000
4097		2734.375000
4098		2695.312500
4099		2656.250000
4100		2617.187500
4101		2617.187500
4102		2578.125000
4103		2539.062500
4104		2500.000000
4105		2500.000000
4106		2460.937500
4107		2421.875000
4108		2382.812500
4109		2382.812500
4110		2343.750000
4111		2304.687500
4112		2304.687500
4113		2265.625000
4114		2265.625000
4115		2226.562500
4116		2187.500000
4117		2148.437500
4118		2148.437500
4119		2109.375000
4120		2070.312500
4121		2031.250000
4122		2031.250000
4123		1992.187500
4124		1953.125000
4125		1953.125000
4126		1914.062500
4127		1875.000000
4128		1875.000000
4129		1835.937500
4130		1796.875000
4131		1796.875000
4132		1757.812500
4133		1718.750000
4134		1718.750000
4135		1679.687500
4136		1679.687500
4137		1640.625000
4138		1601.562500
4139		1562.500000
4140		1562.500000
4141		1523.437500
4142		1484.375000
4143		1484.375000
4144		1445.312500
4145		1406.250000
4146		1406.250000
4147		1367.187500
4148		1328.125000
4149		1328.125000
4150		1289.062500
4151		1289.062500
4152		1250.000000
4153		1210.937500
4154		1210.937500
4155		1171.875000
4156		1132.812500
4157		1132.812500
4158		1093.750000
4159		1093.750000
4160		1054.687500
4161		1015.625000
4162		976.562500
4163		976.562500
4164		937.500000
4165		898.437500
4166		898.437500
4167		859.375000
4168		859.375000
4169		820.312500
4170		820.312500
4171		781.250000
4172		781.250000
4173		742.187500
4174		703.125000
4175		703.125000
4176		664.062500
4177		664.062500
4178		625.000000
4179		585.937500
4180		585.937500
4181		546.875000
4182		507.812500
4183		507.812500
4184		468.750000
4185		468.750000
4186		429.687500
4187		429.687500
4188		390.625000
4189		390.625000
4190		351.562500
4191		351.562500
4192		312.500000
4193		312.500000
4194		273.437500
4195		273.437500
4196		234.375000
4197		195.312500
4198		195.312500
4199		156.250000
4200		156.250000
4201		117.187500
4202		117.187500
4203		78.125000
4204		78.125000
4205		39.062500
4206		39.062500
4207		0.000000
4208		0.000000
4209		-39.062500
4210		-39.062500
4211		-78.125000
4212		-78.125000
4213		-117.187500
4214		-117.187500
4215		-156.250000
4216		-195.312500
4217		-195.312500
4218		-195.312500
4219		-234.375000
4220		-234.375000
4221		-273.437500
4222		-273.437500
4223		-312.500000
4224		-312.500000
4225		-351.562500
4226		-351.562500
4227		-390.625000
4228		-390.625000
4229		-429.687500
4230		-429.687500
4231		-468.750000
4232		-468.750000
4233		-468.750000
4234		-507.812500
4235		-507.812500
4236		-546.875000
4237		-546.875000
4238		-585.937500
4239		-585.937500
4240		-625.000000
4241		-625.000000
4242		-664.062500
4243		-664.062500
4244		-664.062500
4245		-703.125000
4246		-703.125000
4247		-742.187500
4248		-742.187500
4249		-781.250000
4250		-781.250000
4251		-781.250000
4252		-820.312500
4253		-820.312500
4254		-859.375000
4255		-859.375000
4256		-898.437500
4257		-898.437500
4258		-937.500000
4259		-937.500000
4260		-937.500000
4261		-976.562500
4262		-976.562500
4263		-976.562500
4264		-1015.625000
4265		-1015.625000
4266		-1054.687500
4267		-1054.687500
4268		-1054.687500
4269		-1093.750000
4270		-1093.750000
4271		-1132.812500
4272		-1132.812500
4273		-1132.812500
4274		-1171.875000
4275		-1171.875000
4276		-1210.937500
4277		-1210.937500
4278		-1210.937500
4279		-1210.937500
4280		-1250.000000
4281		-1250.000000
4282		-1289.062500
4283		-1289.062500
4284		-1289.062500
4285		-1328.125000
4286		-1328.125000
4287		-1367.187500
4288		-1367.187500
4289		-1367.187500
4290		-1406.250000
4291		-1406.250000
4292		-1406.250000
4293		-1445.312500
4294		-1445.312500
4295		-1445.312500
4296		-1484.375000
4297		-1484.375000
4298		-1484.375000
4299		-1523.437500
4300		-1523.437500
4301		-1523.437500
4302		-1562.500000
4303		-1562.500000
4304		-1562.500000
4305		-1601.562500
4306		-1601.562500
4307		-1640.625000
4308		-1640.625000
4309		-1640.625000
4310		-1640.625000
4311		-1640.625000
4312		-1679.687500
4313		-1679.687500
4314		-1718.750000
4315		-1718.750000
4316		-1718.750000
4317		-1718.750000
4318		-1757.812500
4319		-1757.812500
4320		-1757.812500
4321		-1796.875000
4322		-1796.875000
4323		-1796.875000
4324		-1835.937500
4325		-1835.937500
4326		-1835.937500
4327		-1835.937500
4328		-1875.000000
4329		-1875.000000
4330		-1875.000000
4331		-1875.000000
4332		-1914.062500
4333		-1914.062500
4334		-1914.062500
4335		-1953.125000
4336		-1953.125000
4337		-1953.125000
4338		-1953.125000
4339		-1992.187500
4340		-1992.187500
4341		-2031.250000
4342		-2031.250000
4343		-2031.250000
4344		-2031.250000
4345		-2070.312500
4346		-2070.312500
4347		-2070.312500
4348		-2070.312500
4349		-2070.312500
4350		-2109.375000
4351		-2109.375000
4352		-2109.375000
4353		-2109.375000
4354		-2148.437500
4355		-2148.437500
4356		-2148.437500
4357		-2148.437500
4358		-2187.500000
4359		-2187.500000
4360		-2187.500000
4361		-2226.562500
4362		-2226.562500
4363		-2226.562500
4364		-2226.562500
4365		-2265.625000
4366		-2265.625000
4367		-2265.625000
4368		-2265.625000
4369		-2265.625000
4370		-2304.687500
4371		-2265.625000
4372		-2304.687500
4373		-2304.687500
4374		-2304.687500
4375		-2304.687500
4376		-2343.750000
4377		-2343.750000
4378		-2343.750000
4379		-2382.812500
4380		-2382.812500
4381		-2382.812500
4382		-2382.812500
4383		-2382.812500
4384		-2421.875000
4385		-2421.875000
4386		-2421.875000
4387		-2421.875000
4388		-2421.875000
4389		-2421.875000
4390		-2460.937500
4391		-2460.937500
4392		-2460.937500
4393		-2460.937500
4394		-2460.937500
4395		-2500.000000
4396		-2500.000000
4397		-2500.000000
4398		-2500.000000
4399		-2539.062500
4400		-2539.062500
4401		-2539.062500
4402		-2539.062500
4403		-2539.062500
4404		-2539.062500
4405		-2578.125000
4406		-2578.125000
4407		-2578.125000
4408		-2578.125000
4409		-2578.125000
4410		-2578.125000
4411		-2578.125000
4412		-2617.187500
4413		-2617.187500
4414		-2617.187500
4415		-2617.187500
4416		-2617.187500
4417		-2617.187500
4418		-2656.250000
4419		-2656.250000
4420		-2656.250000
4421		-2656.250000
4422		-2656.250000
4423		-2695.312500
4424		-2695.312500
4425		-2695.312500
4426		-2695.312500
4427		-2695.312500
4428		-2695.312500
4429		-2695.312500
4430		-2695.312500
4431		-2695.312500
4432		-2734.375000
4433		-2734.375000
4434		-2734.375000
4435		-2734.375000
4436		-2734.375000
4437		-2773.437500
4438		-2773.437500
4439		-2773.437500
4440		-2773.437500
4441		-2773.437500
4442		-2773.437500
4443		-2773.437500
4444		-2773.437500
4445		-2812.500000
4446		-2812.500000
4447		-2812.500000
4448		-2812.500000
4449		-2812.500000
4450		-2812.500000
4451		-2812.500000
4452		-2812.500000
4453		-2812.500000
4454		-2851.562500
4455		-2851.562500
4456		-2851.562500
4457		-2851.562500
4458		-2851.562500
4459		-2851.562500
4460		-2851.562500
4461		-2851.562500
4462		-2890.625000
4463		-2890.625000
4464		-2890.625000
4465		-2890.625000
4466		-2890.625000
4467		-2890.625000
4468		-2890.625000
4469		-2890.625000
4470		-2890.625000
4471		-2929.687500
4472		-2929.687500
4473		-2929.687500
4474		-2929.687500
4475		-2929.687500
4476		-2929.687500
4477		-2929.687500
4478		-2929.687500
4479		-2929.687500
4480		-2929.687500
4481		-2929.687500
4482		-2968.750000
4483		-2968.750000
4484		-2968.750000
4485		-2968.750000
4486		-2968.750000
4487		-2968.750000
4488		-2968.750000
4489		-2968.750000
4490		-3007.812500
4491		-2968.750000
4492		-2968.750000
4493		-3007.812500
4494		-2968.750000
4495		-2968.750000
4496		-2968.750000
4497		-3007.812500
4498		-3007.812500
4499		-3007.812500
4500		-3007.812500
4501		-3007.812500
4502		-3007.812500
4503		-3007.812500
4504		-3007.812500
4505		-3007.812500
4506		-3007.812500
4507		-3007.812500
4508		-3007.812500
4509		-3007.812500
4510		-3046.875000
4511		-3046.875000
4512		-3007.812500
4513		-3046.875000
4514		-3046.875000
4515		-3046.875000
4516		-3046.875000
4517		-3046.875000
4518		-3046.875000
4519		-3046.875000
4520		-3046.875000
4521		-3046.875000
4522		-3046.875000
4523		-3046.875000
4524		-3046.875000
4525		-3046.875000
4526		-3085.937500
4527		-3046.875000
4528		-3046.875000
4529		-3046.875000
4530		-3046.875000
4531		-3046.875000
4532		-3046.875000
4533		-3046.875000
4534		-3046.875000
4535		-3046.875000
4536		-3085.937500
4537		-3085.937500
4538		-3085.937500
4539		-3085.937500
4540		-3085.937500
4541		-3085.937500
4542		-3085.937500
4543		-3085.937500
4544		-3085.937500
4545		-3085.937500
4546		-3085.937500
4547		-3085.937500
4548		-3085.937500
4549		-3085.937500
4550		-3085.937500
4551		-3085.937500
4552		-3085.937500
4553		-3085.937500
4554		-3085.937500
4555		-3085.937500
4556		-3085.937500
4557		-3085.937500
4558		-3085.937500
4559		-3085.937500
4560		-3085.937500
4561		-3085.937500
4562		-3085.937500
4563		-3085.937500
4564		-3085.937500
4565		-3085.937500
4566		-3085.937500
4567		-3085.937500
4568		-3085.937500
4569		-3085.937500
4570		-3085.937500
4571		-3046.875000
4572		-3085.937500
4573		-3085.937500
4574		-3085.937500
4575		-3085.937500
4576		-3085.937500
4577		-3085.937500
4578		-3085.937500
4579		-3085.937500
4580		-3085.937500
4581		-3085.937500
4582		-3085.937500
4583		-3085.937500
4584		-3085.937500
4585		-3046.875000
4586		-3085.937500
4587		-3046.875000
4588		-3046.875000
4589		-3046.875000
4590		-3046.875000
4591		-3046.875000
4592		-3046.875000
4593		-3046.875000
4594		-3046.875000
4595		-3046.875000
4596		-3046.875000
4597		-3046.875000
4598		-3046.875000
4599		-3046.875000
4600		-3046.875000
4601		-3046.875000
4602		-3046.875000
4603		-3046.875000
4604		-3046.875000
4605		-3046.875000
4606		-3046.875000
4607		-3046.875000
4608		-3046.875000
4609		-3007.812500
4610		-3007.812500
4611		-3007.812500
4612		-3007.812500
4613		-3007.812500
4614		-3007.812500
4615		-3007.812500
4616		-3007.812500
4617		-3007.812500
4618		-3007.812500
4619		-3007.812500
4620		-3007.812500
4621		-3007.812500
4622		-3007.812500
4623		-3007.812500
4624		-3007.812500
4625		-2968.750000
4626		-2968.750000
4627		-2968.750000
4628		-2968.750000
4629		-2968.750000
4630		-2968.750000
4631		-2968.750000
4632		-2968.750000
4633		-2968.750000
4634		-2968.750000
4635		-2968.750000
4636		-2929.687500
4637		-2929.687500
4638		-2929.687500
4639		-2929.687500
4640		-2929.687500
4641		-2929.687500
4642		-2929.687500
4643		-2929.687500
4644		-2929.687500
4645		-2929.687500
4646		-2890.625000
4647		-2929.687500
4648		-2890.625000
4649		-2890.625000
4650		-2890.625000
4651		-2890.625000
4652		-2890.625000
4653		-2890.625000
4654		-2890.625000
4655		-2851.562500
4656		-2851.562500
4657		-2851.562500
4658		-2851.562500
4659		-2851.562500
4660		-2851.562500
4661		-2851.562500
4662		-2851.562500
4663		-2851.562500
4664		-2812.500000
4665		-2851.562500
4666		-2812.500000
4667		-2812.500000
4668		-2812.500000
4669		-2812.500000
4670		-2812.500000
4671		-2812.500000
4672		-2773.437500
4673		-2773.437500
4674		-2773.437500
4675		-2773.437500
4676		-2773.437500
4677		-2773.437500
4678		-2773.437500
4679		-2734.375000
4680		-2734.375000
4681		-2734.375000
4682		-2734.375000
4683		-2734.375000
4684		-2734.375000
4685		-2734.375000
4686		-2734.375000
4687		-2695.312500
4688		-2695.312500
4689		-2695.312500
4690		-2695.312500
4691		-2695.312500
4692		-2695.312500
4693		-2656.250000
4694		-2656.250000
4695		-2656.250000
4696		-2656.250000
4697		-2656.250000
4698		-2656.250000
4699		-2617.187500
4700		-2617.187500
4701		-2617.187500
4702		-2617.187500
4703		-2617.187500
4704		-2617.187500
4705		-2617.187500
4706		-2578.125000
4707		-2578.125000
4708		-2578.125000
4709		-2578.125000
4710		-2578.125000
4711		-2539.062500
4712		-2539.062500
4713		-2539.062500
4714		-2539.062500
4715		-2539.062500
4716		-2500.000000
4717		-2500.000000
4718		-2500.000000
4719		-2500.000000
4720		-2500.000000
4721		-2500.000000
4722		-2460.937500
4723		-2460.937500
4724		-2460.937500
4725		-2460.937500
4726		-2460.937500
4727		-2421.875000
4728		-2421.875000
4729		-2421.875000
4730		-2382.812500
4731		-2382.812500
4732		-2382.812500
4733		-2382.812500
4734		-2382.812500
4735		-2343.750000
4736		-2343.750000
4737		-2343.750000
4738		-2343.750000
4739		-2343.750000
4740		-2343.750000
4741		-2304.687500
4742		-2304.687500
4743		-2304.687500
4744		-2304.687500
4745		-2265.625000
4746		-2265.625000
4747		-2265.625000
4748		-2226.562500
4749		-2226.562500
4750		-2226.562500
4751		-2226.562500
4752		-2187.500000
4753		-2187.500000
4754		-2187.500000
4755		-2187.500000
4756		-2148.437500
4757		-2148.437500
4758		-2148.437500
4759		-2148.437500
4760		-2148.437500
4761		-2109.375000
4762		-2109.375000
4763		-2109.375000
4764		-2109.375000
4765		-2070.312500
4766		-2070.312500
4767		-2031.250000
4768		-2031.250000
4769		-2031.250000
4770		-1992.187500
4771		-1992.187500
4772		-1992.187500
4773		-1992.187500
4774		-1992.187500
4775		-1953.125000
4776		-1953.125000
4777		-1953.125000
4778		-1914.062500
4779		-1914.062500
4780		-1914.062500
4781		-1914.062500
4782		-1875.000000
4783		-1875.000000
4784		-1875.000000
4785		-1835.937500
4786		-1835.937500
4787		-1835.937500
4788		-1796.875000
4789		-1796.875000
4790		-1796.875000
4791		-1757.812500
4792		-1757.812500
4793		-1757.812500
4794		-1718.750000
4795		-1718.750000
4796		-1718.750000
4797		-1718.750000
4798		-1679.687500
4799		-1679.687500
4800		-1679.687500
4801		-1640.625000
4802		-1640.625000
4803		-1601.562500
4804		-1601.562500
4805		-1601.562500
4806		-1562.500000
4807		-1562.500000
4808		-1562.500000
4809		-1523.437500
4810		-1523.437500
4811		-1523.437500
4812		-1484.375000
4813		-1484.375000
4814		-1484.375000
4815		-1445.312500
4816		-1445.312500
4817		-1445.312500
4818		-1406.250000
4819		-1406.250000
4820		-1367.187500
4821		-1367.187500
4822		-1367.187500
4823		-1328.125000
4824		-1328.125000
4825		-1328.125000
4826		-1289.062500
4827		-1289.062500
4828		-1250.000000
4829		-1250.000000
4830		-1250.000000
4831		-1210.937500
4832		-1210.937500
4833		-1171.875000
4834		-1171.875000
4835		-1171.875000
4836		-1132.812500
4837		-1132.812500
4838		-1093.750000
4839		-1093.750000
4840		-1093.750000
4841		-1054.687500
4842		-1054.687500
4843		-1015.625000
4844		-1015.625000
4845		-976.562500
4846		-976.562500
4847		-976.562500
4848		-937.500000
4849		-937.500000
4850		-898.437500
4851		-898.437500
4852		-898.437500
4853		-859.375000
4854		-820.312500
4855		-820.312500
4856		-781.250000
4857		-781.250000
4858		-781.250000
4859		-742.187500
4860		-742.187500
4861		-703.125000
4862		-703.125000
4863		-703.125000
4864		-664.062500
4865		-664.062500
4866		-625.000000
4867		-625.000000
4868		-585.937500
4869		-585.937500
4870		-546.875000
4871		-546.875000
4872		-507.812500
4873		-507.812500
4874		-468.750000
4875		-468.750000
4876		-429.687500
4877		-429.687500
4878		-390.625000
4879		-390.625000
4880		-351.562500
4881		-351.562500
4882		-351.562500
4883		-312.500000
4884		-273.437500
4885		-273.437500
4886		-234.375000
4887		-234.375000
4888		-195.312500
4889		-195.312500
4890		-156.250000
4891		-156.250000
4892		-117.187500
4893		-117.187500
4894		-78.125000
4895		-39.062500
4896		-39.062500
4897		0.000000
4898		0.000000
4899		0.000000
4900		39.062500
4901		78.125000
4902		78.125000
4903		117.187500
4904		117.187500
4905		156.250000
4906		156.250000
4907		195.312500
4908		195.312500
4909		234.375000
4910		273.437500
4911		273.437500
4912		312.500000
4913		351.562500
4914		351.562500
4915		390.625000
4916		390.625000
4917		429.687500
4918		429.687500
4919		468.750000
4920		468.750000
4921		507.812500
4922		507.812500
4923		546.875000
4924		585.937500
4925		585.937500
4926		625.000000
4927		664.062500
4928		664.062500
4929		703.125000
4930		742.187500
4931		742.187500
4932		781.250000
4933		781.250000
4934		820.312500
4935		820.312500
4936		859.375000
4937		898.437500
4938		898.437500
4939		937.500000
4940		976.562500
4941		976.562500
4942		1015.625000
4943		1015.625000
4944		1054.687500
4945		1093.750000
4946		1093.750000
4947		1132.812500
4948		1171.875000
4949		1210.937500
4950		1210.937500
4951		1250.000000
4952		1289.062500
4953		1289.062500
4954		1328.125000
4955		1367.187500
4956		1367.187500
4957		1406.250000
4958		1406.250000
4959		1445.312500
4960		1484.375000
4961		1484.375000
4962		1523.437500
4963		1562.500000
4964		1601.562500
4965		1601.562500
4966		1640.625000
4967		1679.687500
4968		1679.687500
4969		1718.750000
4970		1757.812500
4971		1796.875000
4972		1796.875000
4973		1835.937500
4974		1875.000000
4975		1875.000000
4976		1914.062500
4977		1953.125000
4978		1953.125000
4979		1992.187500
4980		2031.250000
4981		2031.250000
4982		2070.312500
4983		2109.375000
4984		2148.437500
4985		2187.500000
4986		2187.500000
4987		2226.562500
4988		2265.625000
4989		2304.687500
4990		2343.750000
4991		2343.750000
4992		2382.812500
4993		2421.875000
4994		2421.875000
4995		2460.937500
4996		2500.000000
4997		2539.062500
4998		2539.062500
4999		2578.125000
5000		2617.187500
5001		2656.250000
5002		2656.250000
5003		2695.312500
5004		2734.375000
5005		2773.437500
5006		2773.437500
5007		2812.500000
5008		2851.562500
5009		2890.625000
5010		2929.687500
5011		2968.750000
5012		2968.750000
5013		3007.812500
5014		3046.875000
5015		3046.875000
5016		3085.937500
5017		3085.937500
5018		3085.937500
5019		3085.937500
5020		3085.937500
5021		3085.937500
5022		3085.937500
5023		3085.937500
5024		3085.937500
5025		3085.937500
5026		3085.937500
5027		3085.937500
5028		3085.937500
5029		3085.937500
5030		3085.937500
5031		3085.937500
5032		3085.937500
5033		3085.937500
5034		3085.937500
5035		3085.937500
5036		3085.937500
5037		3085.937500
5038		3085.937500
5039		3085.937500
5040		3085.937500
5041		3085.937500
5042		3085.937500
5043		3085.937500
5044		3085.937500
5045		3085.937500
5046		3085.937500
5047		3085.937500
5048		3085.937500
5049		3085.937500
5050		3085.937500
5051		3085.937500
5052		3085.937500
5053		3085.937500
5054		3085.937500
5055		3085.937500
5056		3085.937500
5057		3085.937500
5058		3085.937500
5059		3085.937500
5060		3085.937500
5061		3085.937500
5062		3085.937500
5063		3085.937500
5064		3085.937500
5065		3085.937500
5066		3085.937500
5067		3085.937500
5068		3085.937500
5069		3085.937500
5070		3085.937500
5071		3085.937500
5072		3085.937500
5073		3085.937500
5074		3085.937500
5075		3085.937500
5076		3085.937500
5077		3085.937500
5078		3085.937500
5079		3085.937500
5080		3085.937500
5081		3085.937500
5082		3085.937500
5083		3085.937500
5084		3085.937500
5085		3085.937500
5086		3085.937500
5087		3085.937500
5088		3085.937500
5089		3085.937500
5090		3085.937500
5091		3085.937500
5092		3085.937500
5093		3085.937500
5094		3085.937500
5095		3085.937500
5096		3085.937500
5097		3085.937500
5098		3085.937500
5099		3085.937500
5100		3085.937500
5101		3085.937500
5102		3085.937500
5103		3085.937500
5104		3085.937500
5105		3085.937500
5106		3085.937500
5107		3085.937500
5108		3085.937500
5109		3085.937500
5110		3085.937500
5111		3085.937500
5112		3085.937500
5113		3085.937500
5114		3085.937500
5115		3085.937500
5116		3085.937500
5117		3085.937500
5118		3125.000000
5119		3085.937500
5120		3085.937500
5121		3085.937500
5122		3085.937500
5123		3085.937500
5124		3085.937500
5125		3085.937500
5126		3085.937500
5127		3085.937500
5128		3085.937500
5129		3085.937500
5130		3085.937500
5131		3085.937500
5132		3085.937500
5133		3085.937500
5134		3085.937500
5135		3085.937500
5136		3085.937500
5137		3085.937500
5138		3085.937500
5139		3085.937500
5140		3085.937500
5141		3085.937500
5142		3085.937500
5143		3085.937500
5144		3085.937500
5145		3085.937500
5146		3085.937500
5147		3085.937500
5148		3085.937500
5149		3085.937500
5150		3085.937500
5151		3085.937500
5152		3085.937500
5153		3085.937500
5154		3085.937500
5155		3085.937500
5156		3085.937500
5157		3085.937500
5158		3085.937500
5159		3085.937500
5160		3085.937500
5161		3085.937500
5162		3125.000000
5163		3085.937500
5164		3085.937500
5165		3085.937500
5166		3085.937500
5167		3085.937500
5168		3085.937500
5169		3085.937500
5170		3085.937500
5171		3085.937500
5172		3085.937500
5173		3085.937500
5174		3085.937500
5175		3085.937500
5176		3085.937500
5177		3085.937500
5178		3085.937500
5179		3085.937500
5180		3085.937500
5181		3085.937500
5182		3085.937500
5183		3085.937500
5184		3085.937500
5185		3085.937500
5186		3085.937500
5187		3085.937500
5188		3085.937500
5189		3085.937500
5190		3085.937500
5191		3085.937500
5192		3085.937500
5193		3085.937500
5194		3085.937500
5195		3085.937500
5196		3085.937500
5197		3085.937500
5198		3085.937500
5199		3085.937500
5200		3085.937500
5201		3085.937500
5202		3085.937500
5203		3085.937500
5204		3085.937500
5205		3085.937500
5206		3085.937500
5207		3085.937500
5208		3085.937500
5209		3085.937500
5210		3085.937500
5211		3085.937500
5212		3085.937500
5213		3085.937500
5214		3085.937500
5215		3085.937500
5216		3085.937500
5217		3085.937500
5218		3085.937500
5219		3085.937500
5220		3085.937500
5221		3085.937500
5222		3085.937500
5223		3085.937500
5224		3085.937500
5225		3085.937500
5226		3085.937500
5227		3125.000000
5228		3085.937500
5229		3085.937500
5230		3085.937500
5231		3085.937500
5232		3085.937500
5233		3085.937500
5234		3085.937500
5235		3085.937500
5236		3085.937500
5237		3085.937500
5238		3085.937500
5239		3085.937500
5240		3085.937500
5241		3085.937500
5242		3085.937500
5243		3085.937500
5244		3085.937500
5245		3085.937500
5246		3085.937500
5247		3085.937500
5248		3085.937500
5249		3085.937500
5250		3085.937500
5251		3085.937500
5252		3085.937500
5253		3085.937500
5254		3085.937500
5255		3085.937500
5256		3085.937500
5257		3085.937500
5258		3085.937500
5259		3085.937500
5260		3085.937500
5261		3085.937500
5262		3085.937500
5263		3085.937500
5264		3085.937500
5265		3085.937500
5266		3085.937500
5267		3085.937500
5268		3085.937500
5269		3085.937500
5270		3085.937500
5271		3085.937500
5272		3085.937500
5273		3085.937500
5274		3085.937500
5275		3085.937500
5276		3085.937500
5277		3085.937500
5278		3085.937500
5279		3085.937500
5280		3085.937500
5281		3085.937500
5282		3085.937500
5283		3085.937500
5284		3085.937500
5285		3085.937500
5286		3085.937500
5287		3085.937500
5288		3085.937500
5289		3085.937500
5290		3085.937500
5291		3085.937500
5292		3085.937500
5293		3085.937500
5294		3085.937500
5295		3085.937500
5296		3085.937500
5297		3085.937500
5298		3085.937500
5299		3125.000000
5300		3085.937500
5301		3085.937500
5302		3085.937500
5303		3085.937500
5304		3085.937500
5305		3085.937500
5306		3085.937500
5307		3085.937500
5308		3085.937500
5309		3085.937500
5310		3085.937500
5311		3085.937500
5312		3085.937500
5313		3085.937500
5314		3085.937500
5315		3085.937500
5316		3085.937500
5317		3085.937500
5318		3085.937500
5319		3085.937500
5320		3085.937500
5321		3085.937500
5322		3085.937500
5323		3085.937500
5324		3085.937500
5325		3085.937500
5326		3085.937500
5327		3085.937500
5328		3085.937500
5329		3085.937500
5330		3085.937500
5331		3085.937500
5332		3085.937500
5333		3085.937500
5334		3085.937500
5335		3085.937500
5336		3085.937500
5337		3085.937500
5338		3085.937500
5339		3085.937500
5340		3085.937500
5341		3085.937500
5342		3085.937500
5343		3085.937500
5344		3085.937500
5345		3085.937500
5346		3125.000000
5347		3085.937500
5348		3085.937500
5349		3085.937500
5350		3085.937500
5351		3085.937500
5352		3085.937500
5353		3085.937500
5354		3085.937500
5355		3085.937500
5356		3085.937500
5357		3085.937500
5358		3085.937500
5359		3085.937500
5360		3085.937500
5361		3085.937500
5362		3085.937500
5363		3085.937500
5364		3085.937500
5365		3085.937500
5366		3085.937500
5367		3085.937500
5368		3085.937500
5369		3085.937500
5370		3085.937500
5371		3085.937500
5372		3085.937500
5373		3085.937500
5374		3085.937500
5375		3085.937500
5376		3085.937500
5377		3085.937500
5378		3085.937500
5379		3125.000000
5380		3085.937500
5381		3085.937500
5382		3085.937500
5383		3085.937500
5384		3085.937500
5385		3085.937500
5386		3085.937500
5387		3085.937500
5388		3085.937500
5389		3085.937500
5390		3085.937500
5391		3085.937500
5392		3085.937500
5393		3085.937500
5394		3085.937500
5395		3085.937500
5396		3085.937500
5397		3085.937500
5398		3085.937500
5399		3085.937500
5400		3085.937500
5401		3085.937500
5402		3085.937500
5403		3085.937500
5404		3085.937500
5405		3085.937500
5406		3085.937500
5407		3085.937500
5408		3085.937500
5409		3085.937500
5410		3085.937500
5411		3085.937500
5412		3085.937500
5413		3085.937500
5414		3125.000000
5415		3085.937500
5416		3085.937500
5417		3085.937500
5418		3085.937500
5419		3125.000000
5420		3085.937500
5421		3085.937500
5422		3085.937500
5423		3085.937500
5424		3085.937500
5425		3085.937500
5426		3085.937500
5427		3085.937500
5428		3085.937500
5429		3085.937500
5430		3085.937500
5431		3085.937500
5432		3085.937500
5433		3085.937500
5434		3085.937500
5435		3085.937500
5436		3085.937500
5437		3085.937500
5438		3085.937500
5439		3085.937500
5440		3085.937500
5441		3085.937500
5442		3085.937500
5443		3085.937500
5444		3085.937500
5445		3085.937500
5446		3085.937500
5447		3085.937500
5448		3085.937500
5449		3085.937500
5450		3085.937500
5451		3085.937500
5452		3085.937500
5453		3085.937500
5454		3085.937500
5455		3085.937500
5456		3085.937500
5457		3085.937500
5458		3085.937500
5459		3085.937500
5460		3085.937500
5461		3085.937500
5462		3085.937500
5463		3085.937500
5464		3085.937500
5465		3085.937500
5466		3085.937500
5467		3085.937500
5468		3085.937500
5469		3085.937500
5470		3085.937500
5471		3085.937500
5472		3085.937500
5473		3085.937500
5474		3085.937500
5475		3085.937500
5476		3085.937500
5477		3085.937500
5478		3085.937500
5479		3085.937500
5480		3085.937500
5481		3085.937500
5482		3085.937500
5483		3085.937500
5484		3085.937500
5485		3085.937500
5486		3085.937500
5487		3085.937500
5488		3085.937500
5489		3085.937500
5490		3085.937500
5491		3085.937500
5492		3085.937500
5493		3085.937500
5494		3085.937500
5495		3085.937500
5496		3085.937500
5497		3085.937500
5498		3085.937500
5499		3085.937500
5500		3085.937500
5501		3085.937500
5502		3085.937500
5503		3085.937500
5504		3085.937500
5505		3085.937500
5506		3085.937500
5507		3085.937500
5508		3085.937500
5509		3085.937500
5510		3085.937500
5511		3085.937500
5512		3085.937500
5513		3085.937500
5514		3085.937500
5515		3085.937500
5516		3125.000000
5517		3085.937500
5518		3085.937500
5519		3085.937500
5520		3085.937500
5521		3085.937500
5522		3085.937500
5523		3085.937500
5524		3085.937500
5525		3085.937500
5526		3085.937500
5527		3085.937500
5528		3085.937500
5529		3085.937500
5530		3085.937500
5531		3085.937500
5532		3085.937500
5533		3085.937500
5534		3085.937500
5535		3085.937500
5536		3085.937500
5537		3085.937500
5538		3085.937500
5539		3085.937500
5540		3085.937500
5541		3085.937500
5542		3085.937500
5543		3085.937500
5544		3085.937500
5545		3085.937500
5546		3085.937500
5547		3085.937500
5548		3085.937500
5549		3085.937500
5550		3085.937500
5551		3085.937500
5552		3085.937500
5553		3085.937500
5554		3085.937500
5555		3085.937500
5556		3085.937500
5557		3085.937500
5558		3085.937500
5559		3125.000000
5560		3085.937500
5561		3085.937500
5562		3085.937500
5563		3085.937500
5564		3085.937500
5565		3085.937500
5566		3085.937500
5567		3085.937500
5568		3085.937500
5569		3085.937500
5570		3085.937500
5571		3085.937500
5572		3085.937500
5573		3085.937500
5574		3085.937500
5575		3085.937500
5576		3085.937500
5577		3085.937500
5578		3085.937500
5579		3085.937500
5580		3085.937500
5581		3085.937500
5582		3085.937500
5583		3085.937500
5584		3085.937500
5585		3085.937500
5586		3085.937500
5587		3085.937500
5588		3085.937500
5589		3085.937500
5590		3085.937500
5591		3085.937500
5592		3085.937500
5593		3085.937500
5594		3085.937500
5595		3085.937500
5596		3085.937500
5597		3085.937500
5598		3085.937500
5599		3085.937500
5600		3085.937500
5601		3085.937500
5602		3085.937500
5603		3085.937500
5604		3125.000000
5605		3085.937500
5606		3085.937500
5607		3085.937500
5608		3085.937500
5609		3085.937500
5610		3085.937500
5611		3125.000000
5612		3085.937500
5613		3085.937500
5614		3125.000000
5615		3085.937500
5616		3085.937500
5617		3085.937500
5618		3085.937500
5619		3085.937500
5620		3085.937500
5621		3085.937500
5622		3085.937500
5623		3085.937500
5624		3085.937500
5625		3125.000000
5626		3085.937500
5627		3085.937500
5628		3085.937500
5629		3085.937500
5630		3085.937500
5631		3085.937500
5632		3085.937500
5633		3085.937500
5634		3085.937500
5635		3085.937500
5636		3085.937500
5637		3085.937500
5638		3085.937500
5639		3085.937500
5640		3085.937500
5641		3085.937500
5642		3085.937500
5643		3085.937500
5644		3085.937500
5645		3085.937500
5646		3085.937500
5647		3085.937500
5648		3085.937500
5649		3085.937500
5650		3085.937500
5651		3085.937500
5652		3125.000000
5653		3085.937500
5654		3085.937500
5655		3085.937500
5656		3085.937500
5657		3085.937500
5658		3085.937500
5659		3085.937500
5660		3085.937500
5661		3085.937500
5662		3085.937500
5663		3085.937500
5664		3085.937500
5665		3085.937500
5666		3085.937500
5667		3085.937500
5668		3085.937500
5669		3085.937500
5670		3085.937500
5671		3085.937500
5672		3085.937500
5673		3085.937500
5674		3125.000000
5675		3085.937500
5676		3085.937500
5677		3085.937500
5678		3085.937500
5679		3125.000000
5680		3085.937500
5681		3085.937500
5682		3085.937500
5683		3085.937500
5684		3085.937500
5685		3085.937500
5686		3085.937500
5687		3085.937500
5688		3085.937500
5689		3085.937500
5690		3085.937500
5691		3085.937500
5692		3085.937500
5693		3085.937500
5694		3085.937500
5695		3085.937500
5696		3085.937500
5697		3125.000000
5698		3085.937500
5699		3085.937500
5700		3085.937500
5701		3085.937500
5702		3085.937500
5703		3085.937500
5704		3085.937500
5705		3085.937500
5706		3085.937500
5707		3085.937500
5708		3085.937500
5709		3085.937500
5710		3085.937500
5711		3085.937500
5712		3085.937500
5713		3085.937500
5714		3085.937500
5715		3085.937500
5716		3085.937500
5717		3085.937500
5718		3085.937500
5719		3085.937500
5720		3085.937500
5721		3085.937500
5722		3085.937500
5723		3085.937500
5724		3085.937500
5725		3085.937500
5726		3085.937500
5727		3085.937500
5728		3085.937500
5729		3046.875000
5730		3046.875000
5731		3007.812500
5732		3007.812500
5733		2968.750000
5734		2968.750000
5735		2929.687500
5736		2890.625000
5737		2890.625000
5738		2851.562500
5739		2851.562500
5740		2812.500000
5741		2773.437500
5742		2773.437500
5743		2734.375000
5744		2695.312500
5745		2695.312500
5746		2656.250000
5747		2617.187500
5748		2617.187500
5749		2578.125000
5750		2539.062500
5751		2500.000000
5752		2500.000000
5753		2460.937500
5754		2421.875000
5755		2382.812500
5756		2382.812500
5757		2343.750000
5758		2304.687500
5759		2304.687500
5760		2265.625000
5761		2226.562500
5762		2187.500000
5763		2187.500000
5764		2148.437500
5765		2148.437500
5766		2109.375000
5767		2070.312500
5768		2031.250000
5769		2031.250000
5770		1992.187500
5771		1953.125000
5772		1953.125000
5773		1914.062500
5774		1875.000000
5775		1835.937500
5776		1835.937500
5777		1796.875000
5778		1757.812500
5779		1757.812500
5780		1718.750000
5781		1679.687500
5782		1679.687500
5783		1640.625000
5784		1601.562500
5785		1562.500000
5786		1562.500000
5787		1523.437500
5788		1484.375000
5789		1484.375000
5790		1445.312500
5791		1445.312500
5792		1406.250000
5793		1367.187500
5794		1367.187500
5795		1328.125000
5796		1289.062500
5797		1289.062500
5798		1250.000000
5799		1210.937500
5800		1210.937500
5801		1171.875000
5802		1132.812500
5803		1132.812500
5804		1093.750000
5805		1093.750000
5806		1054.687500
5807		1015.625000
5808		1015.625000
5809		976.562500
5810		976.562500
5811		937.500000
5812		898.437500
5813		898.437500
5814		859.375000
5815		859.375000
5816		820.312500
5817		781.250000
5818		781.250000
5819		742.187500
5820		742.187500
5821		703.125000
5822		664.062500
5823		664.062500
5824		625.000000
5825		585.937500
5826		585.937500
5827		546.875000
5828		546.875000
5829		507.812500
5830		507.812500
5831		468.750000
5832		468.750000
5833		429.687500
5834		390.625000
5835		390.625000
5836		351.562500
5837		351.562500
5838		312.500000
5839		312.500000
5840		273.437500
5841		234.375000
5842		234.375000
5843		195.312500
5844		195.312500
5845		156.250000
5846		156.250000
5847		117.187500
5848		117.187500
5849		78.125000
5850		78.125000
5851		39.062500
5852		39.062500
5853		0.000000
5854		0.000000
5855		-39.062500
5856		-39.062500
5857		-78.125000
5858		-78.125000
5859		-117.187500
5860		-117.187500
5861		-156.250000
5862		-195.312500
5863		-195.312500
5864		-234.375000
5865		-234.375000
5866		-273.437500
5867		-273.437500
5868		-273.437500
5869		-312.500000
5870		-312.500000
5871		-351.562500
5872		-351.562500
5873		-390.625000
5874		-390.625000
5875		-390.625000
5876		-429.687500
5877		-468.750000
5878		-468.750000
5879		-507.812500
5880		-507.812500
5881		-546.875000
5882		-546.875000
5883		-585.937500
5884		-585.937500
5885		-585.937500
5886		-625.000000
5887		-625.000000
5888		-664.062500
5889		-664.062500
5890		-703.125000
5891		-703.125000
5892		-703.125000
5893		-742.187500
5894		-742.187500
5895		-781.250000
5896		-781.250000
5897		-820.312500
5898		-820.312500
5899		-859.375000
5900		-859.375000
5901		-898.437500
5902		-898.437500
5903		-898.437500
5904		-937.500000
5905		-937.500000
5906		-976.562500
5907		-976.562500
5908		-976.562500
5909		-1015.625000
5910		-1015.625000
5911		-1015.625000
5912		-1054.687500
5913		-1054.687500
5914		-1093.750000
5915		-1093.750000
5916		-1132.812500
5917		-1132.812500
5918		-1132.812500
5919		-1171.875000
5920		-1171.875000
5921		-1210.937500
5922		-1210.937500
5923		-1210.937500
5924		-1250.000000
5925		-1250.000000
5926		-1250.000000
5927		-1289.062500
5928		-1289.062500
5929		-1289.062500
5930		-1328.125000
5931		-1328.125000
5932		-1367.187500
5933		-1367.187500
5934		-1367.187500
5935		-1406.250000
5936		-1406.250000
5937		-1445.312500
5938		-1445.312500
5939		-1445.312500
5940		-1484.375000
5941		-1484.375000
5942		-1484.375000
5943		-1523.437500
5944		-1523.437500
5945		-1523.437500
5946		-1562.500000
5947		-1562.500000
5948		-1562.500000
5949		-1601.562500
5950		-1601.562500
5951		-1601.562500
5952		-1640.625000
5953		-1640.625000
5954		-1679.687500
5955		-1679.687500
5956		-1679.687500
5957		-1679.687500
5958		-1718.750000
5959		-1718.750000
5960		-1718.750000
5961		-1718.750000
5962		-1757.812500
5963		-1757.812500
5964		-1796.875000
5965		-1796.875000
5966		-1796.875000
5967		-1796.875000
5968		-1835.937500
5969		-1835.937500
5970		-1875.000000
5971		-1875.000000
5972		-1875.000000
5973		-1875.000000
5974		-1914.062500
5975		-1914.062500
5976		-1914.062500
5977		-1914.062500
5978		-1953.125000
5979		-1953.125000
5980		-1953.125000
5981		-1992.187500
5982		-1992.187500
5983		-1992.187500
5984		-1992.187500
5985		-2031.250000
5986		-2031.250000
5987		-2031.250000
5988		-2031.250000
5989		-2070.312500
5990		-2070.312500
5991		-2070.312500
5992		-2109.375000
5993		-2109.375000
5994		-2109.375000
5995		-2109.375000
5996		-2148.437500
5997		-2148.437500
5998		-2148.437500
5999		-2148.437500
6000		-2187.500000
6001		-2187.500000
6002		-2187.500000
6003		-2226.562500
6004		-2226.562500
6005		-2226.562500
6006		-2226.562500
6007		-2265.625000
6008		-2265.625000
6009		-2265.625000
6010		-2265.625000
6011		-2265.625000
6012		-2304.687500
6013		-2304.687500
6014		-2304.687500
6015		-2304.687500
6016		-2304.687500
6017		-2343.750000
6018		-2343.750000
6019		-2343.750000
6020		-2343.750000
6021		-2382.812500
6022		-2382.812500
6023		-2382.812500
6024		-2421.875000
6025		-2421.875000
6026		-2421.875000
6027		-2421.875000
6028		-2421.875000
6029		-2421.875000
6030		-2460.937500
6031		-2460.937500
6032		-2460.937500
6033		-2460.937500
6034		-2460.937500
6035		-2500.000000
6036		-2500.000000
6037		-2500.000000
6038		-2500.000000
6039		-2539.062500
6040		-2539.062500
6041		-2539.062500
6042		-2539.062500
6043		-2539.062500
6044		-2578.125000
6045		-2578.125000
6046		-2578.125000
6047		-2578.125000
6048		-2578.125000
6049		-2578.125000
6050		-2617.187500
6051		-2617.187500
6052		-2617.187500
6053		-2617.187500
6054		-2617.187500
6055		-2617.187500
6056		-2656.250000
6057		-2656.250000
6058		-2656.250000
6059		-2656.250000
6060		-2656.250000
6061		-2695.312500
6062		-2695.312500
6063		-2695.312500
6064		-2695.312500
6065		-2695.312500
6066		-2695.312500
6067		-2695.312500
6068		-2734.375000
6069		-2734.375000
6070		-2734.375000
6071		-2734.375000
6072		-2734.375000
6073		-2734.375000
6074		-2734.375000
6075		-2734.375000
6076		-2773.437500
6077		-2773.437500
6078		-2773.437500
6079		-2812.500000
6080		-2812.500000
6081		-2812.500000
6082		-2812.500000
6083		-2812.500000
6084		-2812.500000
6085		-2812.500000
6086		-2812.500000
6087		-2812.500000
6088		-2851.562500
6089		-2851.562500
6090		-2851.562500
6091		-2851.562500
6092		-2851.562500
6093		-2851.562500
6094		-2851.562500
6095		-2851.562500
6096		-2851.562500
6097		-2890.625000
6098		-2890.625000
6099		-2890.625000
6100		-2890.625000
6101		-2890.625000
6102		-2890.625000
6103		-2929.687500
6104		-2929.687500
6105		-2929.687500
6106		-2929.687500
6107		-2929.687500
6108		-2929.687500
6109		-2929.687500
6110		-2929.687500
6111		-2929.687500
6112		-2929.687500
6113		-2929.687500
6114		-2929.687500
6115		-2968.750000
6116		-2968.750000
6117		-2968.750000
6118		-2968.750000
6119		-2968.750000
6120		-2968.750000
6121		-2968.750000
6122		-2968.750000
6123		-3007.812500
6124		-3007.812500
6125		-3007.812500
6126		-3007.812500
6127		-3007.812500
6128		-3007.812500
6129		-3007.812500
6130		-3007.812500
6131		-3007.812500
6132		-3007.812500
6133		-3007.812500
6134		-3007.812500
6135		-3007.812500
6136		-3046.875000
6137		-3046.875000
6138		-3046.875000
6139		-3046.875000
6140		-3046.875000
6141		-3046.875000
6142		-3046.875000
6143		-3046.875000
6144		-3046.875000
6145		-3046.875000
6146		-3046.875000
6147		-3046.875000
6148		-3046.875000
6149		-3046.875000
6150		-3085.937500
6151		-3085.937500
6152		-3046.875000
6153		-3085.937500
6154		-3085.937500
6155		-3085.937500
6156		-3085.937500
6157		-3085.937500
6158		-3085.937500
6159		-3085.937500
6160		-3085.937500
6161		-3085.937500
6162		-3085.937500
6163		-3085.937500
6164		-3085.937500
6165		-3085.937500
6166		-3085.937500
6167		-3085.937500
6168		-3085.937500
6169		-3125.000000
6170		-3125.000000
6171		-3125.000000
6172		-3125.000000
6173		-3125.000000
6174		-3125.000000
6175		-3125.000000
6176		-3125.000000
6177		-3125.000000
6178		-3125.000000
6179		-3125.000000
6180		-3125.000000
6181		-3125.000000
6182		-3125.000000
6183		-3125.000000
6184		-3125.000000
6185		-3125.000000
6186		-3125.000000
6187		-3125.000000
6188		-3125.000000
6189		-3125.000000
6190		-3125.000000
6191		-3125.000000
6192		-3125.000000
6193		-3125.000000
6194		-3125.000000
6195		-3125.000000
6196		-3125.000000
6197		-3125.000000
6198		-3125.000000
6199		-3125.000000
6200		-3125.000000
6201		-3125.000000
6202		-3125.000000
6203		-3125.000000
6204		-3125.000000
6205		-3125.000000
6206		-3125.000000
6207		-3125.000000
6208		-3125.000000
6209		-3125.000000
6210		-3125.000000
6211		-3125.000000
6212		-3125.000000
6213		-3125.000000
6214		-3125.000000
6215		-3125.000000
6216		-3125.000000
6217		-3125.000000
6218		-3125.000000
6219		-3125.000000
6220		-3125.000000
6221		-3125.000000
6222		-3125.000000
6223		-3125.000000
6224		-3125.000000
6225		-3125.000000
6226		-3125.000000
6227		-3125.000000
6228		-3125.000000
6229		-3125.000000
6230		-3125.000000
6231		-3125.000000
6232		-3125.000000
6233		-3125.000000
6234		-3125.000000
6235		-3125.000000
6236		-3125.000000
6237		-3125.000000
6238		-3085.937500
6239		-3125.000000
6240		-3085.937500
6241		-3125.000000
6242		-3125.000000
6243		-3125.000000
6244		-3125.000000
6245		-3125.000000
6246		-3085.937500
6247		-3085.937500
6248		-3085.937500
6249		-3085.937500
6250		-3085.937500
6251		-3085.937500
6252		-3085.937500
6253		-3085.937500
6254		-3085.937500
6255		-3085.937500
6256		-3085.937500
6257		-3085.937500
6258		-3085.937500
6259		-3085.937500
6260		-3085.937500
6261		-3046.875000
6262		-3085.937500
6263		-3085.937500
6264		-3046.875000
6265		-3046.875000
6266		-3046.875000
6267		-3046.875000
6268		-3046.875000
6269		-3046.875000
6270		-3046.875000
6271		-3046.875000
6272		-3046.875000
6273		-3007.812500
6274		-3007.812500
6275		-3007.812500
6276		-3007.812500
6277		-3007.812500
6278		-3007.812500
6279		-3007.812500
6280		-3007.812500
6281		-3007.812500
6282		-3007.812500
6283		-3007.812500
6284		-3007.812500
6285		-3007.812500
6286		-3007.812500
6287		-2968.750000
6288		-2968.750000
6289		-2968.750000
6290		-2968.750000
6291		-2968.750000
6292		-2968.750000
6293		-2968.750000
6294		-2968.750000
6295		-2968.750000
6296		-2968.750000
6297		-2929.687500
6298		-2929.687500
6299		-2929.687500
6300		-2929.687500
6301		-2929.687500
6302		-2929.687500
6303		-2929.687500
6304		-2929.687500
6305		-2890.625000
6306		-2890.625000
6307		-2890.625000
6308		-2890.625000
6309		-2890.625000
6310		-2890.625000
6311		-2890.625000
6312		-2890.625000
6313		-2851.562500
6314		-2851.562500
6315		-2851.562500
6316		-2851.562500
6317		-2851.562500
6318		-2851.562500
6319		-2851.562500
6320		-2851.562500
6321		-2812.500000
6322		-2812.500000
6323		-2812.500000
6324		-2812.500000
6325		-2812.500000
6326		-2812.500000
6327		-2773.437500
6328		-2773.437500
6329		-2773.437500
6330		-2773.437500
6331		-2773.437500
6332		-2773.437500
6333		-2773.437500
6334		-2773.437500
6335		-2734.375000
6336		-2734.375000
6337		-2734.375000
6338		-2734.375000
6339		-2734.375000
6340		-2734.375000
6341		-2734.375000
6342		-2695.312500
6343		-2695.312500
6344		-2695.312500
6345		-2695.312500
6346		-2695.312500
6347		-2695.312500
6348		-2656.250000
6349		-2656.250000
6350		-2656.250000
6351		-2656.250000
6352		-2656.250000
6353		-2617.187500
6354		-2617.187500
6355		-2617.187500
6356		-2617.187500
6357		-2617.187500
6358		-2578.125000
6359		-2578.125000
6360		-2578.125000
6361		-2578.125000
6362		-2578.125000
6363		-2578.125000
6364		-2539.062500
6365		-2539.062500
6366		-2539.062500
6367		-2539.062500
6368		-2539.062500
6369		-2500.000000
6370		-2500.000000
6371		-2500.000000
6372		-2500.000000
6373		-2500.000000
6374		-2460.937500
6375		-2460.937500
6376		-2460.937500
6377		-2460.937500
6378		-2460.937500
6379		-2421.875000
6380		-2421.875000
6381		-2421.875000
6382		-2421.875000
6383		-2421.875000
6384		-2382.812500
6385		-2382.812500
6386		-2382.812500
6387		-2382.812500
6388		-2343.750000
6389		-2343.750000
6390		-2343.750000
6391		-2343.750000
6392		-2304.687500
6393		-2304.687500
6394		-2304.687500
6395		-2304.687500
6396		-2265.625000
6397		-2265.625000
6398		-2265.625000
6399		-2304.687500
6400		-2265.625000
6401		-2226.562500
6402		-2226.562500
6403		-2226.562500
6404		-2226.562500
6405		-2187.500000
6406		-2187.500000
6407		-2187.500000
6408		-2187.500000
6409		-2148.437500
6410		-2148.437500
6411		-2148.437500
6412		-2148.437500
6413		-2109.375000
6414		-2109.375000
6415		-2109.375000
6416		-2070.312500
6417		-2070.312500
6418		-2070.312500
6419		-2031.250000
6420		-2031.250000
6421		-2031.250000
6422		-2031.250000
6423		-2031.250000
6424		-1992.187500
6425		-1992.187500
6426		-1992.187500
6427		-1953.125000
6428		-1953.125000
6429		-1953.125000
6430		-1914.062500
6431		-1914.062500
6432		-1914.062500
6433		-1875.000000
6434		-1875.000000
6435		-1875.000000
6436		-1835.937500
6437		-1835.937500
6438		-1835.937500
6439		-1835.937500
6440		-1835.937500
6441		-1796.875000
6442		-1796.875000
6443		-1757.812500
6444		-1757.812500
6445		-1757.812500
6446		-1718.750000
6447		-1718.750000
6448		-1718.750000
6449		-1679.687500
6450		-1679.687500
6451		-1640.625000
6452		-1640.625000
6453		-1640.625000
6454		-1640.625000
6455		-1601.562500
6456		-1601.562500
6457		-1601.562500
6458		-1562.500000
6459		-1562.500000
6460		-1562.500000
6461		-1562.500000
6462		-1523.437500
6463		-1523.437500
6464		-1484.375000
6465		-1484.375000
6466		-1484.375000
6467		-1445.312500
6468		-1445.312500
6469		-1406.250000
6470		-1406.250000
6471		-1406.250000
6472		-1367.187500
6473		-1367.187500
6474		-1328.125000
6475		-1328.125000
6476		-1328.125000
6477		-1328.125000
6478		-1289.062500
6479		-1289.062500
6480		-1250.000000
6481		-1250.000000
6482		-1250.000000
6483		-1210.937500
6484		-1210.937500
6485		-1171.875000
6486		-1171.875000
6487		-1132.812500
6488		-1132.812500
6489		-1132.812500
6490		-1093.750000
6491		-1093.750000
6492		-1054.687500
6493		-1054.687500
6494		-1015.625000
6495		-1015.625000
6496		-1015.625000
6497		-976.562500
6498		-976.562500
6499		-976.562500
6500		-937.500000
6501		-937.500000
6502		-898.437500
6503		-898.437500
6504		-859.375000
6505		-859.375000
6506		-820.312500
6507		-820.312500
6508		-781.250000
6509		-781.250000
6510		-781.250000
6511		-742.187500
6512		-742.187500
6513		-703.125000
6514		-703.125000
6515		-664.062500
6516		-664.062500
6517		-625.000000
6518		-625.000000
6519		-625.000000
6520		-585.937500
6521		-585.937500
6522		-546.875000
6523		-546.875000
6524		-507.812500
6525		-507.812500
6526		-468.750000
6527		-468.750000
6528		-429.687500
6529		-429.687500
6530		-390.625000
6531		-390.625000
6532		-351.562500
6533		-351.562500
6534		-312.500000
6535		-312.500000
6536		-273.437500
6537		-273.437500
6538		-234.375000
6539		-195.312500
6540		-195.312500
6541		-195.312500
6542		-156.250000
6543		-156.250000
6544		-117.187500
6545		-78.125000
6546		-78.125000
6547		-39.062500
6548		-39.062500
6549		0.000000
6550		0.000000
6551		39.062500
6552		39.062500
6553		78.125000
6554		78.125000
6555		117.187500
6556		156.250000
6557		156.250000
6558		195.312500
6559		195.312500
6560		234.375000
6561		234.375000
6562		273.437500
6563		273.437500
6564		312.500000
6565		351.562500
6566		351.562500
6567		390.625000
6568		390.625000
6569		429.687500
6570		468.750000
6571		468.750000
6572		507.812500
6573		507.812500
6574		546.875000
6575		585.937500
6576		585.937500
6577		625.000000
6578		625.000000
6579		664.062500
6580		703.125000
6581		703.125000
6582		742.187500
6583		742.187500
6584		781.250000
6585		820.312500
6586		820.312500
6587		859.375000
6588		859.375000
6589		898.437500
6590		937.500000
6591		976.562500
6592		976.562500
6593		1015.625000
6594		1054.687500
6595		1054.687500
6596		1093.750000
6597		1093.750000
6598		1132.812500
6599		1132.812500
6600		1171.875000
6601		1210.937500
6602		1210.937500
6603		1250.000000
6604		1289.062500
6605		1289.062500
6606		1328.125000
6607		1367.187500
6608		1406.250000
6609		1406.250000
6610		1445.312500
6611		1484.375000
6612		1484.375000
6613		1523.437500
6614		1562.500000
6615		1601.562500
6616		1601.562500
6617		1640.625000
6618		1640.625000
6619		1679.687500
6620		1718.750000
6621		1718.750000
6622		1757.812500
6623		1796.875000
6624		1796.875000
6625		1835.937500
6626		1875.000000
6627		1914.062500
6628		1914.062500
6629		1953.125000
6630		1992.187500
6631		2031.250000
6632		2070.312500
6633		2070.312500
6634		2109.375000
6635		2148.437500
6636		2148.437500
6637		2187.500000
6638		2226.562500
6639		2226.562500
6640		2265.625000
6641		2304.687500
6642		2343.750000
6643		2343.750000
6644		2382.812500
6645		2421.875000
6646		2421.875000
6647		2460.937500
6648		2500.000000
6649		2539.062500
6650		2578.125000
6651		2617.187500
6652		2617.187500
6653		2656.250000
6654		2695.312500
6655		2695.312500
6656		2734.375000
6657		2773.437500
6658		2812.500000
6659		2851.562500
6660		2851.562500
6661		2890.625000
6662		2929.687500
6663		2968.750000
6664		2968.750000
6665		3007.812500
6666		3046.875000
6667		3085.937500
6668		3085.937500
6669		3085.937500
6670		3085.937500
6671		3085.937500
6672		3085.937500
6673		3085.937500
6674		3085.937500
6675		3085.937500
6676		3085.937500
6677		3085.937500
6678		3085.937500
6679		3085.937500
6680		3085.937500
6681		3085.937500
6682		3085.937500
6683		3085.937500
6684		3085.937500
6685		3085.937500
6686		3085.937500
6687		3085.937500
6688		3085.937500
6689		3085.937500
6690		3085.937500
6691		3085.937500
6692		3085.937500
6693		3085.937500
6694		3085.937500
6695		3085.937500
6696		3085.937500
6697		3085.937500
6698		3085.937500
6699		3085.937500
6700		3085.937500
6701		3085.937500
6702		3085.937500
6703		3085.937500
6704		3085.937500
6705		3085.937500
6706		3085.937500
6707		3085.937500
6708		3085.937500
6709		3085.937500
6710		3085.937500
6711		3085.937500
6712		3085.937500
6713		3085.937500
6714		3085.937500
6715		3085.937500
6716		3085.937500
6717		3085.937500
6718		3085.937500
6719		3085.937500
6720		3085.937500
6721		3085.937500
6722		3085.937500
6723		3125.000000
6724		3085.937500
6725		3085.937500
6726		3085.937500
6727		3085.937500
6728		3085.937500
6729		3085.937500
6730		3085.937500
6731		3085.937500
6732		3085.937500
6733		3085.937500
6734		3085.937500
6735		3085.937500
6736		3085.937500
6737		3085.937500
6738		3085.937500
6739		3085.937500
6740		3085.937500
6741		3085.937500
6742		3085.937500
6743		3085.937500
6744		3085.937500
6745		3085.937500
6746		3085.937500
6747		3085.937500
6748		3085.937500
6749		3085.937500
6750		3085.937500
6751		3085.937500
6752		3085.937500
6753		3085.937500
6754		3085.937500
6755		3085.937500
6756		3085.937500
6757		3085.937500
6758		3085.937500
6759		3085.937500
6760		3085.937500
6761		3085.937500
6762		3085.937500
6763		3085.937500
6764		3085.937500
6765		3085.937500
6766		3085.937500
6767		3085.937500
6768		3085.937500
6769		3085.937500
6770		3085.937500
6771		3085.937500
6772		3085.937500
6773		3085.937500
6774		3085.937500
6775		3085.937500
6776		3085.937500
6777		3085.937500
6778		3085.937500
6779		3085.937500
6780		3085.937500
6781		3085.937500
6782		3085.937500
6783		3085.937500
6784		3085.937500
6785		3085.937500
6786		3085.937500
6787		3085.937500
6788		3085.937500
6789		3085.937500
6790		3085.937500
6791		3085.937500
6792		3085.937500
6793		3085.937500
6794		3085.937500
6795		3085.937500
6796		3085.937500
6797		3085.937500
6798		3085.937500
6799		3085.937500
6800		3085.937500
6801		3085.937500
6802		3125.000000
6803		3085.937500
6804		3085.937500
6805		3085.937500
6806		3085.937500
6807		3085.937500
6808		3085.937500
6809		3085.937500
6810		3085.937500
6811		3085.937500
6812		3085.937500
6813		3085.937500
6814		3085.937500
6815		3085.937500
6816		3085.937500
6817		3085.937500
6818		3085.937500
6819		3085.937500
6820		3085.937500
6821		3085.937500
6822		3085.937500
6823		3085.937500
6824		3085.937500
6825		3085.937500
6826		3085.937500
6827		3085.937500
6828		3085.937500
6829		3085.937500
6830		3085.937500
6831		3085.937500
6832		3085.937500
6833		3085.937500
6834		3085.937500
6835		3085.937500
6836		3085.937500
6837		3085.937500
6838		3085.937500
6839		3085.937500
6840		3085.937500
6841		3085.937500
6842		3085.937500
6843		3085.937500
6844		3085.937500
6845		3085.937500
6846		3085.937500
6847		3085.937500
6848		3085.937500
6849		3085.937500
6850		3085.937500
6851		3085.937500
6852		3125.000000
6853		3085.937500
6854		3085.937500
6855		3085.937500
6856		3085.937500
6857		3085.937500
6858		3085.937500
6859		3085.937500
6860		3085.937500
6861		3085.937500
6862		3085.937500
6863		3085.937500
6864		3085.937500
6865		3085.937500
6866		3085.937500
6867		3085.937500
6868		3085.937500
6869		3085.937500
6870		3085.937500
6871		3085.937500
6872		3085.937500
6873		3085.937500
6874		3085.937500
6875		3085.937500
6876		3085.937500
6877		3085.937500
6878		3085.937500
6879		3085.937500
6880		3085.937500
6881		3085.937500
6882		3085.937500
6883		3085.937500
6884		3085.937500
6885		3085.937500
6886		3085.937500
6887		3085.937500
6888		3085.937500
6889		3085.937500
6890		3085.937500
6891		3085.937500
6892		3085.937500
6893		3085.937500
6894		3085.937500
6895		3085.937500
6896		3085.937500
6897		3085.937500
6898		3085.937500
6899		3085.937500
6900		3085.937500
6901		3085.937500
6902		3085.937500
6903		3085.937500
6904		3085.937500
6905		3085.937500
6906		3085.937500
6907		3085.937500
6908		3085.937500
6909		3085.937500
6910		3085.937500
6911		3085.937500
6912		3085.937500
6913		3085.937500
6914		3085.937500
6915		3085.937500
6916		3085.937500
6917		3085.937500
6918		3085.937500
6919		3085.937500
6920		3085.937500
6921		3085.937500
6922		3085.937500
6923		3085.937500
6924		3085.937500
6925		3085.937500
6926		3085.937500
6927		3085.937500
6928		3085.937500
6929		3085.937500
6930		3085.937500
6931		3085.937500
6932		3085.937500
6933		3085.937500
6934		3085.937500
6935		3085.937500
6936		3085.937500
6937		3085.937500
6938		3085.937500
6939		3085.937500
6940		3085.937500
6941		3085.937500
6942		3085.937500
6943		3085.937500
6944		3085.937500
6945		3085.937500
6946		3085.937500
6947		3085.937500
6948		3085.937500
6949		3085.937500
6950		3085.937500
6951		3085.937500
6952		3085.937500
6953		3085.937500
6954		3085.937500
6955		3085.937500
6956		3085.937500
6957		3085.937500
6958		3085.937500
6959		3085.937500
6960		3085.937500
6961		3085.937500
6962		3085.937500
6963		3085.937500
6964		3085.937500
6965		3085.937500
6966		3085.937500
6967		3085.937500
6968		3085.937500
6969		3085.937500
6970		3085.937500
6971		3125.000000
6972		3125.000000
6973		3085.937500
6974		3085.937500
6975		3085.937500
6976		3085.937500
6977		3085.937500
6978		3085.937500
6979		3085.937500
6980		3085.937500
6981		3085.937500
6982		3085.937500
6983		3085.937500
6984		3085.937500
6985		3085.937500
6986		3085.937500
6987		3085.937500
6988		3125.000000
6989		3085.937500
6990		3085.937500
6991		3085.937500
6992		3085.937500
6993		3085.937500
6994		3085.937500
6995		3085.937500
6996		3085.937500
6997		3085.937500
6998		3085.937500
6999		3085.937500
7000		3085.937500
7001		3085.937500
7002		3085.937500
7003		3085.937500
7004		3085.937500
7005		3085.937500
7006		3085.937500
7007		3085.937500
7008		3085.937500
7009		3085.937500
7010		3085.937500
7011		3085.937500
7012		3085.937500
7013		3085.937500
7014		3085.937500
7015		3085.937500
7016		3125.000000
7017		3085.937500
7018		3085.937500
7019		3085.937500
7020		3085.937500
7021		3085.937500
7022		3085.937500
7023		3085.937500
7024		3085.937500
7025		3085.937500
7026		3085.937500
7027		3085.937500
7028		3085.937500
7029		3085.937500
7030		3085.937500
7031		3085.937500
7032		3085.937500
7033		3085.937500
7034		3085.937500
7035		3085.937500
7036		3085.937500
7037		3085.937500
7038		3085.937500
7039		3085.937500
7040		3085.937500
7041		3085.937500
7042		3085.937500
7043		3085.937500
7044		3085.937500
7045		3085.937500
7046		3085.937500
7047		3085.937500
7048		3085.937500
7049		3085.937500
7050		3085.937500
7051		3085.937500
7052		3085.937500
7053		3085.937500
7054		3085.937500
7055		3085.937500
7056		3085.937500
7057		3085.937500
7058		3085.937500
7059		3085.937500
7060		3085.937500
7061		3085.937500
7062		3085.937500
7063		3085.937500
7064		3085.937500
7065		3085.937500
7066		3085.937500
7067		3085.937500
7068		3085.937500
7069		3085.937500
7070		3125.000000
7071		3085.937500
7072		3085.937500
7073		3085.937500
7074		3085.937500
7075		3085.937500
7076		3085.937500
7077		3085.937500
7078		3085.937500
7079		3085.937500
7080		3085.937500
7081		3085.937500
7082		3085.937500
7083		3085.937500
7084		3085.937500
7085		3085.937500
7086		3085.937500
7087		3085.937500
7088		3085.937500
7089		3085.937500
7090		3085.937500
7091		3085.937500
7092		3085.937500
7093		3085.937500
7094		3085.937500
7095		3085.937500
7096		3085.937500
7097		3085.937500
7098		3085.937500
7099		3085.937500
7100		3085.937500
7101		3085.937500
7102		3085.937500
7103		3085.937500
7104		3085.937500
7105		3085.937500
7106		3085.937500
7107		3085.937500
7108		3085.937500
7109		3085.937500
7110		3085.937500
7111		3085.937500
7112		3085.937500
7113		3085.937500
7114		3085.937500
7115		3085.937500
7116		3085.937500
7117		3085.937500
7118		3085.937500
7119		3085.937500
7120		3085.937500
7121		3085.937500
7122		3085.937500
7123		3085.937500
7124		3085.937500
7125		3085.937500
7126		3085.937500
7127		3085.937500
7128		3085.937500
7129		3085.937500
7130		3085.937500
7131		3085.937500
7132		3085.937500
7133		3085.937500
7134		3085.937500
7135		3125.000000
7136		3085.937500
7137		3085.937500
7138		3085.937500
7139		3085.937500
7140		3085.937500
7141		3085.937500
7142		3085.937500
7143		3085.937500
7144		3085.937500
7145		3085.937500
7146		3085.937500
7147		3085.937500
7148		3085.937500
7149		3085.937500
7150		3085.937500
7151		3085.937500
7152		3085.937500
7153		3125.000000
7154		3085.937500
7155		3085.937500
7156		3085.937500
7157		3085.937500
7158		3085.937500
7159		3085.937500
7160		3085.937500
7161		3085.937500
7162		3085.937500
7163		3085.937500
7164		3085.937500
7165		3085.937500
7166		3085.937500
7167		3085.937500
7168		3085.937500
7169		3085.937500
7170		3085.937500
7171		3085.937500
7172		3085.937500
7173		3085.937500
7174		3085.937500
7175		3085.937500
7176		3085.937500
7177		3085.937500
7178		3085.937500
7179		3085.937500
7180		3085.937500
7181		3085.937500
7182		3085.937500
7183		3085.937500
7184		3085.937500
7185		3085.937500
7186		3085.937500
7187		3085.937500
7188		3085.937500
7189		3085.937500
7190		3085.937500
7191		3085.937500
7192		3085.937500
7193		3085.937500
7194		3085.937500
7195		3085.937500
7196		3085.937500
7197		3085.937500
7198		3085.937500
7199		3085.937500
7200		3085.937500
7201		3085.937500
7202		3085.937500
7203		3085.937500
7204		3085.937500
7205		3085.937500
7206		3125.000000
7207		3085.937500
7208		3085.937500
7209		3125.000000
7210		3085.937500
7211		3085.937500
7212		3085.937500
7213		3085.937500
7214		3085.937500
7215		3085.937500
7216		3085.937500
7217		3085.937500
7218		3085.937500
7219		3085.937500
7220		3085.937500
7221		3085.937500
7222		3085.937500
7223		3085.937500
7224		3085.937500
7225		3085.937500
7226		3085.937500
7227		3085.937500
7228		3085.937500
7229		3085.937500
7230		3085.937500
7231		3085.937500
7232		3085.937500
7233		3085.937500
7234		3085.937500
7235		3085.937500
7236		3085.937500
7237		3085.937500
7238		3085.937500
7239		3085.937500
7240		3085.937500
7241		3085.937500
7242		3085.937500
7243		3085.937500
7244		3085.937500
7245		3085.937500
7246		3085.937500
7247		3085.937500
7248		3085.937500
7249		3085.937500
7250		3085.937500
7251		3085.937500
7252		3085.937500
7253		3085.937500
7254		3085.937500
7255		3085.937500
7256		3085.937500
7257		3085.937500
7258		3085.937500
7259		3085.937500
7260		3125.000000
7261		3085.937500
7262		3085.937500
7263		3085.937500
7264		3085.937500
7265		3085.937500
7266		3085.937500
7267		3085.937500
7268		3085.937500
7269		3085.937500
7270		3085.937500
7271		3085.937500
7272		3085.937500
7273		3085.937500
7274		3085.937500
7275		3085.937500
7276		3085.937500
7277		3085.937500
7278		3085.937500
7279		3085.937500
7280		3085.937500
7281		3085.937500
7282		3085.937500
7283		3085.937500
7284		3085.937500
7285		3085.937500
7286		3085.937500
7287		3125.000000
7288		3085.937500
7289		3085.937500
7290		3085.937500
7291		3085.937500
7292		3085.937500
7293		3085.937500
7294		3085.937500
7295		3085.937500
7296		3085.937500
7297		3085.937500
7298		3085.937500
7299		3085.937500
7300		3085.937500
7301		3085.937500
7302		3085.937500
7303		3085.937500
7304		3085.937500
7305		3125.000000
7306		3085.937500
7307		3085.937500
7308		3085.937500
7309		3085.937500
7310		3085.937500
7311		3085.937500
7312		3085.937500
7313		3085.937500
7314		3085.937500
7315		3085.937500
7316		3125.000000
7317		3085.937500
7318		3085.937500
7319		3085.937500
7320		3085.937500
7321		3085.937500
7322		3085.937500
7323		3085.937500
7324		3085.937500
7325		3125.000000
7326		3085.937500
7327		3085.937500
7328		3085.937500
7329		3085.937500
7330		3085.937500
7331		3085.937500
7332		3085.937500
7333		3085.937500
7334		3085.937500
7335		3085.937500
7336		3085.937500
7337		3085.937500
7338		3085.937500
7339		3085.937500
7340		3085.937500
7341		3085.937500
7342		3125.000000
7343		3085.937500
7344		3085.937500
7345		3085.937500
7346		3085.937500
7347		3085.937500
7348		3085.937500
7349		3085.937500
7350		3085.937500
7351		3085.937500
7352		3085.937500
7353		3085.937500
7354		3085.937500
7355		3085.937500
7356		3085.937500
7357		3085.937500
7358		3085.937500
7359		3085.937500
7360		3085.937500
7361		3085.937500
7362		3085.937500
7363		3085.937500
7364		3085.937500
7365		3085.937500
7366		3085.937500
7367		3085.937500
7368		3085.937500
7369		3085.937500
7370		3085.937500
7371		3085.937500
7372		3085.937500
7373		3046.875000
7374		3046.875000
7375		3007.812500
7376		3007.812500
7377		2968.750000
7378		2968.750000
7379		2929.687500
7380		2890.625000
7381		2890.625000
7382		2851.562500
7383		2812.500000
7384		2812.500000
7385		2773.437500
7386		2734.375000
7387		2695.312500
7388		2695.312500
7389		2695.312500
7390		2656.250000
7391		2617.187500
7392		2578.125000
7393		2578.125000
7394		2539.062500
7395		2500.000000
7396		2460.937500
7397		2460.937500
7398		2421.875000
7399		2382.812500
7400		2343.750000
7401		2343.750000
7402		2304.687500
7403		2265.625000
7404		2226.562500
7405		2226.562500
7406		2187.500000
7407		2148.437500
7408		2148.437500
7409		2109.375000
7410		2070.312500
7411		2070.312500
7412		2031.250000
7413		1992.187500
7414		1992.187500
7415		1953.125000
7416		1914.062500
7417		1875.000000
7418		1875.000000
7419		1835.937500
7420		1796.875000
7421		1757.812500
7422		1757.812500
7423		1718.750000
7424		1679.687500
7425		1679.687500
7426		1640.625000
7427		1640.625000
7428		1601.562500
7429		1562.500000
7430		1562.500000
7431		1523.437500
7432		1484.375000
7433		1484.375000
7434		1445.312500
7435		1406.250000
7436		1367.187500
7437		1367.187500
7438		1328.125000
7439		1289.062500
7440		1289.062500
7441		1250.000000
7442		1250.000000
7443		1210.937500
7444		1171.875000
7445		1171.875000
7446		1132.812500
7447		1132.812500
7448		1093.750000
7449		1054.687500
7450		1054.687500
7451		1015.625000
7452		976.562500
7453		976.562500
7454		937.500000
7455		898.437500
7456		898.437500
7457		859.375000
7458		820.312500
7459		820.312500
7460		781.250000
7461		781.250000
7462		742.187500
7463		742.187500
7464		703.125000
7465		703.125000
7466		664.062500
7467		625.000000
7468		625.000000
7469		585.937500
7470		585.937500
7471		546.875000
7472		507.812500
7473		507.812500
7474		468.750000
7475		429.687500
7476		429.687500
7477		390.625000
7478		390.625000
7479		351.562500
7480		351.562500
7481		312.500000
7482		273.437500
7483		273.437500
7484		234.375000
7485		234.375000
7486		195.312500
7487		195.312500
7488		156.250000
7489		156.250000
7490		117.187500
7491		117.187500
7492		78.125000
7493		78.125000
7494		39.062500
7495		0.000000
7496		0.000000
7497		-39.062500
7498		-39.062500
7499		-78.125000
7500		-78.125000
7501		-117.187500
7502		-117.187500
7503		-156.250000
7504		-156.250000
7505		-195.312500
7506		-195.312500
7507		-234.375000
7508		-234.375000
7509		-273.437500
7510		-273.437500
7511		-312.500000
7512		-312.500000
7513		-351.562500
7514		-351.562500
7515		-390.625000
7516		-390.625000
7517		-429.687500
7518		-429.687500
7519		-429.687500
7520		-468.750000
7521		-507.812500
7522		-507.812500
7523		-546.875000
7524		-546.875000
7525		-585.937500
7526		-585.937500
7527		-585.937500
7528		-625.000000
7529		-625.000000
7530		-664.062500
7531		-664.062500
7532		-703.125000
7533		-703.125000
7534		-703.125000
7535		-742.187500
7536		-742.187500
7537		-781.250000
7538		-781.250000
7539		-820.312500
7540		-820.312500
7541		-859.375000
7542		-859.375000
7543		-898.437500
7544		-898.437500
7545		-898.437500
7546		-937.500000
7547		-937.500000
7548		-976.562500
7549		-976.562500
7550		-976.562500
7551		-1015.625000
7552		-1015.625000
7553		-1054.687500
7554		-1054.687500
7555		-1093.750000
7556		-1093.750000
7557		-1093.750000
7558		-1132.812500
7559		-1132.812500
7560		-1171.875000
7561		-1171.875000
7562		-1210.937500
7563		-1210.937500
7564		-1250.000000
7565		-1250.000000
7566		-1250.000000
7567		-1250.000000
7568		-1289.062500
7569		-1289.062500
7570		-1328.125000
7571		-1328.125000
7572		-1328.125000
7573		-1367.187500
7574		-1367.187500
7575		-1367.187500
7576		-1406.250000
7577		-1406.250000
7578		-1445.312500
7579		-1445.312500
7580		-1484.375000
7581		-1484.375000
7582		-1484.375000
7583		-1523.437500
7584		-1523.437500
7585		-1523.437500
7586		-1562.500000
7587		-1562.500000
7588		-1562.500000
7589		-1601.562500
7590		-1601.562500
7591		-1601.562500
7592		-1601.562500
7593		-1640.625000
7594		-1640.625000
7595		-1679.687500
7596		-1679.687500
7597		-1679.687500
7598		-1718.750000
7599		-1718.750000
7600		-1757.812500
7601		-1757.812500
7602		-1757.812500
7603		-1757.812500
7604		-1796.875000
7605		-1796.875000
7606		-1796.875000
7607		-1835.937500
7608		-1835.937500
7609		-1835.937500
7610		-1835.937500
7611		-1875.000000
7612		-1875.000000
7613		-1875.000000
7614		-1914.062500
7615		-1914.062500
7616		-1914.062500
7617		-1953.125000
7618		-1953.125000
7619		-1953.125000
7620		-1992.187500
7621		-1992.187500
7622		-1992.187500
7623		-1992.187500
7624		-2031.250000
7625		-2031.250000
7626		-2031.250000
7627		-2031.250000
7628		-2070.312500
7629		-2070.312500
7630		-2070.312500
7631		-2070.312500
7632		-2109.375000
7633		-2109.375000
7634		-2109.375000
7635		-2148.437500
7636		-2148.437500
7637		-2148.437500
7638		-2187.500000
7639		-2187.500000
7640		-2187.500000
7641		-2187.500000
7642		-2226.562500
7643		-2226.562500
7644		-2226.562500
7645		-2226.562500
7646		-2226.562500
7647		-2265.625000
7648		-2265.625000
7649		-2265.625000
7650		-2265.625000
7651		-2304.687500
7652		-2304.687500
7653		-2304.687500
7654		-2343.750000
7655		-2343.750000
7656		-2343.750000
7657		-2343.750000
7658		-2382.812500
7659		-2382.812500
7660		-2382.812500
7661		-2382.812500
7662		-2421.875000
7663		-2421.875000
7664		-2421.875000
7665		-2421.875000
7666		-2421.875000
7667		-2460.937500
7668		-2460.937500
7669		-2460.937500
7670		-2460.937500
7671		-2500.000000
7672		-2500.000000
7673		-2500.000000
7674		-2500.000000
7675		-2539.062500
7676		-2539.062500
7677		-2539.062500
7678		-2539.062500
7679		-2539.062500
7680		-2539.062500
7681		-2578.125000
7682		-2578.125000
7683		-2578.125000
7684		-2578.125000
7685		-2578.125000
7686		-2617.187500
7687		-2617.187500
7688		-2617.187500
7689		-2617.187500
7690		-2617.187500
7691		-2656.250000
7692		-2656.250000
7693		-2656.250000
7694		-2656.250000
7695		-2656.250000
7696		-2656.250000
7697		-2695.312500
7698		-2695.312500
7699		-2695.312500
7700		-2695.312500
7701		-2695.312500
7702		-2734.375000
7703		-2734.375000
7704		-2734.375000
7705		-2734.375000
7706		-2734.375000
7707		-2773.437500
7708		-2734.375000
7709		-2773.437500
7710		-2773.437500
7711		-2773.437500
7712		-2773.437500
7713		-2773.437500
7714		-2773.437500
7715		-2812.500000
7716		-2812.500000
7717		-2812.500000
7718		-2812.500000
7719		-2812.500000
7720		-2812.500000
7721		-2812.500000
7722		-2851.562500
7723		-2851.562500
7724		-2851.562500
7725		-2851.562500
7726		-2851.562500
7727		-2851.562500
7728		-2890.625000
7729		-2890.625000
7730		-2890.625000
7731		-2890.625000
7732		-2890.625000
7733		-2890.625000
7734		-2890.625000
7735		-2890.625000
7736		-2890.625000
7737		-2929.687500
7738		-2929.687500
7739		-2929.687500
7740		-2929.687500
7741		-2929.687500
7742		-2929.687500
7743		-2968.750000
7744		-2968.750000
7745		-2968.750000
7746		-2968.750000
7747		-2968.750000
7748		-2968.750000
7749		-2968.750000
7750		-2968.750000
7751		-2968.750000
7752		-2968.750000
7753		-2968.750000
7754		-3007.812500
7755		-3007.812500
7756		-3007.812500
7757		-3007.812500
7758		-3007.812500
7759		-3007.812500
7760		-3046.875000
7761		-3046.875000
7762		-3046.875000
7763		-3046.875000
7764		-3046.875000
7765		-3046.875000
7766		-3046.875000
7767		-3046.875000
7768		-3046.875000
7769		-3046.875000
7770		-3046.875000
7771		-3085.937500
7772		-3046.875000
7773		-3085.937500
7774		-3085.937500
7775		-3085.937500
7776		-3085.937500
7777		-3085.937500
7778		-3085.937500
7779		-3085.937500
7780		-3085.937500
7781		-3085.937500
7782		-3125.000000
7783		-3125.000000
7784		-3125.000000
7785		-3125.000000
7786		-3125.000000
7787		-3125.000000
7788		-3125.000000
7789		-3125.000000
7790		-3125.000000
7791		-3125.000000
7792		-3125.000000
7793		-3125.000000
7794		-3125.000000
7795		-3125.000000
7796		-3164.062500
7797		-3125.000000
7798		-3164.062500
7799		-3164.062500
7800		-3164.062500
7801		-3164.062500
7802		-3164.062500
7803		-3164.062500
7804		-3164.062500
7805		-3164.062500
7806		-3164.062500
7807		-3164.062500
7808		-3164.062500
7809		-3164.062500
7810		-3164.062500
7811		-3164.062500
7812		-3164.062500
7813		-3164.062500
7814		-3164.062500
7815		-3164.062500
7816		-3164.062500
7817		-3203.125000
7818		-3203.125000
7819		-3203.125000
7820		-3203.125000
7821		-3203.125000
7822		-3203.125000
7823		-3203.125000
7824		-3203.125000
7825		-3203.125000
7826		-3203.125000
7827		-3203.125000
7828		-3203.125000
7829		-3203.125000
7830		-3203.125000
7831		-3203.125000
7832		-3203.125000
7833		-3203.125000
7834		-3203.125000
7835		-3203.125000
7836		-3203.125000
7837		-3203.125000
7838		-3203.125000
7839		-3203.125000
7840		-3203.125000
7841		-3203.125000
7842		-3203.125000
7843		-3203.125000
7844		-3203.125000
7845		-3203.125000
7846		-3203.125000
7847		-3203.125000
7848		-3203.125000
7849		-3203.125000
7850		-3203.125000
7851		-3203.125000
7852		-3203.125000
7853		-3203.125000
7854		-3203.125000
7855		-3203.125000
7856		-3203.125000
7857		-3203.125000
7858		-3203.125000
7859		-3203.125000
7860		-3203.125000
7861		-3203.125000
7862		-3203.125000
7863		-3203.125000
7864		-3203.125000
7865		-3203.125000
7866		-3203.125000
7867		-3203.125000
7868		-3203.125000
7869		-3203.125000
7870		-3203.125000
7871		-3203.125000
7872		-3203.125000
7873		-3203.125000
7874		-3203.125000
7875		-3203.125000
7876		-3203.125000
7877		-3203.125000
7878		-3203.125000
7879		-3203.125000
7880		-3203.125000
7881		-3203.125000
7882		-3203.125000
7883		-3203.125000
7884		-3203.125000
7885		-3203.125000
7886		-3203.125000
7887		-3203.125000
7888		-3203.125000
7889		-3203.125000
7890		-3164.062500
7891		-3164.062500
7892		-3164.062500
7893		-3164.062500
7894		-3164.062500
7895		-3164.062500
7896		-3164.062500
7897		-3164.062500
7898		-3164.062500
7899		-3164.062500
7900		-3164.062500
7901		-3164.062500
7902		-3164.062500
7903		-3164.062500
7904		-3164.062500
7905		-3164.062500
7906		-3164.062500
7907		-3164.062500
7908		-3125.000000
7909		-3125.000000
7910		-3125.000000
7911		-3125.000000
7912		-3125.000000
7913		-3125.000000
7914		-3125.000000
7915		-3125.000000
7916		-3125.000000
7917		-3125.000000
7918		-3125.000000
7919		-3125.000000
7920		-3125.000000
7921		-3125.000000
7922		-3125.000000
7923		-3125.000000
7924		-3125.000000
7925		-3125.000000
7926		-3085.937500
7927		-3085.937500
7928		-3085.937500
7929		-3085.937500
7930		-3085.937500
7931		-3085.937500
7932		-3085.937500
7933		-3085.937500
7934		-3046.875000
7935		-3046.875000
7936		-3046.875000
7937		-3046.875000
7938		-3046.875000
7939		-3046.875000
7940		-3046.875000
7941		-3046.875000
7942		-3046.875000
7943		-3046.875000
7944		-3046.875000
7945		-3046.875000
7946		-3007.812500
7947		-3007.812500
7948		-3007.812500
7949		-3007.812500
7950		-3007.812500
7951		-3007.812500
7952		-2968.750000
7953		-2968.750000
7954		-2968.750000
7955		-2968.750000
7956		-2968.750000
7957		-2968.750000
7958		-2968.750000
7959		-2968.750000
7960		-2968.750000
7961		-2968.750000
7962		-2968.750000
7963		-2968.750000
7964		-2929.687500
7965		-2929.687500
7966		-2929.687500
7967		-2929.687500
7968		-2929.687500
7969		-2890.625000
7970		-2890.625000
7971		-2890.625000
7972		-2890.625000
7973		-2890.625000
7974		-2890.625000
7975		-2890.625000
7976		-2890.625000
7977		-2851.562500
7978		-2851.562500
7979		-2851.562500
7980		-2851.562500
7981		-2851.562500
7982		-2851.562500
7983		-2851.562500
7984		-2812.500000
7985		-2812.500000
7986		-2812.500000
7987		-2812.500000
7988		-2773.437500
7989		-2773.437500
7990		-2773.437500
7991		-2773.437500
7992		-2773.437500
7993		-2773.437500
7994		-2734.375000
7995		-2734.375000
7996		-2773.437500
7997		-2734.375000
7998		-2734.375000
7999		-2734.375000
8000		-2734.375000
8001		-2734.375000
8002		-2695.312500
8003		-2695.312500
8004		-2695.312500
8005		-2695.312500
8006		-2656.250000
8007		-2656.250000
8008		-2656.250000
8009		-2656.250000
8010		-2617.187500
8011		-2617.187500
8012		-2617.187500
8013		-2617.187500
8014		-2617.187500
8015		-2617.187500
8016		-2578.125000
8017		-2578.125000
8018		-2578.125000
8019		-2578.125000
8020		-2578.125000
8021		-2539.062500
8022		-2539.062500
8023		-2539.062500
8024		-2539.062500
8025		-2539.062500
8026		-2500.000000
8027		-2500.000000
8028		-2500.000000
8029		-2500.000000
8030		-2460.937500
8031		-2460.937500
8032		-2460.937500
8033		-2460.937500
8034		-2460.937500
8035		-2421.875000
8036		-2421.875000
8037		-2421.875000
8038		-2421.875000
8039		-2382.812500
8040		-2382.812500
8041		-2382.812500
8042		-2382.812500
8043		-2343.750000
8044		-2343.750000
8045		-2343.750000
8046		-2343.750000
8047		-2343.750000
8048		-2304.687500
8049		-2304.687500
8050		-2304.687500
8051		-2304.687500
8052		-2265.625000
8053		-2265.625000
8054		-2265.625000
8055		-2226.562500
8056		-2226.562500
8057		-2226.562500
8058		-2226.562500
8059		-2187.500000
8060		-2187.500000
8061		-2187.500000
8062		-2187.500000
8063		-2187.500000
8064		-2148.437500
8065		-2148.437500
8066		-2109.375000
8067		-2109.375000
8068		-2109.375000
8069		-2109.375000
8070		-2070.312500
8071		-2070.312500
8072		-2070.312500
8073		-2031.250000
8074		-2031.250000
8075		-2031.250000
8076		-1992.187500
8077		-1992.187500
8078		-1992.187500
8079		-1992.187500
8080		-1992.187500
8081		-1953.125000
8082		-1953.125000
8083		-1914.062500
8084		-1914.062500
8085		-1914.062500
8086		-1875.000000
8087		-1875.000000
8088		-1875.000000
8089		-1835.937500
8090		-1835.937500
8091		-1835.937500
8092		-1796.875000
8093		-1796.875000
8094		-1796.875000
8095		-1757.812500
8096		-1757.812500
8097		-1757.812500
8098		-1718.750000
8099		-1718.750000
8100		-1718.750000
8101		-1718.750000
8102		-1679.687500
8103		-1679.687500
8104		-1679.687500
8105		-1640.625000
8106		-1640.625000
8107		-1601.562500
8108		-1601.562500
8109		-1601.562500
8110		-1562.500000
8111		-1562.500000
8112		-1562.500000
8113		-1523.437500
8114		-1523.437500
8115		-1484.375000
8116		-1484.375000
8117		-1484.375000
8118		-1445.312500
8119		-1445.312500
8120		-1445.312500
8121		-1406.250000
8122		-1406.250000
8123		-1406.250000
8124		-1367.187500
8125		-1367.187500
8126		-1328.125000
8127		-1328.125000
8128		-1328.125000
8129		-1289.062500
8130		-1289.062500
8131		-1250.000000
8132		-1250.000000
8133		-1210.937500
8134		-1210.937500
8135		-1210.937500
8136		-1171.875000
8137		-1171.875000
8138		-1171.875000
8139		-1132.812500
8140		-1132.812500
8141		-1132.812500
8142		-1093.750000
8143		-1093.750000
8144		-1054.687500
8145		-1054.687500
8146		-1015.625000
8147		-1015.625000
8148		-976.562500
8149		-976.562500
8150		-937.500000
8151		-937.500000
8152		-898.437500
8153		-898.437500
8154		-898.437500
8155		-859.375000
8156		-859.375000
8157		-820.312500
8158		-820.312500
8159		-820.312500
8160		-781.250000
8161		-781.250000
8162		-742.187500
8163		-742.187500
8164		-703.125000
8165		-703.125000
8166		-664.062500
8167		-664.062500
8168		-625.000000
8169		-585.937500
8170		-585.937500
8171		-585.937500
8172		-546.875000
8173		-546.875000
8174		-507.812500
8175		-507.812500
8176		-468.750000
8177		-468.750000
8178		-468.750000
8179		-429.687500
8180		-429.687500
8181		-390.625000
8182		-351.562500
8183		-351.562500
8184		-312.500000
8185		-312.500000
8186		-273.437500
8187		-234.375000
8188		-234.375000
8189		-234.375000
8190		-195.312500
8191		-156.250000
8192		-156.250000
8193		-156.250000
8194		-117.187500
8195		-117.187500
8196		-78.125000
8197		-39.062500
8198		-39.062500
8199		0.000000
8200		0.000000
8201		39.062500
8202		39.062500
8203		78.125000
8204		78.125000
8205		117.187500
8206		156.250000
8207		156.250000
8208		195.312500
8209		195.312500
8210		234.375000
8211		273.437500
8212		273.437500
8213		312.500000
8214		312.500000
8215		351.562500
8216		351.562500
8217		390.625000
8218		429.687500
8219		429.687500
8220		468.750000
8221		468.750000
8222		507.812500
8223		546.875000
8224		546.875000
8225		585.937500
8226		585.937500
8227		625.000000
8228		664.062500
8229		664.062500
8230		703.125000
8231		703.125000
8232		742.187500
8233		781.250000
8234		781.250000
8235		820.312500
8236		820.312500
8237		859.375000
8238		898.437500
8239		937.500000
8240		937.500000
8241		976.562500
8242		976.562500
8243		1015.625000
8244		1054.687500
8245		1054.687500
8246		1093.750000
8247		1132.812500
8248		1132.812500
8249		1171.875000
8250		1210.937500
8251		1210.937500
8252		1250.000000
8253		1289.062500
8254		1289.062500
8255		1328.125000
8256		1367.187500
8257		1367.187500
8258		1406.250000
8259		1445.312500
8260		1445.312500
8261		1484.375000
8262		1523.437500
8263		1523.437500
8264		1562.500000
8265		1601.562500
8266		1601.562500
8267		1640.625000
8268		1679.687500
8269		1679.687500
8270		1718.750000
8271		1757.812500
8272		1796.875000
8273		1796.875000
8274		1835.937500
8275		1875.000000
8276		1914.062500
8277		1914.062500
8278		1953.125000
8279		1992.187500
8280		1992.187500
8281		2031.250000
8282		2070.312500
8283		2109.375000
8284		2109.375000
8285		2148.437500
8286		2187.500000
8287		2226.562500
8288		2226.562500
8289		2265.625000
8290		2304.687500
8291		2343.750000
8292		2343.750000
8293		2382.812500
8294		2421.875000
8295		2460.937500
8296		2460.937500
8297		2500.000000
8298		2539.062500
8299		2578.125000
8300		2578.125000
8301		2617.187500
8302		2656.250000
8303		2695.312500
8304		2695.312500
8305		2734.375000
8306		2773.437500
8307		2812.500000
8308		2851.562500
8309		2890.625000
8310		2890.625000
8311		2929.687500
8312		2968.750000
8313		3007.812500
8314		3007.812500
8315		3046.875000
8316		3085.937500
8317		3085.937500
8318		3085.937500
8319		3085.937500
8320		3085.937500
8321		3085.937500
8322		3085.937500
8323		3085.937500
8324		3085.937500
8325		3085.937500
8326		3085.937500
8327		3085.937500
8328		3085.937500
8329		3085.937500
8330		3085.937500
8331		3085.937500
8332		3085.937500
8333		3085.937500
8334		3085.937500
8335		3085.937500
8336		3085.937500
8337		3085.937500
8338		3085.937500
8339		3085.937500
8340		3085.937500
8341		3085.937500
8342		3085.937500
8343		3085.937500
8344		3085.937500
8345		3085.937500
8346		3085.937500
8347		3085.937500
8348		3085.937500
8349		3085.937500
8350		3085.937500
8351		3085.937500
8352		3085.937500
8353		3085.937500
8354		3085.937500
8355		3085.937500
8356		3085.937500
8357		3085.937500
8358		3085.937500
8359		3085.937500
8360		3085.937500
8361		3085.937500
8362		3085.937500
8363		3085.937500
8364		3085.937500
8365		3085.937500
8366		3085.937500
8367		3085.937500
8368		3085.937500
8369		3085.937500
8370		3085.937500
8371		3085.937500
8372		3085.937500
8373		3085.937500
8374		3085.937500
8375		3085.937500
8376		3085.937500
8377		3085.937500
8378		3085.937500
8379		3085.937500
8380		3085.937500
8381		3085.937500
8382		3085.937500
8383		3085.937500
8384		3085.937500
8385		3085.937500
8386		3085.937500
8387		3085.937500
8388		3085.937500
8389		3085.937500
8390		3085.937500
8391		3085.937500
8392		3085.937500
8393		3085.937500
8394		3085.937500
8395		3085.937500
8396		3085.937500
8397		3085.937500
8398		3085.937500
8399		3085.937500
8400		3085.937500
8401		3085.937500
8402		3085.937500
8403		3085.937500
8404		3085.937500
8405		3085.937500
8406		3085.937500
8407		3085.937500
8408		3085.937500
8409		3125.000000
8410		3085.937500
8411		3085.937500
8412		3085.937500
8413		3085.937500
8414		3085.937500
8415		3085.937500
8416		3085.937500
8417		3085.937500
8418		3085.937500
8419		3085.937500
8420		3085.937500
8421		3085.937500
8422		3085.937500
8423		3085.937500
8424		3085.937500
8425		3085.937500
8426		3085.937500
8427		3085.937500
8428		3085.937500
8429		3085.937500
8430		3085.937500
8431		3085.937500
8432		3085.937500
8433		3085.937500
8434		3085.937500
8435		3085.937500
8436		3125.000000
8437		3085.937500
8438		3085.937500
8439		3085.937500
8440		3085.937500
8441		3085.937500
8442		3085.937500
8443		3085.937500
8444		3085.937500
8445		3085.937500
8446		3085.937500
8447		3085.937500
8448		3085.937500
8449		3085.937500
8450		3085.937500
8451		3085.937500
8452		3085.937500
8453		3085.937500
8454		3085.937500
8455		3085.937500
8456		3085.937500
8457		3085.937500
8458		3085.937500
8459		3085.937500
8460		3085.937500
8461		3085.937500
8462		3085.937500
8463		3085.937500
8464		3085.937500
8465		3085.937500
8466		3085.937500
8467		3085.937500
8468		3085.937500
8469		3085.937500
8470		3085.937500
8471		3085.937500
8472		3085.937500
8473		3085.937500
8474		3085.937500
8475		3085.937500
8476		3085.937500
8477		3085.937500
8478		3085.937500
8479		3085.937500
8480		3125.000000
8481		3085.937500
8482		3085.937500
8483		3085.937500
8484		3085.937500
8485		3085.937500
8486		3085.937500
8487		3085.937500
8488		3085.937500
8489		3085.937500
8490		3125.000000
8491		3085.937500
8492		3085.937500
8493		3085.937500
8494		3085.937500
8495		3085.937500
8496		3085.937500
8497		3085.937500
8498		3085.937500
8499		3085.937500
8500		3085.937500
8501		3085.937500
8502		3085.937500
8503		3085.937500
8504		3085.937500
8505		3085.937500
8506		3085.937500
8507		3085.937500
8508		3085.937500
8509		3085.937500
8510		3085.937500
8511		3085.937500
8512		3085.937500
8513		3085.937500
8514		3085.937500
8515		3085.937500
8516		3085.937500
8517		3085.937500
8518		3085.937500
8519		3085.937500
8520		3085.937500
8521		3085.937500
8522		3085.937500
8523		3085.937500
8524		3085.937500
8525		3085.937500
8526		3085.937500
8527		3085.937500
8528		3085.937500
8529		3085.937500
8530		3085.937500
8531		3085.937500
8532		3085.937500
8533		3085.937500
8534		3085.937500
8535		3085.937500
8536		3085.937500
8537		3085.937500
8538		3085.937500
8539		3085.937500
8540		3085.937500
8541		3085.937500
8542		3085.937500
8543		3085.937500
8544		3085.937500
8545		3085.937500
8546		3085.937500
8547		3085.937500
8548		3085.937500
8549		3085.937500
8550		3085.937500
8551		3085.937500
8552		3085.937500
8553		3085.937500
8554		3085.937500
8555		3125.000000
8556		3085.937500
8557		3085.937500
8558		3085.937500
8559		3085.937500
8560		3085.937500
8561		3085.937500
8562		3085.937500
8563		3085.937500
8564		3085.937500
8565		3085.937500
8566		3085.937500
8567		3085.937500
8568		3085.937500
8569		3085.937500
8570		3085.937500
8571		3085.937500
8572		3085.937500
8573		3085.937500
8574		3085.937500
8575		3085.937500
8576		3085.937500
8577		3085.937500
8578		3085.937500
8579		3085.937500
8580		3085.937500
8581		3085.937500
8582		3085.937500
8583		3125.000000
8584		3085.937500
8585		3085.937500
8586		3085.937500
8587		3085.937500
8588		3085.937500
8589		3085.937500
8590		3085.937500
8591		3085.937500
8592		3085.937500
8593		3085.937500
8594		3085.937500
8595		3085.937500
8596		3085.937500
8597		3085.937500
8598		3085.937500
8599		3085.937500
8600		3085.937500
8601		3085.937500
8602		3085.937500
8603		3085.937500
8604		3085.937500
8605		3085.937500
8606		3085.937500
8607		3085.937500
8608		3085.937500
8609		3085.937500
8610		3085.937500
8611		3085.937500
8612		3085.937500
8613		3085.937500
8614		3085.937500
8615		3085.937500
8616		3085.937500
8617		3085.937500
8618		3085.937500
8619		3085.937500
8620		3085.937500
8621		3085.937500
8622		3085.937500
8623		3085.937500
8624		3085.937500
8625		3085.937500
8626		3085.937500
8627		3125.000000
8628		3085.937500
8629		3085.937500
8630		3085.937500
8631		3085.937500
8632		3085.937500
8633		3085.937500
8634		3085.937500
8635		3085.937500
8636		3085.937500
8637		3085.937500
8638		3085.937500
8639		3085.937500
8640		3085.937500
8641		3085.937500
8642		3085.937500
8643		3085.937500
8644		3085.937500
8645		3085.937500
8646		3085.937500
8647		3085.937500
8648		3085.937500
8649		3085.937500
8650		3085.937500
8651		3085.937500
8652		3085.937500
8653		3085.937500
8654		3085.937500
8655		3085.937500
8656		3085.937500
8657		3085.937500
8658		3085.937500
8659		3085.937500
8660		3085.937500
8661		3085.937500
8662		3085.937500
8663		3085.937500
8664		3085.937500
8665		3085.937500
8666		3085.937500
8667		3085.937500
8668		3085.937500
8669		3085.937500
8670		3125.000000
8671		3085.937500
8672		3085.937500
8673		3085.937500
8674		3085.937500
8675		3085.937500
8676		3085.937500
8677		3085.937500
8678		3085.937500
8679		3085.937500
8680		3085.937500
8681		3085.937500
8682		3085.937500
8683		3085.937500
8684		3085.937500
8685		3085.937500
8686		3085.937500
8687		3085.937500
8688		3085.937500
8689		3085.937500
8690		3085.937500
8691		3085.937500
8692		3085.937500
8693		3085.937500
8694		3085.937500
8695		3085.937500
8696		3085.937500
8697		3125.000000
8698		3085.937500
8699		3085.937500
8700		3085.937500
8701		3085.937500
8702		3085.937500
8703		3085.937500
8704		3085.937500
8705		3085.937500
8706		3085.937500
8707		3085.937500
8708		3085.937500
8709		3085.937500
8710		3085.937500
8711		3085.937500
8712		3085.937500
8713		3085.937500
8714		3085.937500
8715		3085.937500
8716		3085.937500
8717		3085.937500
8718		3085.937500
8719		3085.937500
8720		3085.937500
8721		3085.937500
8722		3085.937500
8723		3085.937500
8724		3085.937500
8725		3085.937500
8726		3085.937500
8727		3085.937500
8728		3085.937500
8729		3085.937500
8730		3085.937500
8731		3085.937500
8732		3085.937500
8733		3085.937500
8734		3085.937500
8735		3085.937500
8736		3085.937500
8737		3085.937500
8738		3085.937500
8739		3085.937500
8740		3085.937500
8741		3085.937500
8742		3085.937500
8743		3085.937500
8744		3085.937500
8745		3085.937500
8746		3085.937500
8747		3085.937500
8748		3085.937500
8749		3085.937500
8750		3085.937500
8751		3085.937500
8752		3125.000000
8753		3085.937500
8754		3085.937500
8755		3085.937500
8756		3085.937500
8757		3085.937500
8758		3085.937500
8759		3085.937500
8760		3085.937500
8761		3085.937500
8762		3085.937500
8763		3085.937500
8764		3085.937500
8765		3085.937500
8766		3085.937500
8767		3085.937500
8768		3085.937500
8769		3085.937500
8770		3085.937500
8771		3085.937500
8772		3085.937500
8773		3085.937500
8774		3085.937500
8775		3085.937500
8776		3085.937500
8777		3085.937500
8778		3085.937500
8779		3085.937500
8780		3085.937500
8781		3085.937500
8782		3085.937500
8783		3085.937500
8784		3085.937500
8785		3085.937500
8786		3085.937500
8787		3085.937500
8788		3085.937500
8789		3085.937500
8790		3125.000000
8791		3085.937500
8792		3085.937500
8793		3085.937500
8794		3085.937500
8795		3085.937500
8796		3085.937500
8797		3085.937500
8798		3085.937500
8799		3085.937500
8800		3085.937500
8801		3085.937500
8802		3085.937500
8803		3085.937500
8804		3085.937500
8805		3085.937500
8806		3085.937500
8807		3085.937500
8808		3085.937500
8809		3085.937500
8810		3085.937500
8811		3085.937500
8812		3085.937500
8813		3085.937500
8814		3085.937500
8815		3085.937500
8816		3085.937500
8817		3085.937500
8818		3085.937500
8819		3085.937500
8820		3085.937500
8821		3085.937500
8822		3085.937500
8823		3085.937500
8824		3085.937500
8825		3085.937500
8826		3085.937500
8827		3085.937500
8828		3085.937500
8829		3085.937500
8830		3085.937500
8831		3085.937500
8832		3085.937500
8833		3085.937500
8834		3085.937500
8835		3085.937500
8836		3085.937500
8837		3085.937500
8838		3085.937500
8839		3125.000000
8840		3085.937500
8841		3085.937500
8842		3085.937500
8843		3085.937500
8844		3085.937500
8845		3085.937500
8846		3085.937500
8847		3085.937500
8848		3085.937500
8849		3085.937500
8850		3085.937500
8851		3085.937500
8852		3085.937500
8853		3085.937500
8854		3085.937500
8855		3085.937500
8856		3085.937500
8857		3085.937500
8858		3085.937500
8859		3085.937500
8860		3085.937500
8861		3085.937500
8862		3085.937500
8863		3085.937500
8864		3085.937500
8865		3085.937500
8866		3085.937500
8867		3085.937500
8868		3085.937500
8869		3085.937500
8870		3085.937500
8871		3085.937500
8872		3085.937500
8873		3085.937500
8874		3085.937500
8875		3085.937500
8876		3085.937500
8877		3085.937500
8878		3085.937500
8879		3085.937500
8880		3085.937500
8881		3085.937500
8882		3085.937500
8883		3085.937500
8884		3085.937500
8885		3085.937500
8886		3085.937500
8887		3085.937500
8888		3085.937500
8889		3085.937500
8890		3085.937500
8891		3085.937500
8892		3085.937500
8893		3085.937500
8894		3085.937500
8895		3085.937500
8896		3085.937500
8897		3085.937500
8898		3085.937500
8899		3085.937500
8900		3085.937500
8901		3085.937500
8902		3085.937500
8903		3085.937500
8904		3085.937500
8905		3085.937500
8906		3085.937500
8907		3085.937500
8908		3085.937500
8909		3085.937500
8910		3085.937500
8911		3085.937500
8912		3085.937500
8913		3085.937500
8914		3085.937500
8915		3085.937500
8916		3085.937500
8917		3085.937500
8918		3085.937500
8919		3085.937500
8920		3085.937500
8921		3085.937500
8922		3085.937500
8923		3125.000000
8924		3085.937500
8925		3085.937500
8926		3085.937500
8927		3085.937500
8928		3085.937500
8929		3085.937500
8930		3085.937500
8931		3085.937500
8932		3085.937500
8933		3085.937500
8934		3085.937500
8935		3085.937500
8936		3125.000000
8937		3085.937500
8938		3085.937500
8939		3085.937500
8940		3085.937500
8941		3085.937500
8942		3085.937500
8943		3085.937500
8944		3085.937500
8945		3085.937500
8946		3085.937500
8947		3085.937500
8948		3085.937500
8949		3085.937500
8950		3085.937500
8951		3085.937500
8952		3085.937500
8953		3085.937500
8954		3085.937500
8955		3085.937500
8956		3085.937500
8957		3085.937500
8958		3085.937500
8959		3085.937500
8960		3085.937500
8961		3085.937500
8962		3085.937500
8963		3125.000000
8964		3085.937500
8965		3085.937500
8966		3085.937500
8967		3085.937500
8968		3085.937500
8969		3125.000000
8970		3085.937500
8971		3085.937500
8972		3085.937500
8973		3085.937500
8974		3085.937500
8975		3085.937500
8976		3085.937500
8977		3085.937500
8978		3085.937500
8979		3085.937500
8980		3085.937500
8981		3085.937500
8982		3085.937500
8983		3085.937500
8984		3085.937500
8985		3085.937500
8986		3085.937500
8987		3085.937500
8988		3085.937500
8989		3085.937500
8990		3125.000000
8991		3085.937500
8992		3085.937500
8993		3085.937500
8994		3085.937500
8995		3085.937500
8996		3125.000000
8997		3085.937500
8998		3085.937500
8999		3085.937500
9000		3085.937500
9001		3085.937500
9002		3085.937500
9003		3085.937500
9004		3085.937500
9005		3085.937500
9006		3085.937500
9007		3125.000000
9008		3085.937500
9009		3085.937500
9010		3085.937500
9011		3125.000000
9012		3085.937500
9013		3085.937500
9014		3085.937500
9015		3085.937500
9016		3085.937500
9017		3085.937500
9018		3085.937500
9019		3085.937500
9020		3085.937500
9021		3046.875000
9022		3046.875000
9023		3007.812500
9024		3007.812500
9025		2968.750000
9026		2968.750000
9027		2929.687500
9028		2929.687500
9029		2890.625000
9030		2851.562500
9031		2851.562500
9032		2812.500000
9033		2773.437500
9034		2773.437500
9035		2734.375000
9036		2695.312500
9037		2695.312500
9038		2656.250000
9039		2617.187500
9040		2617.187500
9041		2578.125000
9042		2539.062500
9043		2500.000000
9044		2500.000000
9045		2460.937500
9046		2421.875000
9047		2382.812500
9048		2382.812500
9049		2343.750000
9050		2343.750000
9051		2304.687500
9052		2265.625000
9053		2226.562500
9054		2226.562500
9055		2187.500000
9056		2148.437500
9057		2148.437500
9058		2109.375000
9059		2070.312500
9060		2031.250000
9061		2031.250000
9062		1992.187500
9063		1953.125000
9064		1953.125000
9065		1914.062500
9066		1875.000000
9067		1875.000000
9068		1835.937500
9069		1796.875000
9070		1796.875000
9071		1757.812500
9072		1718.750000
9073		1718.750000
9074		1679.687500
9075		1640.625000
9076		1640.625000
9077		1601.562500
9078		1562.500000
9079		1523.437500
9080		1523.437500
9081		1484.375000
9082		1445.312500
9083		1445.312500
9084		1406.250000
9085		1367.187500
9086		1367.187500
9087		1328.125000
9088		1328.125000
9089		1289.062500
9090		1250.000000
9091		1250.000000
9092		1210.937500
9093		1210.937500
9094		1171.875000
9095		1132.812500
9096		1132.812500
9097		1093.750000
9098		1054.687500
9099		1054.687500
9100		1015.625000
9101		976.562500
9102		976.562500
9103		937.500000
9104		937.500000
9105		898.437500
9106		898.437500
9107		859.375000
9108		820.312500
9109		820.312500
9110		781.250000
9111		781.250000
9112		742.187500
9113		742.187500
9114		703.125000
9115		664.062500
9116		664.062500
9117		625.000000
9118		585.937500
9119		585.937500
9120		546.875000
9121		546.875000
9122		507.812500
9123		507.812500
9124		468.750000
9125		468.750000
9126		429.687500
9127		390.625000
9128		390.625000
9129		351.562500
9130		351.562500
9131		312.500000
9132		312.500000
9133		273.437500
9134		273.437500
9135		234.375000
9136		195.312500
9137		195.312500
9138		156.250000
9139		156.250000
9140		117.187500
9141		117.187500
9142		78.125000
9143		78.125000
9144		39.062500
9145		39.062500
9146		0.000000
9147		0.000000
9148		-39.062500
9149		-39.062500
9150		-78.125000
9151		-78.125000
9152		-117.187500
9153		-117.187500
9154		-156.250000
9155		-156.250000
9156		-195.312500
9157		-195.312500
9158		-234.375000
9159		-234.375000
9160		-273.437500
9161		-273.437500
9162		-312.500000
9163		-312.500000
9164		-351.562500
9165		-351.562500
9166		-390.625000
9167		-390.625000
9168		-429.687500
9169		-429.687500
9170		-468.750000
9171		-468.750000
9172		-468.750000
9173		-507.812500
9174		-507.812500
9175		-546.875000
9176		-546.875000
9177		-585.937500
9178		-585.937500
9179		-625.000000
9180		-625.000000
9181		-664.062500
9182		-664.062500
9183		-664.062500
9184		-703.125000
9185		-703.125000
9186		-742.187500
9187		-742.187500
9188		-781.250000
9189		-781.250000
9190		-820.312500
9191		-820.312500
9192		-820.312500
9193		-859.375000
9194		-859.375000
9195		-898.437500
9196		-898.437500
9197		-898.437500
9198		-937.500000
9199		-937.500000
9200		-976.562500
9201		-976.562500
9202		-1015.625000
9203		-1015.625000
9204		-1015.625000
9205		-1054.687500
9206		-1054.687500
9207		-1093.750000
9208		-1093.750000
9209		-1093.750000
9210		-1132.812500
9211		-1132.812500
9212		-1171.875000
9213		-1171.875000
9214		-1171.875000
9215		-1210.937500
9216		-1210.937500
9217		-1210.937500
9218		-1250.000000
9219		-1250.000000
9220		-1289.062500
9221		-1289.062500
9222		-1289.062500
9223		-1328.125000
9224		-1328.125000
9225		-1367.187500
9226		-1367.187500
9227		-1367.187500
9228		-1367.187500
9229		-1406.250000
9230		-1406.250000
9231		-1445.312500
9232		-1445.312500
9233		-1445.312500
9234		-1445.312500
9235		-1484.375000
9236		-1484.375000
9237		-1523.437500
9238		-1523.437500
9239		-1523.437500
9240		-1562.500000
9241		-1562.500000
9242		-1562.500000
9243		-1601.562500
9244		-1601.562500
9245		-1601.562500
9246		-1640.625000
9247		-1640.625000
9248		-1640.625000
9249		-1640.625000
9250		-1679.687500
9251		-1679.687500
9252		-1679.687500
9253		-1718.750000
9254		-1718.750000
9255		-1718.750000
9256		-1757.812500
9257		-1757.812500
9258		-1757.812500
9259		-1796.875000
9260		-1796.875000
9261		-1796.875000
9262		-1835.937500
9263		-1835.937500
9264		-1835.937500
9265		-1875.000000
9266		-1875.000000
9267		-1875.000000
9268		-1875.000000
9269		-1914.062500
9270		-1914.062500
9271		-1914.062500
9272		-1914.062500
9273		-1953.125000
9274		-1953.125000
9275		-1953.125000
9276		-1992.187500
9277		-1992.187500
9278		-1992.187500
9279		-1992.187500
9280		-2031.250000
9281		-2031.250000
9282		-2031.250000
9283		-2070.312500
9284		-2070.312500
9285		-2070.312500
9286		-2109.375000
9287		-2070.312500
9288		-2109.375000
9289		-2109.375000
9290		-2109.375000
9291		-2109.375000
9292		-2148.437500
9293		-2148.437500
9294		-2148.437500
9295		-2187.500000
9296		-2187.500000
9297		-2187.500000
9298		-2187.500000
9299		-2226.562500
9300		-2226.562500
9301		-2265.625000
9302		-2226.562500
9303		-2226.562500
9304		-2265.625000
9305		-2265.625000
9306		-2265.625000
9307		-2265.625000
9308		-2304.687500
9309		-2304.687500
9310		-2304.687500
9311		-2304.687500
9312		-2304.687500
9313		-2343.750000
9314		-2343.750000
9315		-2343.750000
9316		-2343.750000
9317		-2382.812500
9318		-2382.812500
9319		-2382.812500
9320		-2382.812500
9321		-2421.875000
9322		-2421.875000
9323		-2421.875000
9324		-2421.875000
9325		-2421.875000
9326		-2421.875000
9327		-2460.937500
9328		-2460.937500
9329		-2460.937500
9330		-2460.937500
9331		-2460.937500
9332		-2460.937500
9333		-2500.000000
9334		-2500.000000
9335		-2500.000000
9336		-2539.062500
9337		-2539.062500
9338		-2539.062500
9339		-2539.062500
9340		-2539.062500
9341		-2539.062500
9342		-2578.125000
9343		-2578.125000
9344		-2578.125000
9345		-2578.125000
9346		-2578.125000
9347		-2578.125000
9348		-2578.125000
9349		-2617.187500
9350		-2617.187500
9351		-2617.187500
9352		-2617.187500
9353		-2617.187500
9354		-2656.250000
9355		-2656.250000
9356		-2656.250000
9357		-2656.250000
9358		-2656.250000
9359		-2656.250000
9360		-2695.312500
9361		-2695.312500
9362		-2734.375000
9363		-2695.312500
9364		-2695.312500
9365		-2695.312500
9366		-2695.312500
9367		-2734.375000
9368		-2734.375000
9369		-2734.375000
9370		-2734.375000
9371		-2734.375000
9372		-2734.375000
9373		-2734.375000
9374		-2734.375000
9375		-2773.437500
9376		-2773.437500
9377		-2773.437500
9378		-2773.437500
9379		-2773.437500
9380		-2773.437500
9381		-2773.437500
9382		-2773.437500
9383		-2812.500000
9384		-2812.500000
9385		-2812.500000
9386		-2812.500000
9387		-2812.500000
9388		-2812.500000
9389		-2851.562500
9390		-2812.500000
9391		-2851.562500
9392		-2851.562500
9393		-2851.562500
9394		-2851.562500
9395		-2851.562500
9396		-2851.562500
9397		-2851.562500
9398		-2851.562500
9399		-2890.625000
9400		-2890.625000
9401		-2890.625000
9402		-2890.625000
9403		-2890.625000
9404		-2890.625000
9405		-2890.625000
9406		-2890.625000
9407		-2890.625000
9408		-2890.625000
9409		-2929.687500
9410		-2929.687500
9411		-2929.687500
9412		-2929.687500
9413		-2929.687500
9414		-2929.687500
9415		-2929.687500
9416		-2929.687500
9417		-2929.687500
9418		-2929.687500
9419		-2929.687500
9420		-2968.750000
9421		-2968.750000
9422		-2968.750000
9423		-2968.750000
9424		-2968.750000
9425		-2968.750000
9426		-2968.750000
9427		-2968.750000
9428		-2968.750000
9429		-2968.750000
9430		-2968.750000
9431		-2968.750000
9432		-2968.750000
9433		-2968.750000
9434		-2968.750000
9435		-2968.750000
9436		-3007.812500
9437		-3007.812500
9438		-3007.812500
9439		-3007.812500
9440		-3007.812500
9441		-3007.812500
9442		-3007.812500
9443		-3007.812500
9444		-3007.812500
9445		-3007.812500
9446		-3046.875000
9447		-3007.812500
9448		-3007.812500
9449		-3046.875000
9450		-3007.812500
9451		-3007.812500
9452		-3046.875000
9453		-3046.875000
9454		-3046.875000
9455		-3046.875000
9456		-3046.875000
9457		-3046.875000
9458		-3046.875000
9459		-3046.875000
9460		-3046.875000
9461		-3046.875000
9462		-3046.875000
9463		-3046.875000
9464		-3046.875000
9465		-3046.875000
9466		-3046.875000
9467		-3046.875000
9468		-3046.875000
9469		-3046.875000
9470		-3046.875000
9471		-3046.875000
9472		-3046.875000
9473		-3046.875000
9474		-3046.875000
9475		-3085.937500
9476		-3085.937500
9477		-3085.937500
9478		-3085.937500
9479		-3085.937500
9480		-3085.937500
9481		-3085.937500
9482		-3085.937500
9483		-3085.937500
9484		-3085.937500
9485		-3085.937500
9486		-3085.937500
9487		-3085.937500
9488		-3085.937500
9489		-3085.937500
9490		-3085.937500
9491		-3085.937500
9492		-3085.937500
9493		-3085.937500
9494		-3085.937500
9495		-3085.937500
9496		-3085.937500
9497		-3085.937500
9498		-3085.937500
9499		-3085.937500
9500		-3085.937500
9501		-3085.937500
9502		-3085.937500
9503		-3085.937500
9504		-3085.937500
9505		-3085.937500
9506		-3085.937500
9507		-3085.937500
9508		-3085.937500
9509		-3046.875000
9510		-3046.875000
9511		-3046.875000
9512		-3046.875000
9513		-3085.937500
9514		-3085.937500
9515		-3085.937500
9516		-3085.937500
9517		-3085.937500
9518		-3085.937500
9519		-3085.937500
9520		-3085.937500
9521		-3085.937500
9522		-3046.875000
9523		-3046.875000
9524		-3046.875000
9525		-3046.875000
9526		-3046.875000
9527		-3046.875000
9528		-3046.875000
9529		-3046.875000
9530		-3046.875000
9531		-3046.875000
9532		-3046.875000
9533		-3046.875000
9534		-3046.875000
9535		-3046.875000
9536		-3046.875000
9537		-3046.875000
9538		-3046.875000
9539		-3046.875000
9540		-3046.875000
9541		-3046.875000
9542		-3046.875000
9543		-3007.812500
9544		-3046.875000
9545		-3007.812500
9546		-3007.812500
9547		-3007.812500
9548		-3007.812500
9549		-3007.812500
9550		-3007.812500
9551		-3007.812500
9552		-3007.812500
9553		-3007.812500
9554		-3007.812500
9555		-3007.812500
9556		-3007.812500
9557		-3007.812500
9558		-3007.812500
9559		-3007.812500
9560		-2968.750000
9561		-2968.750000
9562		-2968.750000
9563		-2968.750000
9564		-2968.750000
9565		-2968.750000
9566		-2968.750000
9567		-2968.750000
9568		-2968.750000
9569		-2968.750000
9570		-2968.750000
9571		-2968.750000
9572		-2929.687500
9573		-2929.687500
9574		-2929.687500
9575		-2929.687500
9576		-2929.687500
9577		-2929.687500
9578		-2929.687500
9579		-2929.687500
9580		-2929.687500
9581		-2929.687500
9582		-2929.687500
9583		-2929.687500
9584		-2890.625000
9585		-2890.625000
9586		-2890.625000
9587		-2890.625000
9588		-2890.625000
9589		-2890.625000
9590		-2890.625000
9591		-2890.625000
9592		-2851.562500
9593		-2851.562500
9594		-2851.562500
9595		-2851.562500
9596		-2851.562500
9597		-2851.562500
9598		-2851.562500
9599		-2851.562500
9600		-2851.562500
9601		-2812.500000
9602		-2812.500000
9603		-2812.500000
9604		-2812.500000
9605		-2812.500000
9606		-2812.500000
9607		-2812.500000
9608		-2812.500000
9609		-2773.437500
9610		-2773.437500
9611		-2773.437500
9612		-2773.437500
9613		-2773.437500
9614		-2773.437500
9615		-2773.437500
9616		-2773.437500
9617		-2734.375000
9618		-2734.375000
9619		-2734.375000
9620		-2734.375000
9621		-2734.375000
9622		-2734.375000
9623		-2734.375000
9624		-2734.375000
9625		-2695.312500
9626		-2695.312500
9627		-2695.312500
9628		-2695.312500
9629		-2656.250000
9630		-2656.250000
9631		-2656.250000
9632		-2656.250000
9633		-2656.250000
9634		-2656.250000
9635		-2617.187500
9636		-2617.187500
9637		-2617.187500
9638		-2617.187500
9639		-2656.250000
9640		-2617.187500
9641		-2617.187500
9642		-2617.187500
9643		-2578.125000
9644		-2578.125000
9645		-2578.125000
9646		-2578.125000
9647		-2578.125000
9648		-2539.062500
9649		-2539.062500
9650		-2539.062500
9651		-2539.062500
9652		-2500.000000
9653		-2500.000000
9654		-2500.000000
9655		-2500.000000
9656		-2500.000000
9657		-2500.000000
9658		-2460.937500
9659		-2460.937500
9660		-2460.937500
9661		-2460.937500
9662		-2460.937500
9663		-2460.937500
9664		-2421.875000
9665		-2421.875000
9666		-2421.875000
9667		-2382.812500
9668		-2382.812500
9669		-2382.812500
9670		-2382.812500
9671		-2382.812500
9672		-2343.750000
9673		-2343.750000
9674		-2343.750000
9675		-2343.750000
9676		-2343.750000
9677		-2343.750000
9678		-2304.687500
9679		-2304.687500
9680		-2304.687500
9681		-2304.687500
9682		-2265.625000
9683		-2265.625000
9684		-2265.625000
9685		-2226.562500
9686		-2226.562500
9687		-2226.562500
9688		-2226.562500
9689		-2187.500000
9690		-2187.500000
9691		-2187.500000
9692		-2187.500000
9693		-2187.500000
9694		-2148.437500
9695		-2148.437500
9696		-2148.437500
9697		-2148.437500
9698		-2109.375000
9699		-2109.375000
9700		-2109.375000
9701		-2109.375000
9702		-2109.375000
9703		-2070.312500
9704		-2070.312500
9705		-2031.250000
9706		-2031.250000
9707		-2031.250000
9708		-2031.250000
9709		-1992.187500
9710		-1992.187500
9711		-1992.187500
9712		-1953.125000
9713		-1953.125000
9714		-1953.125000
9715		-1953.125000
9716		-1953.125000
9717		-1914.062500
9718		-1914.062500
9719		-1914.062500
9720		-1875.000000
9721		-1875.000000
9722		-1875.000000
9723		-1835.937500
9724		-1835.937500
9725		-1835.937500
9726		-1796.875000
9727		-1796.875000
9728		-1796.875000
9729		-1796.875000
9730		-1757.812500
9731		-1757.812500
9732		-1757.812500
9733		-1718.750000
9734		-1718.750000
9735		-1718.750000
9736		-1679.687500
9737		-1679.687500
9738		-1679.687500
9739		-1640.625000
9740		-1640.625000
9741		-1640.625000
9742		-1601.562500
9743		-1601.562500
9744		-1601.562500
9745		-1562.500000
9746		-1562.500000
9747		-1562.500000
9748		-1523.437500
9749		-1523.437500
9750		-1484.375000
9751		-1484.375000
9752		-1484.375000
9753		-1484.375000
9754		-1445.312500
9755		-1445.312500
9756		-1445.312500
9757		-1406.250000
9758		-1406.250000
9759		-1367.187500
9760		-1367.187500
9761		-1367.187500
9762		-1328.125000
9763		-1328.125000
9764		-1328.125000
9765		-1289.062500
9766		-1289.062500
9767		-1250.000000
9768		-1250.000000
9769		-1250.000000
9770		-1210.937500
9771		-1210.937500
9772		-1171.875000
9773		-1171.875000
9774		-1171.875000
9775		-1132.812500
9776		-1132.812500
9777		-1093.750000
9778		-1093.750000
9779		-1093.750000
9780		-1054.687500
9781		-1054.687500
9782		-1015.625000
9783		-1015.625000
9784		-1015.625000
9785		-976.562500
9786		-976.562500
9787		-937.500000
9788		-937.500000
9789		-898.437500
9790		-898.437500
9791		-898.437500
9792		-859.375000
9793		-859.375000
9794		-820.312500
9795		-820.312500
9796		-781.250000
9797		-781.250000
9798		-742.187500
9799		-742.187500
9800		-742.187500
9801		-703.125000
9802		-703.125000
9803		-664.062500
9804		-664.062500
9805		-664.062500
9806		-625.000000
9807		-625.000000
9808		-585.937500
9809		-585.937500
9810		-546.875000
9811		-546.875000
9812		-507.812500
9813		-507.812500
9814		-468.750000
9815		-468.750000
9816		-429.687500
9817		-429.687500
9818		-390.625000
9819		-390.625000
9820		-351.562500
9821		-351.562500
9822		-351.562500
9823		-312.500000
9824		-312.500000
9825		-273.437500
9826		-234.375000
9827		-234.375000
9828		-234.375000
9829		-195.312500
9830		-156.250000
9831		-156.250000
9832		-117.187500
9833		-117.187500
9834		-78.125000
9835		-78.125000
9836		-39.062500
9837		-39.062500
9838		0.000000
9839		0.000000
9840		39.062500
9841		39.062500
9842		78.125000
9843		117.187500
9844		117.187500
9845		156.250000
9846		156.250000
9847		195.312500
9848		195.312500
9849		234.375000
9850		234.375000
9851		273.437500
9852		312.500000
9853		312.500000
9854		351.562500
9855		351.562500
9856		390.625000
9857		390.625000
9858		429.687500
9859		429.687500
9860		468.750000
9861		507.812500
9862		507.812500
9863		546.875000
9864		546.875000
9865		585.937500
9866		625.000000
9867		625.000000
9868		664.062500
9869		664.062500
9870		703.125000
9871		742.187500
9872		742.187500
9873		781.250000
9874		781.250000
9875		820.312500
9876		859.375000
9877		859.375000
9878		898.437500
9879		898.437500
9880		937.500000
9881		976.562500
9882		976.562500
9883		1015.625000
9884		1054.687500
9885		1054.687500
9886		1093.750000
9887		1132.812500
9888		1132.812500
9889		1171.875000
9890		1210.937500
9891		1210.937500
9892		1250.000000
9893		1250.000000
9894		1289.062500
9895		1289.062500
9896		1328.125000
9897		1367.187500
9898		1406.250000
9899		1406.250000
9900		1445.312500
9901		1445.312500
9902		1484.375000
9903		1523.437500
9904		1562.500000
9905		1562.500000
9906		1601.562500
9907		1640.625000
9908		1679.687500
9909		1679.687500
9910		1718.750000
9911		1757.812500
9912		1757.812500
9913		1796.875000
9914		1835.937500
9915		1835.937500
9916		1875.000000
9917		1914.062500
9918		1914.062500
9919		1953.125000
9920		1992.187500
9921		1992.187500
9922		2031.250000
9923		2070.312500
9924		2109.375000
9925		2109.375000
9926		2148.437500
9927		2187.500000
9928		2226.562500
9929		2226.562500
9930		2265.625000
9931		2304.687500
9932		2343.750000
9933		2343.750000
9934		2382.812500
9935		2421.875000
9936		2421.875000
9937		2460.937500
9938		2500.000000
9939		2539.062500
9940		2539.062500
9941		2578.125000
9942		2617.187500
9943		2656.250000
9944		2695.312500
9945		2695.312500
9946		2734.375000
9947		2773.437500
9948		2773.437500
9949		2812.500000
9950		2851.562500
9951		2851.562500
9952		2890.625000
9953		2929.687500
9954		2968.750000
9955		3007.812500
9956		3046.875000
9957		3046.875000
9958		3085.937500
9959		3085.937500
9960		3085.937500
9961		3085.937500
9962		3085.937500
9963		3085.937500
9964		3085.937500
9965		3085.937500
9966		3085.937500
9967		3085.937500
9968		3085.937500
9969		3085.937500
9970		3085.937500
9971		3085.937500
9972		3085.937500
9973		3085.937500
9974		3085.937500
9975		3085.937500
9976		3085.937500
9977		3085.937500
9978		3085.937500
9979		3085.937500
9980		3085.937500
9981		3085.937500
9982		3085.937500
9983		3085.937500
9984		3085.937500
9985		3085.937500
9986		3085.937500
9987		3085.937500
9988		3085.937500
9989		3085.937500
9990		3085.937500
9991		3085.937500
9992		3085.937500
9993		3085.937500
9994		3085.937500
9995		3085.937500
9996		3085.937500
9997		3085.937500
9998		3085.937500
9999		3085.937500
10000		3085.937500
