Channel              :		CH1
Frequency            :		  ?
Period               :		  ?
PK-PK                :		1.641V
Probe attenuation    :		1X
Voltage per ADC value:		4.882813mV
Time interval        :		1000.00000us

index		CH1_Voltage(mV)
1		2421.875000
2		2421.875000
3		2421.875000
4		2421.875000
5		2421.875000
6		2421.875000
7		2421.875000
8		2421.875000
9		2421.875000
10		2421.875000
11		2421.875000
12		2421.875000
13		2421.875000
14		2421.875000
15		2421.875000
16		2421.875000
17		2421.875000
18		2421.875000
19		2421.875000
20		2421.875000
21		2343.750000
22		2343.750000
23		2343.750000
24		2343.750000
25		2343.750000
26		2343.750000
27		2343.750000
28		2343.750000
29		2343.750000
30		2343.750000
31		2343.750000
32		2343.750000
33		2343.750000
34		2343.750000
35		2343.750000
36		2343.750000
37		2343.750000
38		2343.750000
39		2343.750000
40		2343.750000
41		2343.750000
42		2343.750000
43		2343.750000
44		2343.750000
45		2343.750000
46		2343.750000
47		2343.750000
48		2343.750000
49		2343.750000
50		2343.750000
51		2343.750000
52		2343.750000
53		2343.750000
54		2343.750000
55		2343.750000
56		2343.750000
57		2343.750000
58		2343.750000
59		2265.625000
60		2343.750000
61		2265.625000
62		2265.625000
63		2265.625000
64		2265.625000
65		2265.625000
66		2265.625000
67		2265.625000
68		2265.625000
69		2265.625000
70		2265.625000
71		2265.625000
72		2265.625000
73		2265.625000
74		2265.625000
75		2265.625000
76		2265.625000
77		2265.625000
78		2265.625000
79		2265.625000
80		2265.625000
81		2265.625000
82		2265.625000
83		2265.625000
84		2265.625000
85		2265.625000
86		2265.625000
87		2265.625000
88		2265.625000
89		2265.625000
90		2265.625000
91		2265.625000
92		2265.625000
93		2265.625000
94		2265.625000
95		2265.625000
96		2265.625000
97		2265.625000
98		2265.625000
99		2265.625000
100		2265.625000
101		2265.625000
102		2265.625000
103		2265.625000
104		2265.625000
105		2265.625000
106		2265.625000
107		2187.500000
108		2265.625000
109		2265.625000
110		2187.500000
111		2265.625000
112		2265.625000
113		2187.500000
114		2187.500000
115		2187.500000
116		2187.500000
117		2187.500000
118		2187.500000
119		2187.500000
120		2187.500000
121		2187.500000
122		2187.500000
123		2187.500000
124		2187.500000
125		2187.500000
126		2187.500000
127		2187.500000
128		2187.500000
129		2187.500000
130		2187.500000
131		2187.500000
132		2187.500000
133		2187.500000
134		2187.500000
135		2187.500000
136		2187.500000
137		2187.500000
138		2187.500000
139		2187.500000
140		2187.500000
141		2187.500000
142		2187.500000
143		2187.500000
144		2187.500000
145		2187.500000
146		2187.500000
147		2187.500000
148		2187.500000
149		2187.500000
150		2187.500000
151		2187.500000
152		2187.500000
153		2187.500000
154		2187.500000
155		2187.500000
156		2187.500000
157		2187.500000
158		2187.500000
159		2187.500000
160		2187.500000
161		2187.500000
162		2187.500000
163		2187.500000
164		2187.500000
165		2187.500000
166		2187.500000
167		2109.375000
168		2187.500000
169		2187.500000
170		2187.500000
171		2187.500000
172		2187.500000
173		2187.500000
174		2187.500000
175		2187.500000
176		2109.375000
177		2187.500000
178		2187.500000
179		2109.375000
180		2187.500000
181		2109.375000
182		2109.375000
183		2109.375000
184		2109.375000
185		2109.375000
186		2109.375000
187		2109.375000
188		2109.375000
189		2109.375000
190		2109.375000
191		2109.375000
192		2109.375000
193		2109.375000
194		2109.375000
195		2109.375000
196		2109.375000
197		2109.375000
198		2109.375000
199		2109.375000
200		2109.375000
201		2109.375000
202		2109.375000
203		2109.375000
204		2109.375000
205		2109.375000
206		2109.375000
207		2109.375000
208		2109.375000
209		2109.375000
210		2109.375000
211		2109.375000
212		2109.375000
213		2109.375000
214		2109.375000
215		2109.375000
216		2109.375000
217		2109.375000
218		2109.375000
219		2109.375000
220		2109.375000
221		2109.375000
222		2109.375000
223		2109.375000
224		2109.375000
225		2109.375000
226		2109.375000
227		2109.375000
228		2109.375000
229		2109.375000
230		2109.375000
231		2109.375000
232		2109.375000
233		2109.375000
234		2109.375000
235		2109.375000
236		2109.375000
237		2109.375000
238		2109.375000
239		2109.375000
240		2109.375000
241		2109.375000
242		2109.375000
243		2109.375000
244		2109.375000
245		2109.375000
246		2109.375000
247		2109.375000
248		2109.375000
249		2109.375000
250		2109.375000
251		2109.375000
252		2109.375000
253		2109.375000
254		2109.375000
255		2109.375000
256		2109.375000
257		2109.375000
258		2109.375000
259		2109.375000
260		2109.375000
261		2109.375000
262		2109.375000
263		2109.375000
264		2109.375000
265		2109.375000
266		2109.375000
267		2109.375000
268		2109.375000
269		2109.375000
270		2109.375000
271		2109.375000
272		2109.375000
273		2109.375000
274		2109.375000
275		2109.375000
276		2109.375000
277		2109.375000
278		2109.375000
279		2109.375000
280		2109.375000
281		2109.375000
282		2031.250000
283		2109.375000
284		2109.375000
285		2109.375000
286		2109.375000
287		2031.250000
288		2109.375000
289		2109.375000
290		2109.375000
291		2109.375000
292		2109.375000
293		2109.375000
294		2109.375000
295		2109.375000
296		2109.375000
297		2031.250000
298		2109.375000
299		2109.375000
300		2031.250000
301		2031.250000
302		2109.375000
303		2031.250000
304		2031.250000
305		2109.375000
306		2031.250000
307		2109.375000
308		2031.250000
309		2031.250000
310		2031.250000
311		2031.250000
312		2031.250000
313		2031.250000
314		2031.250000
315		2031.250000
316		2109.375000
317		2031.250000
318		2031.250000
319		2031.250000
320		2031.250000
321		2031.250000
322		2109.375000
323		2031.250000
324		2031.250000
325		2031.250000
326		2031.250000
327		2031.250000
328		2031.250000
329		2031.250000
330		2031.250000
331		2031.250000
332		2031.250000
333		2031.250000
334		2109.375000
335		2031.250000
336		2031.250000
337		2031.250000
338		2109.375000
339		2031.250000
340		2031.250000
341		2031.250000
342		2031.250000
343		2031.250000
344		2031.250000
345		2031.250000
346		2031.250000
347		2031.250000
348		2031.250000
349		2031.250000
350		2031.250000
351		2031.250000
352		2031.250000
353		2031.250000
354		2031.250000
355		2031.250000
356		2031.250000
357		2031.250000
358		2109.375000
359		2109.375000
360		2031.250000
361		2109.375000
362		2031.250000
363		2031.250000
364		2031.250000
365		2031.250000
366		2031.250000
367		2031.250000
368		2031.250000
369		2031.250000
370		2031.250000
371		2031.250000
372		2031.250000
373		2109.375000
374		2109.375000
375		2031.250000
376		2109.375000
377		2109.375000
378		2109.375000
379		2109.375000
380		2109.375000
381		2031.250000
382		2031.250000
383		2031.250000
384		2031.250000
385		2031.250000
386		2031.250000
387		2031.250000
388		2031.250000
389		2031.250000
390		2031.250000
391		2109.375000
392		2109.375000
393		2109.375000
394		2109.375000
395		2109.375000
396		2109.375000
397		2109.375000
398		2109.375000
399		2109.375000
400		2109.375000
401		2109.375000
402		2109.375000
403		2031.250000
404		2031.250000
405		2109.375000
406		2109.375000
407		2109.375000
408		2109.375000
409		2109.375000
410		2109.375000
411		2109.375000
412		2109.375000
413		2109.375000
414		2109.375000
415		2109.375000
416		2109.375000
417		2109.375000
418		2109.375000
419		2109.375000
420		2109.375000
421		2109.375000
422		2109.375000
423		2109.375000
424		2109.375000
425		2109.375000
426		2109.375000
427		2109.375000
428		2109.375000
429		2109.375000
430		2109.375000
431		2109.375000
432		2109.375000
433		2109.375000
434		2109.375000
435		2109.375000
436		2109.375000
437		2109.375000
438		2109.375000
439		2109.375000
440		2109.375000
441		2109.375000
442		2109.375000
443		2109.375000
444		2109.375000
445		2109.375000
446		2109.375000
447		2109.375000
448		2109.375000
449		2109.375000
450		2109.375000
451		2109.375000
452		2109.375000
453		2109.375000
454		2109.375000
455		2109.375000
456		2109.375000
457		2109.375000
458		2109.375000
459		2109.375000
460		2109.375000
461		2109.375000
462		2109.375000
463		2109.375000
464		2109.375000
465		2109.375000
466		2109.375000
467		2109.375000
468		2109.375000
469		2109.375000
470		2109.375000
471		2109.375000
472		2109.375000
473		2109.375000
474		2109.375000
475		2109.375000
476		2109.375000
477		2109.375000
478		2109.375000
479		2109.375000
480		2109.375000
481		2109.375000
482		2109.375000
483		2109.375000
484		2109.375000
485		2109.375000
486		2109.375000
487		2109.375000
488		2109.375000
489		2109.375000
490		2109.375000
491		2109.375000
492		2109.375000
493		2109.375000
494		2109.375000
495		2109.375000
496		2109.375000
497		2109.375000
498		2109.375000
499		2109.375000
500		2109.375000
501		2109.375000
502		2109.375000
503		2187.500000
504		2109.375000
505		2109.375000
506		2187.500000
507		2187.500000
508		2109.375000
509		2187.500000
510		2109.375000
511		2187.500000
512		2109.375000
513		2187.500000
514		2187.500000
515		2187.500000
516		2187.500000
517		2187.500000
518		2187.500000
519		2187.500000
520		2187.500000
521		2187.500000
522		2187.500000
523		2187.500000
524		2187.500000
525		2187.500000
526		2187.500000
527		2187.500000
528		2187.500000
529		2187.500000
530		2187.500000
531		2187.500000
532		2187.500000
533		2187.500000
534		2187.500000
535		2187.500000
536		2187.500000
537		2187.500000
538		2187.500000
539		2187.500000
540		2187.500000
541		2187.500000
542		2187.500000
543		2187.500000
544		2187.500000
545		2187.500000
546		2187.500000
547		2187.500000
548		2187.500000
549		2187.500000
550		2187.500000
551		2187.500000
552		2187.500000
553		2187.500000
554		2187.500000
555		2187.500000
556		2187.500000
557		2187.500000
558		2187.500000
559		2187.500000
560		2187.500000
561		2187.500000
562		2187.500000
563		2187.500000
564		2187.500000
565		2187.500000
566		2187.500000
567		2187.500000
568		2187.500000
569		2187.500000
570		2187.500000
571		2265.625000
572		2265.625000
573		2265.625000
574		2265.625000
575		2265.625000
576		2265.625000
577		2265.625000
578		2265.625000
579		2265.625000
580		2265.625000
581		2265.625000
582		2265.625000
583		2265.625000
584		2265.625000
585		2265.625000
586		2265.625000
587		2265.625000
588		2265.625000
589		2265.625000
590		2265.625000
591		2265.625000
592		2265.625000
593		2265.625000
594		2265.625000
595		2265.625000
596		2265.625000
597		2265.625000
598		2265.625000
599		2265.625000
600		2265.625000
601		2265.625000
602		2265.625000
603		2265.625000
604		2265.625000
605		2265.625000
606		2265.625000
607		2265.625000
608		2265.625000
609		2265.625000
610		2265.625000
611		2265.625000
612		2265.625000
613		2265.625000
614		2265.625000
615		2343.750000
616		2265.625000
617		2265.625000
618		2343.750000
619		2343.750000
620		2265.625000
621		2265.625000
622		2265.625000
623		2343.750000
624		2343.750000
625		2343.750000
626		2343.750000
627		2343.750000
628		2343.750000
629		2343.750000
630		2343.750000
631		2343.750000
632		2343.750000
633		2343.750000
634		2343.750000
635		2343.750000
636		2343.750000
637		2343.750000
638		2343.750000
639		2343.750000
640		2343.750000
641		2343.750000
642		2343.750000
643		2343.750000
644		2343.750000
645		2343.750000
646		2343.750000
647		2343.750000
648		2343.750000
649		2343.750000
650		2343.750000
651		2343.750000
652		2343.750000
653		2343.750000
654		2421.875000
655		2421.875000
656		2421.875000
657		2343.750000
658		2421.875000
659		2421.875000
660		2421.875000
661		2421.875000
662		2421.875000
663		2421.875000
664		2421.875000
665		2421.875000
666		2421.875000
667		2421.875000
668		2421.875000
669		2421.875000
670		2421.875000
671		2421.875000
672		2421.875000
673		2421.875000
674		2421.875000
675		2421.875000
676		2421.875000
677		2421.875000
678		2421.875000
679		2421.875000
680		2421.875000
681		2421.875000
682		2421.875000
683		2421.875000
684		2421.875000
685		2421.875000
686		2421.875000
687		2421.875000
688		2421.875000
689		2421.875000
690		2421.875000
691		2500.000000
692		2500.000000
693		2500.000000
694		2500.000000
695		2500.000000
696		2500.000000
697		2500.000000
698		2500.000000
699		2500.000000
700		2500.000000
701		2500.000000
702		2500.000000
703		2500.000000
704		2500.000000
705		2500.000000
706		2500.000000
707		2500.000000
708		2500.000000
709		2500.000000
710		2500.000000
711		2500.000000
712		2500.000000
713		2500.000000
714		2500.000000
715		2500.000000
716		2500.000000
717		2500.000000
718		2578.125000
719		2578.125000
720		2578.125000
721		2578.125000
722		2500.000000
723		2578.125000
724		2578.125000
725		2578.125000
726		2578.125000
727		2578.125000
728		2578.125000
729		2578.125000
730		2578.125000
731		2578.125000
732		2578.125000
733		2578.125000
734		2578.125000
735		2578.125000
736		2578.125000
737		2578.125000
738		2578.125000
739		2578.125000
740		2578.125000
741		2578.125000
742		2578.125000
743		2578.125000
744		2578.125000
745		2578.125000
746		2578.125000
747		2578.125000
748		2578.125000
749		2578.125000
750		2656.250000
751		2656.250000
752		2656.250000
753		2656.250000
754		2656.250000
755		2656.250000
756		2656.250000
757		2656.250000
758		2656.250000
759		2656.250000
760		2656.250000
761		2656.250000
762		2656.250000
763		2656.250000
764		2656.250000
765		2656.250000
766		2656.250000
767		2656.250000
768		2656.250000
769		2656.250000
770		2656.250000
771		2656.250000
772		2656.250000
773		2734.375000
774		2734.375000
775		2734.375000
776		2734.375000
777		2734.375000
778		2734.375000
779		2734.375000
780		2734.375000
781		2734.375000
782		2734.375000
783		2734.375000
784		2734.375000
785		2734.375000
786		2734.375000
787		2734.375000
788		2734.375000
789		2734.375000
790		2734.375000
791		2734.375000
792		2734.375000
793		2734.375000
794		2734.375000
795		2734.375000
796		2734.375000
797		2812.500000
798		2812.500000
799		2812.500000
800		2734.375000
801		2812.500000
802		2812.500000
803		2812.500000
804		2812.500000
805		2812.500000
806		2812.500000
807		2812.500000
808		2812.500000
809		2812.500000
810		2812.500000
811		2812.500000
812		2812.500000
813		2812.500000
814		2812.500000
815		2812.500000
816		2812.500000
817		2812.500000
818		2812.500000
819		2812.500000
820		2812.500000
821		2812.500000
822		2812.500000
823		2812.500000
824		2890.625000
825		2890.625000
826		2890.625000
827		2890.625000
828		2890.625000
829		2890.625000
830		2890.625000
831		2890.625000
832		2890.625000
833		2890.625000
834		2890.625000
835		2890.625000
836		2890.625000
837		2890.625000
838		2890.625000
839		2890.625000
840		2890.625000
841		2890.625000
842		2890.625000
843		2890.625000
844		2890.625000
845		2968.750000
846		2968.750000
847		2968.750000
848		2968.750000
849		2968.750000
850		2968.750000
851		2968.750000
852		2968.750000
853		2968.750000
854		2968.750000
855		2968.750000
856		2968.750000
857		2968.750000
858		2968.750000
859		2968.750000
860		2968.750000
861		2968.750000
862		2968.750000
863		2968.750000
864		2968.750000
865		2968.750000
866		2968.750000
867		2968.750000
868		3046.875000
869		3046.875000
870		2968.750000
871		3046.875000
872		3046.875000
873		3046.875000
874		3046.875000
875		3046.875000
876		3046.875000
877		3046.875000
878		3046.875000
879		3046.875000
880		3046.875000
881		3046.875000
882		3046.875000
883		3046.875000
884		3046.875000
885		3046.875000
886		3046.875000
887		3046.875000
888		3046.875000
889		3046.875000
890		3046.875000
891		3046.875000
892		3125.000000
893		3125.000000
894		3125.000000
895		3125.000000
896		3125.000000
897		3125.000000
898		3125.000000
899		3125.000000
900		3125.000000
901		3125.000000
902		3125.000000
903		3125.000000
904		3125.000000
905		3125.000000
906		3125.000000
907		3125.000000
908		3125.000000
909		3125.000000
910		3125.000000
911		3125.000000
912		3125.000000
913		3125.000000
914		3203.125000
915		3203.125000
916		3203.125000
917		3203.125000
918		3203.125000
919		3203.125000
920		3203.125000
921		3203.125000
922		3203.125000
923		3203.125000
924		3203.125000
925		3203.125000
926		3203.125000
927		3203.125000
928		3203.125000
929		3203.125000
930		3203.125000
931		3203.125000
932		3203.125000
933		3203.125000
934		3203.125000
935		3203.125000
936		3281.250000
937		3281.250000
938		3281.250000
939		3281.250000
940		3281.250000
941		3281.250000
942		3281.250000
943		3281.250000
944		3281.250000
945		3281.250000
946		3281.250000
947		3281.250000
948		3281.250000
949		3281.250000
950		3281.250000
951		3281.250000
952		3281.250000
953		3281.250000
954		3281.250000
955		3281.250000
956		3281.250000
957		3281.250000
958		3281.250000
959		3281.250000
960		3281.250000
961		3281.250000
962		3281.250000
963		3281.250000
964		3281.250000
965		3281.250000
966		3281.250000
967		3359.375000
968		3359.375000
969		3359.375000
970		3359.375000
971		3359.375000
972		3359.375000
973		3359.375000
974		3359.375000
975		3359.375000
976		3359.375000
977		3359.375000
978		3359.375000
979		3359.375000
980		3359.375000
981		3359.375000
982		3359.375000
983		3359.375000
984		3359.375000
985		3359.375000
986		3359.375000
987		3359.375000
988		3437.500000
989		3437.500000
990		3437.500000
991		3437.500000
992		3437.500000
993		3437.500000
994		3437.500000
995		3437.500000
996		3437.500000
997		3437.500000
998		3437.500000
999		3437.500000
1000		3437.500000
1001		3437.500000
1002		3437.500000
1003		3437.500000
1004		3437.500000
1005		3437.500000
1006		3437.500000
1007		3437.500000
1008		3437.500000
1009		3437.500000
1010		3437.500000
1011		3437.500000
1012		3437.500000
1013		3437.500000
1014		3437.500000
1015		3437.500000
1016		3437.500000
1017		3437.500000
1018		3437.500000
1019		3437.500000
1020		3437.500000
1021		3515.625000
1022		3515.625000
1023		3515.625000
1024		3515.625000
1025		3515.625000
1026		3515.625000
1027		3515.625000
1028		3515.625000
1029		3515.625000
1030		3515.625000
1031		3515.625000
1032		3515.625000
1033		3515.625000
1034		3515.625000
1035		3515.625000
1036		3515.625000
1037		3515.625000
1038		3515.625000
1039		3515.625000
1040		3515.625000
1041		3515.625000
1042		3515.625000
1043		3515.625000
1044		3515.625000
1045		3515.625000
1046		3515.625000
1047		3515.625000
1048		3515.625000
1049		3515.625000
1050		3515.625000
1051		3515.625000
1052		3515.625000
1053		3515.625000
1054		3593.750000
1055		3593.750000
1056		3593.750000
1057		3593.750000
1058		3593.750000
1059		3593.750000
1060		3593.750000
1061		3593.750000
1062		3593.750000
1063		3593.750000
1064		3593.750000
1065		3593.750000
1066		3593.750000
1067		3593.750000
1068		3593.750000
1069		3593.750000
1070		3593.750000
1071		3593.750000
1072		3593.750000
1073		3593.750000
1074		3593.750000
1075		3593.750000
1076		3593.750000
1077		3593.750000
1078		3593.750000
1079		3593.750000
1080		3593.750000
1081		3593.750000
1082		3593.750000
1083		3593.750000
1084		3593.750000
1085		3593.750000
1086		3593.750000
1087		3593.750000
1088		3593.750000
1089		3593.750000
1090		3593.750000
1091		3593.750000
1092		3593.750000
1093		3593.750000
1094		3593.750000
1095		3593.750000
1096		3593.750000
1097		3593.750000
1098		3593.750000
1099		3593.750000
1100		3593.750000
1101		3671.875000
1102		3593.750000
1103		3671.875000
1104		3593.750000
1105		3671.875000
1106		3593.750000
1107		3593.750000
1108		3593.750000
1109		3671.875000
1110		3671.875000
1111		3671.875000
1112		3671.875000
1113		3671.875000
1114		3671.875000
1115		3671.875000
1116		3671.875000
1117		3671.875000
1118		3671.875000
1119		3671.875000
1120		3671.875000
1121		3671.875000
1122		3671.875000
1123		3671.875000
1124		3671.875000
1125		3671.875000
1126		3671.875000
1127		3671.875000
1128		3671.875000
1129		3671.875000
1130		3671.875000
1131		3671.875000
1132		3671.875000
1133		3671.875000
1134		3671.875000
1135		3671.875000
1136		3671.875000
1137		3671.875000
1138		3671.875000
1139		3671.875000
1140		3671.875000
1141		3671.875000
1142		3671.875000
1143		3671.875000
1144		3671.875000
1145		3671.875000
1146		3671.875000
1147		3671.875000
1148		3671.875000
1149		3671.875000
1150		3671.875000
1151		3671.875000
1152		3671.875000
1153		3671.875000
1154		3671.875000
1155		3671.875000
1156		3671.875000
1157		3671.875000
1158		3671.875000
1159		3671.875000
1160		3671.875000
1161		3671.875000
1162		3671.875000
1163		3671.875000
1164		3671.875000
1165		3671.875000
1166		3671.875000
1167		3671.875000
1168		3671.875000
1169		3671.875000
1170		3671.875000
1171		3671.875000
1172		3671.875000
1173		3671.875000
1174		3671.875000
1175		3671.875000
1176		3671.875000
1177		3671.875000
1178		3671.875000
1179		3671.875000
1180		3671.875000
1181		3671.875000
1182		3671.875000
1183		3671.875000
1184		3671.875000
1185		3671.875000
1186		3671.875000
1187		3671.875000
1188		3671.875000
1189		3671.875000
1190		3671.875000
1191		3671.875000
1192		3671.875000
1193		3671.875000
1194		3671.875000
1195		3671.875000
1196		3671.875000
1197		3671.875000
1198		3671.875000
1199		3671.875000
1200		3671.875000
1201		3671.875000
1202		3671.875000
1203		3671.875000
1204		3593.750000
1205		3671.875000
1206		3671.875000
1207		3671.875000
1208		3671.875000
1209		3671.875000
1210		3593.750000
1211		3671.875000
1212		3671.875000
1213		3671.875000
1214		3671.875000
1215		3593.750000
1216		3593.750000
1217		3593.750000
1218		3593.750000
1219		3593.750000
1220		3593.750000
1221		3593.750000
1222		3593.750000
1223		3593.750000
1224		3593.750000
1225		3593.750000
1226		3593.750000
1227		3593.750000
1228		3593.750000
1229		3593.750000
1230		3593.750000
1231		3593.750000
1232		3593.750000
1233		3593.750000
1234		3593.750000
1235		3593.750000
1236		3593.750000
1237		3593.750000
1238		3593.750000
1239		3593.750000
1240		3593.750000
1241		3593.750000
1242		3593.750000
1243		3593.750000
1244		3593.750000
1245		3593.750000
1246		3593.750000
1247		3593.750000
1248		3593.750000
1249		3593.750000
1250		3593.750000
1251		3593.750000
1252		3593.750000
1253		3593.750000
1254		3593.750000
1255		3593.750000
1256		3593.750000
1257		3593.750000
1258		3593.750000
1259		3593.750000
1260		3593.750000
1261		3593.750000
1262		3593.750000
1263		3593.750000
1264		3593.750000
1265		3593.750000
1266		3515.625000
1267		3515.625000
1268		3593.750000
1269		3515.625000
1270		3593.750000
1271		3515.625000
1272		3515.625000
1273		3515.625000
1274		3515.625000
1275		3515.625000
1276		3515.625000
1277		3515.625000
1278		3515.625000
1279		3515.625000
1280		3515.625000
1281		3515.625000
1282		3515.625000
1283		3515.625000
1284		3515.625000
1285		3515.625000
1286		3515.625000
1287		3515.625000
1288		3515.625000
1289		3515.625000
1290		3515.625000
1291		3515.625000
1292		3515.625000
1293		3515.625000
1294		3515.625000
1295		3515.625000
1296		3515.625000
1297		3515.625000
1298		3515.625000
1299		3515.625000
1300		3515.625000
1301		3515.625000
1302		3437.500000
1303		3437.500000
1304		3437.500000
1305		3437.500000
1306		3437.500000
1307		3437.500000
1308		3437.500000
1309		3437.500000
1310		3437.500000
1311		3437.500000
1312		3437.500000
1313		3437.500000
1314		3437.500000
1315		3437.500000
1316		3437.500000
1317		3437.500000
1318		3437.500000
1319		3437.500000
1320		3437.500000
1321		3437.500000
1322		3437.500000
1323		3437.500000
1324		3437.500000
1325		3437.500000
1326		3437.500000
1327		3437.500000
1328		3437.500000
1329		3359.375000
1330		3359.375000
1331		3359.375000
1332		3359.375000
1333		3359.375000
1334		3359.375000
1335		3359.375000
1336		3359.375000
1337		3359.375000
1338		3359.375000
1339		3359.375000
1340		3359.375000
1341		3359.375000
1342		3359.375000
1343		3359.375000
1344		3359.375000
1345		3359.375000
1346		3359.375000
1347		3359.375000
1348		3359.375000
1349		3359.375000
1350		3359.375000
1351		3359.375000
1352		3359.375000
1353		3359.375000
1354		3359.375000
1355		3359.375000
1356		3359.375000
1357		3359.375000
1358		3359.375000
1359		3281.250000
1360		3281.250000
1361		3281.250000
1362		3281.250000
1363		3281.250000
1364		3281.250000
1365		3281.250000
1366		3281.250000
1367		3281.250000
1368		3281.250000
1369		3281.250000
1370		3281.250000
1371		3281.250000
1372		3281.250000
1373		3281.250000
1374		3281.250000
1375		3281.250000
1376		3281.250000
1377		3281.250000
1378		3281.250000
1379		3281.250000
1380		3281.250000
1381		3281.250000
1382		3281.250000
1383		3281.250000
1384		3203.125000
1385		3203.125000
1386		3203.125000
1387		3203.125000
1388		3203.125000
1389		3203.125000
1390		3203.125000
1391		3203.125000
1392		3203.125000
1393		3203.125000
1394		3203.125000
1395		3203.125000
1396		3203.125000
1397		3203.125000
1398		3203.125000
1399		3203.125000
1400		3203.125000
1401		3203.125000
1402		3203.125000
1403		3203.125000
1404		3203.125000
1405		3203.125000
1406		3125.000000
1407		3203.125000
1408		3203.125000
1409		3125.000000
1410		3125.000000
1411		3125.000000
1412		3125.000000
1413		3125.000000
1414		3125.000000
1415		3125.000000
1416		3125.000000
1417		3125.000000
1418		3125.000000
1419		3125.000000
1420		3125.000000
1421		3125.000000
1422		3125.000000
1423		3125.000000
1424		3125.000000
1425		3125.000000
1426		3125.000000
1427		3125.000000
1428		3125.000000
1429		3125.000000
1430		3125.000000
1431		3125.000000
1432		3046.875000
1433		3046.875000
1434		3046.875000
1435		3046.875000
1436		3046.875000
1437		3046.875000
1438		3046.875000
1439		3046.875000
1440		3046.875000
1441		3046.875000
1442		3046.875000
1443		3046.875000
1444		3046.875000
1445		3046.875000
1446		3046.875000
1447		3046.875000
1448		3046.875000
1449		3046.875000
1450		3046.875000
1451		3046.875000
1452		3046.875000
1453		3046.875000
1454		3046.875000
1455		2968.750000
1456		2968.750000
1457		2968.750000
1458		2968.750000
1459		2968.750000
1460		2968.750000
1461		2968.750000
1462		2968.750000
1463		2968.750000
1464		2968.750000
1465		2968.750000
1466		2968.750000
1467		2968.750000
1468		2968.750000
1469		2968.750000
1470		2968.750000
1471		2968.750000
1472		2968.750000
1473		2968.750000
1474		2968.750000
1475		2968.750000
1476		2968.750000
1477		2968.750000
1478		2968.750000
1479		2890.625000
1480		2890.625000
1481		2890.625000
1482		2890.625000
1483		2890.625000
1484		2890.625000
1485		2890.625000
1486		2890.625000
1487		2890.625000
1488		2890.625000
1489		2890.625000
1490		2890.625000
1491		2890.625000
1492		2890.625000
1493		2890.625000
1494		2890.625000
1495		2890.625000
1496		2890.625000
1497		2890.625000
1498		2890.625000
1499		2890.625000
1500		2890.625000
1501		2890.625000
1502		2890.625000
1503		2812.500000
1504		2812.500000
1505		2812.500000
1506		2812.500000
1507		2812.500000
1508		2812.500000
1509		2812.500000
1510		2812.500000
1511		2812.500000
1512		2812.500000
1513		2812.500000
1514		2812.500000
1515		2812.500000
1516		2812.500000
1517		2812.500000
1518		2812.500000
1519		2812.500000
1520		2812.500000
1521		2812.500000
1522		2812.500000
1523		2812.500000
1524		2812.500000
1525		2812.500000
1526		2734.375000
1527		2734.375000
1528		2734.375000
1529		2734.375000
1530		2734.375000
1531		2734.375000
1532		2734.375000
1533		2734.375000
1534		2734.375000
1535		2734.375000
1536		2734.375000
1537		2734.375000
1538		2734.375000
1539		2734.375000
1540		2734.375000
1541		2734.375000
1542		2734.375000
1543		2734.375000
1544		2734.375000
1545		2734.375000
1546		2734.375000
1547		2734.375000
1548		2734.375000
1549		2734.375000
1550		2734.375000
1551		2734.375000
1552		2734.375000
1553		2734.375000
1554		2734.375000
1555		2734.375000
1556		2734.375000
1557		2734.375000
1558		2656.250000
1559		2656.250000
1560		2656.250000
1561		2656.250000
1562		2656.250000
1563		2656.250000
1564		2656.250000
1565		2656.250000
1566		2656.250000
1567		2656.250000
1568		2656.250000
1569		2656.250000
1570		2656.250000
1571		2656.250000
1572		2656.250000
1573		2656.250000
1574		2656.250000
1575		2656.250000
1576		2656.250000
1577		2656.250000
1578		2656.250000
1579		2656.250000
1580		2656.250000
1581		2578.125000
1582		2578.125000
1583		2578.125000
1584		2578.125000
1585		2578.125000
1586		2578.125000
1587		2578.125000
1588		2578.125000
1589		2578.125000
1590		2578.125000
1591		2578.125000
1592		2578.125000
1593		2578.125000
1594		2578.125000
1595		2578.125000
1596		2578.125000
1597		2578.125000
1598		2578.125000
1599		2578.125000
1600		2578.125000
1601		2578.125000
1602		2578.125000
1603		2578.125000
1604		2578.125000
1605		2578.125000
1606		2578.125000
1607		2578.125000
1608		2500.000000
1609		2578.125000
1610		2578.125000
1611		2500.000000
1612		2578.125000
1613		2500.000000
1614		2500.000000
1615		2500.000000
1616		2500.000000
1617		2500.000000
1618		2500.000000
1619		2500.000000
1620		2500.000000
1621		2500.000000
1622		2500.000000
1623		2500.000000
1624		2500.000000
1625		2500.000000
1626		2500.000000
1627		2500.000000
1628		2500.000000
1629		2500.000000
1630		2500.000000
1631		2500.000000
1632		2500.000000
1633		2500.000000
1634		2500.000000
1635		2500.000000
1636		2500.000000
1637		2500.000000
1638		2500.000000
1639		2500.000000
1640		2500.000000
1641		2500.000000
1642		2500.000000
1643		2500.000000
1644		2421.875000
1645		2421.875000
1646		2421.875000
1647		2421.875000
1648		2421.875000
1649		2421.875000
1650		2421.875000
1651		2421.875000
1652		2421.875000
1653		2421.875000
1654		2421.875000
1655		2421.875000
1656		2421.875000
1657		2421.875000
1658		2421.875000
1659		2421.875000
1660		2421.875000
1661		2421.875000
1662		2421.875000
1663		2421.875000
1664		2421.875000
1665		2421.875000
1666		2421.875000
1667		2421.875000
1668		2421.875000
1669		2421.875000
1670		2421.875000
1671		2421.875000
1672		2421.875000
1673		2421.875000
1674		2421.875000
1675		2421.875000
1676		2421.875000
1677		2421.875000
1678		2421.875000
1679		2421.875000
1680		2421.875000
1681		2421.875000
1682		2343.750000
1683		2343.750000
1684		2343.750000
1685		2343.750000
1686		2343.750000
1687		2343.750000
1688		2343.750000
1689		2343.750000
1690		2343.750000
1691		2343.750000
1692		2343.750000
1693		2343.750000
1694		2343.750000
1695		2343.750000
1696		2343.750000
1697		2343.750000
1698		2343.750000
1699		2343.750000
1700		2343.750000
1701		2343.750000
1702		2343.750000
1703		2343.750000
1704		2343.750000
1705		2343.750000
1706		2343.750000
1707		2343.750000
1708		2343.750000
1709		2343.750000
1710		2343.750000
1711		2343.750000
1712		2343.750000
1713		2343.750000
1714		2343.750000
1715		2343.750000
1716		2343.750000
1717		2343.750000
1718		2343.750000
1719		2343.750000
1720		2343.750000
1721		2343.750000
1722		2265.625000
1723		2265.625000
1724		2265.625000
1725		2265.625000
1726		2265.625000
1727		2265.625000
1728		2265.625000
1729		2265.625000
1730		2265.625000
1731		2265.625000
1732		2265.625000
1733		2265.625000
1734		2265.625000
1735		2265.625000
1736		2265.625000
1737		2265.625000
1738		2265.625000
1739		2265.625000
1740		2265.625000
1741		2265.625000
1742		2265.625000
1743		2265.625000
1744		2265.625000
1745		2265.625000
1746		2265.625000
1747		2265.625000
1748		2265.625000
1749		2265.625000
1750		2265.625000
1751		2265.625000
1752		2265.625000
1753		2265.625000
1754		2265.625000
1755		2265.625000
1756		2265.625000
1757		2265.625000
1758		2265.625000
1759		2265.625000
1760		2265.625000
1761		2265.625000
1762		2265.625000
1763		2265.625000
1764		2265.625000
1765		2265.625000
1766		2187.500000
1767		2265.625000
1768		2265.625000
1769		2265.625000
1770		2265.625000
1771		2265.625000
1772		2265.625000
1773		2265.625000
1774		2265.625000
1775		2187.500000
1776		2187.500000
1777		2187.500000
1778		2187.500000
1779		2187.500000
1780		2187.500000
1781		2187.500000
1782		2187.500000
1783		2187.500000
1784		2187.500000
1785		2187.500000
1786		2187.500000
1787		2187.500000
1788		2187.500000
1789		2187.500000
1790		2187.500000
1791		2187.500000
1792		2187.500000
1793		2187.500000
1794		2187.500000
1795		2187.500000
1796		2187.500000
1797		2187.500000
1798		2187.500000
1799		2187.500000
1800		2187.500000
1801		2187.500000
1802		2187.500000
1803		2187.500000
1804		2187.500000
1805		2187.500000
1806		2187.500000
1807		2187.500000
1808		2187.500000
1809		2187.500000
1810		2187.500000
1811		2187.500000
1812		2187.500000
1813		2187.500000
1814		2187.500000
1815		2187.500000
1816		2187.500000
1817		2187.500000
1818		2187.500000
1819		2187.500000
1820		2187.500000
1821		2187.500000
1822		2187.500000
1823		2187.500000
1824		2187.500000
1825		2187.500000
1826		2187.500000
1827		2187.500000
1828		2187.500000
1829		2187.500000
1830		2187.500000
1831		2187.500000
1832		2187.500000
1833		2187.500000
1834		2187.500000
1835		2187.500000
1836		2187.500000
1837		2187.500000
1838		2187.500000
1839		2187.500000
1840		2187.500000
1841		2187.500000
1842		2187.500000
1843		2109.375000
1844		2187.500000
1845		2109.375000
1846		2109.375000
1847		2187.500000
1848		2187.500000
1849		2109.375000
1850		2109.375000
1851		2109.375000
1852		2109.375000
1853		2109.375000
1854		2109.375000
1855		2109.375000
1856		2109.375000
1857		2109.375000
1858		2109.375000
1859		2109.375000
1860		2109.375000
1861		2109.375000
1862		2109.375000
1863		2109.375000
1864		2109.375000
1865		2109.375000
1866		2109.375000
1867		2109.375000
1868		2109.375000
1869		2109.375000
1870		2109.375000
1871		2109.375000
1872		2109.375000
1873		2109.375000
1874		2109.375000
1875		2109.375000
1876		2109.375000
1877		2109.375000
1878		2109.375000
1879		2109.375000
1880		2109.375000
1881		2109.375000
1882		2109.375000
1883		2109.375000
1884		2109.375000
1885		2109.375000
1886		2109.375000
1887		2109.375000
1888		2109.375000
1889		2109.375000
1890		2109.375000
1891		2109.375000
1892		2109.375000
1893		2109.375000
1894		2109.375000
1895		2109.375000
1896		2109.375000
1897		2109.375000
1898		2109.375000
1899		2109.375000
1900		2109.375000
1901		2109.375000
1902		2109.375000
1903		2109.375000
1904		2109.375000
1905		2109.375000
1906		2109.375000
1907		2109.375000
1908		2109.375000
1909		2109.375000
1910		2109.375000
1911		2109.375000
1912		2109.375000
1913		2109.375000
1914		2109.375000
1915		2109.375000
1916		2109.375000
1917		2109.375000
1918		2109.375000
1919		2109.375000
1920		2109.375000
1921		2109.375000
1922		2109.375000
1923		2109.375000
1924		2109.375000
1925		2109.375000
1926		2109.375000
1927		2109.375000
1928		2109.375000
1929		2109.375000
1930		2109.375000
1931		2109.375000
1932		2109.375000
1933		2109.375000
1934		2109.375000
1935		2109.375000
1936		2109.375000
1937		2109.375000
1938		2109.375000
1939		2109.375000
1940		2109.375000
1941		2109.375000
1942		2109.375000
1943		2109.375000
1944		2109.375000
1945		2109.375000
1946		2109.375000
1947		2109.375000
1948		2109.375000
1949		2109.375000
1950		2109.375000
1951		2109.375000
1952		2109.375000
1953		2109.375000
1954		2109.375000
1955		2109.375000
1956		2109.375000
1957		2109.375000
1958		2109.375000
1959		2109.375000
1960		2109.375000
1961		2109.375000
1962		2109.375000
1963		2109.375000
1964		2109.375000
1965		2109.375000
1966		2109.375000
1967		2109.375000
1968		2109.375000
1969		2109.375000
1970		2109.375000
1971		2109.375000
1972		2109.375000
1973		2109.375000
1974		2109.375000
1975		2109.375000
1976		2109.375000
1977		2109.375000
1978		2109.375000
1979		2109.375000
1980		2109.375000
1981		2109.375000
1982		2109.375000
1983		2109.375000
1984		2109.375000
1985		2109.375000
1986		2109.375000
1987		2109.375000
1988		2109.375000
1989		2109.375000
1990		2109.375000
1991		2109.375000
1992		2109.375000
1993		2109.375000
1994		2109.375000
1995		2109.375000
1996		2109.375000
1997		2109.375000
1998		2109.375000
1999		2109.375000
2000		2109.375000
2001		2109.375000
2002		2109.375000
2003		2109.375000
2004		2109.375000
2005		2109.375000
2006		2109.375000
2007		2109.375000
2008		2109.375000
2009		2109.375000
2010		2109.375000
2011		2109.375000
2012		2109.375000
2013		2109.375000
2014		2109.375000
2015		2109.375000
2016		2109.375000
2017		2109.375000
2018		2109.375000
2019		2109.375000
2020		2109.375000
2021		2109.375000
2022		2109.375000
2023		2109.375000
2024		2109.375000
2025		2109.375000
2026		2109.375000
2027		2109.375000
2028		2109.375000
2029		2109.375000
2030		2109.375000
2031		2109.375000
2032		2109.375000
2033		2109.375000
2034		2109.375000
2035		2109.375000
2036		2109.375000
2037		2109.375000
2038		2109.375000
2039		2109.375000
2040		2109.375000
2041		2109.375000
2042		2109.375000
2043		2109.375000
2044		2109.375000
2045		2109.375000
2046		2109.375000
2047		2109.375000
2048		2109.375000
2049		2109.375000
2050		2109.375000
2051		2109.375000
2052		2109.375000
2053		2109.375000
2054		2109.375000
2055		2109.375000
2056		2109.375000
2057		2109.375000
2058		2109.375000
2059		2109.375000
2060		2109.375000
2061		2109.375000
2062		2109.375000
2063		2109.375000
2064		2109.375000
2065		2109.375000
2066		2109.375000
2067		2109.375000
2068		2109.375000
2069		2109.375000
2070		2109.375000
2071		2109.375000
2072		2109.375000
2073		2109.375000
2074		2109.375000
2075		2109.375000
2076		2109.375000
2077		2109.375000
2078		2109.375000
2079		2109.375000
2080		2109.375000
2081		2109.375000
2082		2109.375000
2083		2109.375000
2084		2109.375000
2085		2109.375000
2086		2109.375000
2087		2109.375000
2088		2109.375000
2089		2109.375000
2090		2109.375000
2091		2109.375000
2092		2109.375000
2093		2109.375000
2094		2109.375000
2095		2109.375000
2096		2109.375000
2097		2109.375000
2098		2109.375000
2099		2109.375000
2100		2109.375000
2101		2109.375000
2102		2109.375000
2103		2109.375000
2104		2109.375000
2105		2109.375000
2106		2109.375000
2107		2109.375000
2108		2109.375000
2109		2109.375000
2110		2109.375000
2111		2109.375000
2112		2109.375000
2113		2109.375000
2114		2109.375000
2115		2109.375000
2116		2109.375000
2117		2109.375000
2118		2109.375000
2119		2109.375000
2120		2109.375000
2121		2109.375000
2122		2109.375000
2123		2109.375000
2124		2109.375000
2125		2109.375000
2126		2109.375000
2127		2109.375000
2128		2109.375000
2129		2109.375000
2130		2187.500000
2131		2187.500000
2132		2187.500000
2133		2187.500000
2134		2187.500000
2135		2187.500000
2136		2187.500000
2137		2187.500000
2138		2187.500000
2139		2187.500000
2140		2187.500000
2141		2109.375000
2142		2187.500000
2143		2187.500000
2144		2187.500000
2145		2187.500000
2146		2187.500000
2147		2187.500000
2148		2187.500000
2149		2187.500000
2150		2187.500000
2151		2187.500000
2152		2187.500000
2153		2187.500000
2154		2187.500000
2155		2187.500000
2156		2187.500000
2157		2187.500000
2158		2187.500000
2159		2187.500000
2160		2187.500000
2161		2187.500000
2162		2187.500000
2163		2187.500000
2164		2187.500000
2165		2187.500000
2166		2187.500000
2167		2187.500000
2168		2187.500000
2169		2187.500000
2170		2187.500000
2171		2187.500000
2172		2187.500000
2173		2187.500000
2174		2187.500000
2175		2187.500000
2176		2187.500000
2177		2187.500000
2178		2187.500000
2179		2187.500000
2180		2187.500000
2181		2187.500000
2182		2187.500000
2183		2187.500000
2184		2187.500000
2185		2187.500000
2186		2187.500000
2187		2187.500000
2188		2187.500000
2189		2187.500000
2190		2187.500000
2191		2187.500000
2192		2187.500000
2193		2187.500000
2194		2187.500000
2195		2187.500000
2196		2187.500000
2197		2187.500000
2198		2187.500000
2199		2187.500000
2200		2187.500000
2201		2187.500000
2202		2265.625000
2203		2187.500000
2204		2265.625000
2205		2187.500000
2206		2265.625000
2207		2265.625000
2208		2265.625000
2209		2265.625000
2210		2265.625000
2211		2265.625000
2212		2265.625000
2213		2265.625000
2214		2265.625000
2215		2265.625000
2216		2265.625000
2217		2265.625000
2218		2265.625000
2219		2265.625000
2220		2265.625000
2221		2265.625000
2222		2265.625000
2223		2265.625000
2224		2265.625000
2225		2265.625000
2226		2265.625000
2227		2265.625000
2228		2265.625000
2229		2265.625000
2230		2265.625000
2231		2265.625000
2232		2265.625000
2233		2265.625000
2234		2265.625000
2235		2265.625000
2236		2265.625000
2237		2265.625000
2238		2265.625000
2239		2265.625000
2240		2265.625000
2241		2265.625000
2242		2265.625000
2243		2265.625000
2244		2265.625000
2245		2265.625000
2246		2265.625000
2247		2265.625000
2248		2265.625000
2249		2265.625000
2250		2265.625000
2251		2265.625000
2252		2343.750000
2253		2343.750000
2254		2265.625000
2255		2343.750000
2256		2343.750000
2257		2343.750000
2258		2343.750000
2259		2343.750000
2260		2343.750000
2261		2343.750000
2262		2343.750000
2263		2343.750000
2264		2343.750000
2265		2343.750000
2266		2343.750000
2267		2343.750000
2268		2343.750000
2269		2343.750000
2270		2343.750000
2271		2343.750000
2272		2343.750000
2273		2343.750000
2274		2343.750000
2275		2343.750000
2276		2343.750000
2277		2343.750000
2278		2343.750000
2279		2343.750000
2280		2343.750000
2281		2343.750000
2282		2343.750000
2283		2343.750000
2284		2343.750000
2285		2343.750000
2286		2343.750000
2287		2343.750000
2288		2343.750000
2289		2343.750000
2290		2343.750000
2291		2343.750000
2292		2421.875000
2293		2421.875000
2294		2343.750000
2295		2421.875000
2296		2421.875000
2297		2421.875000
2298		2421.875000
2299		2421.875000
2300		2421.875000
2301		2421.875000
2302		2421.875000
2303		2421.875000
2304		2421.875000
2305		2421.875000
2306		2421.875000
2307		2421.875000
2308		2421.875000
2309		2421.875000
2310		2421.875000
2311		2421.875000
2312		2421.875000
2313		2421.875000
2314		2421.875000
2315		2421.875000
2316		2421.875000
2317		2421.875000
2318		2421.875000
2319		2421.875000
2320		2421.875000
2321		2421.875000
2322		2421.875000
2323		2421.875000
2324		2421.875000
2325		2421.875000
2326		2421.875000
2327		2421.875000
2328		2421.875000
2329		2421.875000
2330		2500.000000
2331		2500.000000
2332		2500.000000
2333		2500.000000
2334		2500.000000
2335		2500.000000
2336		2500.000000
2337		2500.000000
2338		2500.000000
2339		2500.000000
2340		2500.000000
2341		2500.000000
2342		2500.000000
2343		2500.000000
2344		2500.000000
2345		2500.000000
2346		2500.000000
2347		2500.000000
2348		2500.000000
2349		2500.000000
2350		2500.000000
2351		2500.000000
2352		2500.000000
2353		2500.000000
2354		2500.000000
2355		2500.000000
2356		2500.000000
2357		2500.000000
2358		2500.000000
2359		2500.000000
2360		2578.125000
2361		2500.000000
2362		2578.125000
2363		2578.125000
2364		2578.125000
2365		2578.125000
2366		2578.125000
2367		2578.125000
2368		2578.125000
2369		2578.125000
2370		2578.125000
2371		2578.125000
2372		2578.125000
2373		2578.125000
2374		2578.125000
2375		2578.125000
2376		2578.125000
2377		2578.125000
2378		2578.125000
2379		2578.125000
2380		2578.125000
2381		2578.125000
2382		2578.125000
2383		2578.125000
2384		2578.125000
2385		2578.125000
2386		2578.125000
2387		2578.125000
2388		2578.125000
2389		2578.125000
2390		2578.125000
2391		2656.250000
2392		2656.250000
2393		2656.250000
2394		2656.250000
2395		2656.250000
2396		2656.250000
2397		2656.250000
2398		2656.250000
2399		2656.250000
2400		2656.250000
2401		2656.250000
2402		2656.250000
2403		2656.250000
2404		2656.250000
2405		2656.250000
2406		2656.250000
2407		2656.250000
2408		2656.250000
2409		2656.250000
2410		2656.250000
2411		2656.250000
2412		2656.250000
2413		2656.250000
2414		2656.250000
2415		2734.375000
2416		2734.375000
2417		2734.375000
2418		2734.375000
2419		2734.375000
2420		2734.375000
2421		2734.375000
2422		2734.375000
2423		2734.375000
2424		2734.375000
2425		2734.375000
2426		2734.375000
2427		2734.375000
2428		2734.375000
2429		2734.375000
2430		2734.375000
2431		2734.375000
2432		2734.375000
2433		2734.375000
2434		2734.375000
2435		2734.375000
2436		2734.375000
2437		2734.375000
2438		2734.375000
2439		2812.500000
2440		2734.375000
2441		2812.500000
2442		2812.500000
2443		2812.500000
2444		2812.500000
2445		2812.500000
2446		2812.500000
2447		2812.500000
2448		2812.500000
2449		2812.500000
2450		2812.500000
2451		2812.500000
2452		2812.500000
2453		2812.500000
2454		2812.500000
2455		2812.500000
2456		2812.500000
2457		2812.500000
2458		2812.500000
2459		2812.500000
2460		2812.500000
2461		2812.500000
2462		2812.500000
2463		2812.500000
2464		2812.500000
2465		2812.500000
2466		2812.500000
2467		2890.625000
2468		2890.625000
2469		2890.625000
2470		2890.625000
2471		2890.625000
2472		2890.625000
2473		2890.625000
2474		2890.625000
2475		2890.625000
2476		2890.625000
2477		2890.625000
2478		2890.625000
2479		2890.625000
2480		2890.625000
2481		2890.625000
2482		2890.625000
2483		2890.625000
2484		2890.625000
2485		2890.625000
2486		2890.625000
2487		2890.625000
2488		2890.625000
2489		2968.750000
2490		2968.750000
2491		2968.750000
2492		2968.750000
2493		2968.750000
2494		2968.750000
2495		2968.750000
2496		2968.750000
2497		2968.750000
2498		2968.750000
2499		2968.750000
2500		2968.750000
2501		2968.750000
2502		2968.750000
2503		2968.750000
2504		2968.750000
2505		2968.750000
2506		2968.750000
2507		2968.750000
2508		2968.750000
2509		2968.750000
2510		3046.875000
2511		3046.875000
2512		3046.875000
2513		3046.875000
2514		3046.875000
2515		3046.875000
2516		3046.875000
2517		3046.875000
2518		3046.875000
2519		3046.875000
2520		3046.875000
2521		3046.875000
2522		3046.875000
2523		3046.875000
2524		3046.875000
2525		3046.875000
2526		3046.875000
2527		3046.875000
2528		3046.875000
2529		3046.875000
2530		3046.875000
2531		3046.875000
2532		3046.875000
2533		3046.875000
2534		3125.000000
2535		3125.000000
2536		3125.000000
2537		3125.000000
2538		3125.000000
2539		3125.000000
2540		3125.000000
2541		3125.000000
2542		3125.000000
2543		3125.000000
2544		3125.000000
2545		3125.000000
2546		3125.000000
2547		3125.000000
2548		3125.000000
2549		3125.000000
2550		3125.000000
2551		3125.000000
2552		3125.000000
2553		3125.000000
2554		3125.000000
2555		3125.000000
2556		3125.000000
2557		3125.000000
2558		3203.125000
2559		3203.125000
2560		3203.125000
2561		3203.125000
2562		3203.125000
2563		3203.125000
2564		3203.125000
2565		3203.125000
2566		3203.125000
2567		3203.125000
2568		3203.125000
2569		3203.125000
2570		3203.125000
2571		3203.125000
2572		3203.125000
2573		3203.125000
2574		3203.125000
2575		3203.125000
2576		3203.125000
2577		3203.125000
2578		3203.125000
2579		3203.125000
2580		3203.125000
2581		3281.250000
2582		3281.250000
2583		3281.250000
2584		3281.250000
2585		3281.250000
2586		3281.250000
2587		3281.250000
2588		3281.250000
2589		3281.250000
2590		3281.250000
2591		3281.250000
2592		3281.250000
2593		3281.250000
2594		3281.250000
2595		3281.250000
2596		3281.250000
2597		3281.250000
2598		3281.250000
2599		3281.250000
2600		3281.250000
2601		3281.250000
2602		3281.250000
2603		3281.250000
2604		3281.250000
2605		3281.250000
2606		3281.250000
2607		3359.375000
2608		3359.375000
2609		3359.375000
2610		3359.375000
2611		3359.375000
2612		3359.375000
2613		3359.375000
2614		3359.375000
2615		3359.375000
2616		3359.375000
2617		3359.375000
2618		3359.375000
2619		3359.375000
2620		3359.375000
2621		3359.375000
2622		3359.375000
2623		3359.375000
2624		3359.375000
2625		3359.375000
2626		3359.375000
2627		3359.375000
2628		3359.375000
2629		3359.375000
2630		3359.375000
2631		3359.375000
2632		3437.500000
2633		3437.500000
2634		3437.500000
2635		3437.500000
2636		3437.500000
2637		3437.500000
2638		3437.500000
2639		3437.500000
2640		3437.500000
2641		3437.500000
2642		3437.500000
2643		3437.500000
2644		3437.500000
2645		3437.500000
2646		3437.500000
2647		3437.500000
2648		3437.500000
2649		3437.500000
2650		3437.500000
2651		3437.500000
2652		3437.500000
2653		3437.500000
2654		3437.500000
2655		3437.500000
2656		3437.500000
2657		3437.500000
2658		3437.500000
2659		3437.500000
2660		3437.500000
2661		3437.500000
2662		3437.500000
2663		3437.500000
2664		3515.625000
2665		3437.500000
2666		3515.625000
2667		3515.625000
2668		3515.625000
2669		3515.625000
2670		3515.625000
2671		3515.625000
2672		3515.625000
2673		3515.625000
2674		3515.625000
2675		3515.625000
2676		3515.625000
2677		3515.625000
2678		3515.625000
2679		3515.625000
2680		3515.625000
2681		3515.625000
2682		3515.625000
2683		3515.625000
2684		3515.625000
2685		3515.625000
2686		3515.625000
2687		3515.625000
2688		3515.625000
2689		3515.625000
2690		3515.625000
2691		3515.625000
2692		3515.625000
2693		3515.625000
2694		3515.625000
2695		3593.750000
2696		3593.750000
2697		3515.625000
2698		3515.625000
2699		3593.750000
2700		3593.750000
2701		3593.750000
2702		3593.750000
2703		3593.750000
2704		3593.750000
2705		3593.750000
2706		3593.750000
2707		3593.750000
2708		3593.750000
2709		3593.750000
2710		3593.750000
2711		3593.750000
2712		3593.750000
2713		3593.750000
2714		3593.750000
2715		3593.750000
2716		3593.750000
2717		3593.750000
2718		3593.750000
2719		3593.750000
2720		3593.750000
2721		3593.750000
2722		3593.750000
2723		3593.750000
2724		3593.750000
2725		3593.750000
2726		3593.750000
2727		3593.750000
2728		3593.750000
2729		3593.750000
2730		3593.750000
2731		3593.750000
2732		3593.750000
2733		3593.750000
2734		3593.750000
2735		3593.750000
2736		3593.750000
2737		3593.750000
2738		3593.750000
2739		3593.750000
2740		3593.750000
2741		3593.750000
2742		3593.750000
2743		3593.750000
2744		3593.750000
2745		3671.875000
2746		3671.875000
2747		3593.750000
2748		3671.875000
2749		3671.875000
2750		3671.875000
2751		3671.875000
2752		3671.875000
2753		3671.875000
2754		3671.875000
2755		3671.875000
2756		3671.875000
2757		3671.875000
2758		3671.875000
2759		3671.875000
2760		3671.875000
2761		3671.875000
2762		3671.875000
2763		3671.875000
2764		3671.875000
2765		3671.875000
2766		3671.875000
2767		3671.875000
2768		3671.875000
2769		3671.875000
2770		3671.875000
2771		3671.875000
2772		3671.875000
2773		3671.875000
2774		3671.875000
2775		3671.875000
2776		3671.875000
2777		3671.875000
2778		3671.875000
2779		3671.875000
2780		3671.875000
2781		3671.875000
2782		3671.875000
2783		3671.875000
2784		3671.875000
2785		3671.875000
2786		3671.875000
2787		3671.875000
2788		3671.875000
2789		3671.875000
2790		3671.875000
2791		3671.875000
2792		3671.875000
2793		3671.875000
2794		3671.875000
2795		3671.875000
2796		3671.875000
2797		3671.875000
2798		3671.875000
2799		3671.875000
2800		3671.875000
2801		3671.875000
2802		3671.875000
2803		3671.875000
2804		3671.875000
2805		3671.875000
2806		3671.875000
2807		3671.875000
2808		3671.875000
2809		3671.875000
2810		3671.875000
2811		3671.875000
2812		3671.875000
2813		3671.875000
2814		3671.875000
2815		3671.875000
2816		3671.875000
2817		3671.875000
2818		3671.875000
2819		3671.875000
2820		3671.875000
2821		3671.875000
2822		3671.875000
2823		3671.875000
2824		3671.875000
2825		3671.875000
2826		3671.875000
2827		3671.875000
2828		3671.875000
2829		3671.875000
2830		3671.875000
2831		3671.875000
2832		3671.875000
2833		3671.875000
2834		3671.875000
2835		3671.875000
2836		3671.875000
2837		3671.875000
2838		3671.875000
2839		3671.875000
2840		3671.875000
2841		3671.875000
2842		3671.875000
2843		3671.875000
2844		3671.875000
2845		3671.875000
2846		3671.875000
2847		3671.875000
2848		3671.875000
2849		3671.875000
2850		3671.875000
2851		3671.875000
2852		3671.875000
2853		3671.875000
2854		3671.875000
2855		3671.875000
2856		3671.875000
2857		3671.875000
2858		3593.750000
2859		3593.750000
2860		3593.750000
2861		3593.750000
2862		3593.750000
2863		3593.750000
2864		3593.750000
2865		3593.750000
2866		3593.750000
2867		3593.750000
2868		3593.750000
2869		3593.750000
2870		3593.750000
2871		3593.750000
2872		3593.750000
2873		3593.750000
2874		3593.750000
2875		3593.750000
2876		3593.750000
2877		3593.750000
2878		3593.750000
2879		3593.750000
2880		3593.750000
2881		3593.750000
2882		3593.750000
2883		3593.750000
2884		3593.750000
2885		3593.750000
2886		3593.750000
2887		3593.750000
2888		3593.750000
2889		3593.750000
2890		3593.750000
2891		3593.750000
2892		3593.750000
2893		3593.750000
2894		3593.750000
2895		3593.750000
2896		3593.750000
2897		3593.750000
2898		3593.750000
2899		3593.750000
2900		3593.750000
2901		3593.750000
2902		3593.750000
2903		3593.750000
2904		3593.750000
2905		3593.750000
2906		3593.750000
2907		3593.750000
2908		3593.750000
2909		3593.750000
2910		3593.750000
2911		3593.750000
2912		3593.750000
2913		3515.625000
2914		3515.625000
2915		3515.625000
2916		3515.625000
2917		3515.625000
2918		3515.625000
2919		3515.625000
2920		3515.625000
2921		3515.625000
2922		3515.625000
2923		3515.625000
2924		3515.625000
2925		3515.625000
2926		3515.625000
2927		3515.625000
2928		3515.625000
2929		3515.625000
2930		3515.625000
2931		3515.625000
2932		3515.625000
2933		3515.625000
2934		3515.625000
2935		3515.625000
2936		3515.625000
2937		3515.625000
2938		3515.625000
2939		3515.625000
2940		3515.625000
2941		3515.625000
2942		3515.625000
2943		3515.625000
2944		3515.625000
2945		3515.625000
2946		3515.625000
2947		3515.625000
2948		3515.625000
2949		3437.500000
2950		3437.500000
2951		3437.500000
2952		3437.500000
2953		3437.500000
2954		3437.500000
2955		3437.500000
2956		3437.500000
2957		3437.500000
2958		3437.500000
2959		3437.500000
2960		3437.500000
2961		3437.500000
2962		3437.500000
2963		3437.500000
2964		3437.500000
2965		3437.500000
2966		3437.500000
2967		3437.500000
2968		3437.500000
2969		3437.500000
2970		3437.500000
2971		3437.500000
2972		3437.500000
2973		3437.500000
2974		3437.500000
2975		3437.500000
2976		3437.500000
2977		3437.500000
2978		3437.500000
2979		3359.375000
2980		3437.500000
2981		3437.500000
2982		3359.375000
2983		3359.375000
2984		3359.375000
2985		3359.375000
2986		3359.375000
2987		3359.375000
2988		3359.375000
2989		3359.375000
2990		3359.375000
2991		3359.375000
2992		3359.375000
2993		3359.375000
2994		3359.375000
2995		3359.375000
2996		3359.375000
2997		3359.375000
2998		3359.375000
2999		3359.375000
3000		3359.375000
3001		3359.375000
3002		3359.375000
3003		3359.375000
3004		3359.375000
3005		3359.375000
3006		3281.250000
3007		3281.250000
3008		3281.250000
3009		3281.250000
3010		3281.250000
3011		3281.250000
3012		3281.250000
3013		3281.250000
3014		3281.250000
3015		3281.250000
3016		3281.250000
3017		3281.250000
3018		3281.250000
3019		3281.250000
3020		3281.250000
3021		3281.250000
3022		3281.250000
3023		3281.250000
3024		3281.250000
3025		3281.250000
3026		3281.250000
3027		3281.250000
3028		3203.125000
3029		3281.250000
3030		3281.250000
3031		3281.250000
3032		3281.250000
3033		3203.125000
3034		3281.250000
3035		3203.125000
3036		3281.250000
3037		3203.125000
3038		3203.125000
3039		3203.125000
3040		3203.125000
3041		3203.125000
3042		3203.125000
3043		3203.125000
3044		3203.125000
3045		3203.125000
3046		3203.125000
3047		3203.125000
3048		3203.125000
3049		3203.125000
3050		3203.125000
3051		3203.125000
3052		3203.125000
3053		3203.125000
3054		3203.125000
3055		3203.125000
3056		3203.125000
3057		3203.125000
3058		3125.000000
3059		3125.000000
3060		3125.000000
3061		3125.000000
3062		3125.000000
3063		3125.000000
3064		3125.000000
3065		3125.000000
3066		3125.000000
3067		3125.000000
3068		3125.000000
3069		3125.000000
3070		3125.000000
3071		3125.000000
3072		3125.000000
3073		3125.000000
3074		3125.000000
3075		3125.000000
3076		3125.000000
3077		3125.000000
3078		3125.000000
3079		3046.875000
3080		3046.875000
3081		3046.875000
3082		3046.875000
3083		3046.875000
3084		3046.875000
3085		3046.875000
3086		3046.875000
3087		3046.875000
3088		3046.875000
3089		3046.875000
3090		3046.875000
3091		3046.875000
3092		3046.875000
3093		3046.875000
3094		3046.875000
3095		3046.875000
3096		3046.875000
3097		3046.875000
3098		3046.875000
3099		3046.875000
3100		3046.875000
3101		2968.750000
3102		3046.875000
3103		3046.875000
3104		2968.750000
3105		2968.750000
3106		2968.750000
3107		2968.750000
3108		2968.750000
3109		2968.750000
3110		2968.750000
3111		2968.750000
3112		2968.750000
3113		2968.750000
3114		2968.750000
3115		2968.750000
3116		2968.750000
3117		2968.750000
3118		2968.750000
3119		2968.750000
3120		2968.750000
3121		2968.750000
3122		2968.750000
3123		2968.750000
3124		2968.750000
3125		2968.750000
3126		2968.750000
3127		2968.750000
3128		2890.625000
3129		2968.750000
3130		2890.625000
3131		2890.625000
3132		2890.625000
3133		2890.625000
3134		2890.625000
3135		2890.625000
3136		2890.625000
3137		2890.625000
3138		2890.625000
3139		2890.625000
3140		2890.625000
3141		2890.625000
3142		2890.625000
3143		2890.625000
3144		2890.625000
3145		2890.625000
3146		2890.625000
3147		2890.625000
3148		2890.625000
3149		2890.625000
3150		2890.625000
3151		2890.625000
3152		2890.625000
3153		2812.500000
3154		2812.500000
3155		2812.500000
3156		2812.500000
3157		2812.500000
3158		2812.500000
3159		2812.500000
3160		2812.500000
3161		2812.500000
3162		2812.500000
3163		2812.500000
3164		2812.500000
3165		2812.500000
3166		2812.500000
3167		2812.500000
3168		2812.500000
3169		2812.500000
3170		2812.500000
3171		2812.500000
3172		2812.500000
3173		2812.500000
3174		2812.500000
3175		2812.500000
3176		2812.500000
3177		2812.500000
3178		2812.500000
3179		2812.500000
3180		2734.375000
3181		2734.375000
3182		2734.375000
3183		2734.375000
3184		2734.375000
3185		2734.375000
3186		2734.375000
3187		2734.375000
3188		2734.375000
3189		2734.375000
3190		2734.375000
3191		2734.375000
3192		2734.375000
3193		2734.375000
3194		2734.375000
3195		2734.375000
3196		2734.375000
3197		2734.375000
3198		2734.375000
3199		2734.375000
3200		2734.375000
3201		2734.375000
3202		2734.375000
3203		2734.375000
3204		2656.250000
3205		2656.250000
3206		2656.250000
3207		2656.250000
3208		2656.250000
3209		2656.250000
3210		2656.250000
3211		2656.250000
3212		2656.250000
3213		2656.250000
3214		2656.250000
3215		2656.250000
3216		2656.250000
3217		2656.250000
3218		2656.250000
3219		2656.250000
3220		2656.250000
3221		2656.250000
3222		2656.250000
3223		2656.250000
3224		2656.250000
3225		2656.250000
3226		2656.250000
3227		2656.250000
3228		2656.250000
3229		2656.250000
3230		2656.250000
3231		2578.125000
3232		2656.250000
3233		2656.250000
3234		2578.125000
3235		2578.125000
3236		2578.125000
3237		2578.125000
3238		2578.125000
3239		2578.125000
3240		2578.125000
3241		2578.125000
3242		2578.125000
3243		2578.125000
3244		2578.125000
3245		2578.125000
3246		2578.125000
3247		2578.125000
3248		2578.125000
3249		2578.125000
3250		2578.125000
3251		2578.125000
3252		2578.125000
3253		2578.125000
3254		2578.125000
3255		2578.125000
3256		2578.125000
3257		2578.125000
3258		2578.125000
3259		2578.125000
3260		2500.000000
3261		2500.000000
3262		2500.000000
3263		2500.000000
3264		2500.000000
3265		2500.000000
3266		2500.000000
3267		2500.000000
3268		2500.000000
3269		2500.000000
3270		2500.000000
3271		2500.000000
3272		2500.000000
3273		2500.000000
3274		2500.000000
3275		2500.000000
3276		2500.000000
3277		2500.000000
3278		2500.000000
3279		2500.000000
3280		2500.000000
3281		2500.000000
3282		2500.000000
3283		2500.000000
3284		2500.000000
3285		2500.000000
3286		2500.000000
3287		2500.000000
3288		2500.000000
3289		2500.000000
3290		2500.000000
3291		2500.000000
3292		2500.000000
3293		2421.875000
3294		2500.000000
3295		2421.875000
3296		2421.875000
3297		2421.875000
3298		2421.875000
3299		2421.875000
3300		2421.875000
3301		2421.875000
3302		2421.875000
3303		2421.875000
3304		2421.875000
3305		2421.875000
3306		2421.875000
3307		2421.875000
3308		2421.875000
3309		2421.875000
3310		2421.875000
3311		2421.875000
3312		2421.875000
3313		2421.875000
3314		2421.875000
3315		2421.875000
3316		2421.875000
3317		2421.875000
3318		2421.875000
3319		2421.875000
3320		2421.875000
3321		2421.875000
3322		2421.875000
3323		2421.875000
3324		2421.875000
3325		2421.875000
3326		2421.875000
3327		2421.875000
3328		2421.875000
3329		2421.875000
3330		2421.875000
3331		2421.875000
3332		2421.875000
3333		2343.750000
3334		2343.750000
3335		2343.750000
3336		2343.750000
3337		2343.750000
3338		2343.750000
3339		2343.750000
3340		2343.750000
3341		2343.750000
3342		2343.750000
3343		2343.750000
3344		2343.750000
3345		2343.750000
3346		2343.750000
3347		2343.750000
3348		2343.750000
3349		2343.750000
3350		2343.750000
3351		2343.750000
3352		2343.750000
3353		2343.750000
3354		2343.750000
3355		2343.750000
3356		2343.750000
3357		2343.750000
3358		2343.750000
3359		2343.750000
3360		2343.750000
3361		2343.750000
3362		2343.750000
3363		2343.750000
3364		2343.750000
3365		2343.750000
3366		2343.750000
3367		2343.750000
3368		2343.750000
3369		2343.750000
3370		2343.750000
3371		2265.625000
3372		2343.750000
3373		2343.750000
3374		2265.625000
3375		2265.625000
3376		2343.750000
3377		2265.625000
3378		2343.750000
3379		2265.625000
3380		2265.625000
3381		2265.625000
3382		2265.625000
3383		2265.625000
3384		2265.625000
3385		2265.625000
3386		2265.625000
3387		2265.625000
3388		2265.625000
3389		2265.625000
3390		2265.625000
3391		2265.625000
3392		2265.625000
3393		2265.625000
3394		2265.625000
3395		2265.625000
3396		2265.625000
3397		2265.625000
3398		2265.625000
3399		2265.625000
3400		2265.625000
3401		2265.625000
3402		2265.625000
3403		2265.625000
3404		2265.625000
3405		2265.625000
3406		2265.625000
3407		2265.625000
3408		2265.625000
3409		2265.625000
3410		2265.625000
3411		2265.625000
3412		2265.625000
3413		2265.625000
3414		2265.625000
3415		2265.625000
3416		2265.625000
3417		2265.625000
3418		2265.625000
3419		2265.625000
3420		2187.500000
3421		2265.625000
3422		2187.500000
3423		2265.625000
3424		2187.500000
3425		2187.500000
3426		2187.500000
3427		2187.500000
3428		2187.500000
3429		2187.500000
3430		2187.500000
3431		2187.500000
3432		2187.500000
3433		2187.500000
3434		2187.500000
3435		2187.500000
3436		2187.500000
3437		2187.500000
3438		2187.500000
3439		2187.500000
3440		2187.500000
3441		2187.500000
3442		2187.500000
3443		2187.500000
3444		2187.500000
3445		2187.500000
3446		2187.500000
3447		2187.500000
3448		2187.500000
3449		2187.500000
3450		2187.500000
3451		2187.500000
3452		2187.500000
3453		2187.500000
3454		2187.500000
3455		2187.500000
3456		2187.500000
3457		2187.500000
3458		2187.500000
3459		2187.500000
3460		2187.500000
3461		2187.500000
3462		2187.500000
3463		2187.500000
3464		2187.500000
3465		2187.500000
3466		2187.500000
3467		2187.500000
3468		2187.500000
3469		2187.500000
3470		2187.500000
3471		2187.500000
3472		2187.500000
3473		2187.500000
3474		2187.500000
3475		2187.500000
3476		2187.500000
3477		2187.500000
3478		2187.500000
3479		2187.500000
3480		2187.500000
3481		2187.500000
3482		2109.375000
3483		2187.500000
3484		2187.500000
3485		2187.500000
3486		2187.500000
3487		2187.500000
3488		2187.500000
3489		2187.500000
3490		2187.500000
3491		2187.500000
3492		2187.500000
3493		2187.500000
3494		2187.500000
3495		2187.500000
3496		2187.500000
3497		2187.500000
3498		2187.500000
3499		2187.500000
3500		2109.375000
3501		2109.375000
3502		2187.500000
3503		2109.375000
3504		2109.375000
3505		2109.375000
3506		2109.375000
3507		2109.375000
3508		2109.375000
3509		2109.375000
3510		2109.375000
3511		2109.375000
3512		2109.375000
3513		2109.375000
3514		2109.375000
3515		2109.375000
3516		2109.375000
3517		2109.375000
3518		2109.375000
3519		2109.375000
3520		2109.375000
3521		2109.375000
3522		2109.375000
3523		2109.375000
3524		2109.375000
3525		2109.375000
3526		2109.375000
3527		2109.375000
3528		2109.375000
3529		2109.375000
3530		2109.375000
3531		2109.375000
3532		2109.375000
3533		2109.375000
3534		2109.375000
3535		2109.375000
3536		2109.375000
3537		2109.375000
3538		2109.375000
3539		2109.375000
3540		2109.375000
3541		2109.375000
3542		2109.375000
3543		2109.375000
3544		2109.375000
3545		2109.375000
3546		2109.375000
3547		2109.375000
3548		2109.375000
3549		2109.375000
3550		2109.375000
3551		2109.375000
3552		2109.375000
3553		2109.375000
3554		2109.375000
3555		2109.375000
3556		2109.375000
3557		2109.375000
3558		2109.375000
3559		2109.375000
3560		2109.375000
3561		2109.375000
3562		2109.375000
3563		2109.375000
3564		2109.375000
3565		2109.375000
3566		2109.375000
3567		2109.375000
3568		2109.375000
3569		2109.375000
3570		2109.375000
3571		2109.375000
3572		2109.375000
3573		2109.375000
3574		2109.375000
3575		2109.375000
3576		2109.375000
3577		2109.375000
3578		2109.375000
3579		2109.375000
3580		2109.375000
3581		2109.375000
3582		2109.375000
3583		2109.375000
3584		2109.375000
3585		2109.375000
3586		2109.375000
3587		2109.375000
3588		2109.375000
3589		2109.375000
3590		2109.375000
3591		2109.375000
3592		2109.375000
3593		2109.375000
3594		2109.375000
3595		2109.375000
3596		2109.375000
3597		2109.375000
3598		2109.375000
3599		2109.375000
3600		2109.375000
3601		2109.375000
3602		2109.375000
3603		2109.375000
3604		2109.375000
3605		2109.375000
3606		2109.375000
3607		2109.375000
3608		2109.375000
3609		2109.375000
3610		2109.375000
3611		2109.375000
3612		2109.375000
3613		2109.375000
3614		2109.375000
3615		2109.375000
3616		2109.375000
3617		2109.375000
3618		2109.375000
3619		2109.375000
3620		2109.375000
3621		2109.375000
3622		2109.375000
3623		2109.375000
3624		2109.375000
3625		2109.375000
3626		2109.375000
3627		2109.375000
3628		2109.375000
3629		2109.375000
3630		2109.375000
3631		2109.375000
3632		2109.375000
3633		2109.375000
3634		2109.375000
3635		2109.375000
3636		2109.375000
3637		2109.375000
3638		2109.375000
3639		2109.375000
3640		2109.375000
3641		2109.375000
3642		2109.375000
3643		2109.375000
3644		2109.375000
3645		2109.375000
3646		2109.375000
3647		2109.375000
3648		2109.375000
3649		2109.375000
3650		2109.375000
3651		2109.375000
3652		2109.375000
3653		2109.375000
3654		2109.375000
3655		2109.375000
3656		2109.375000
3657		2109.375000
3658		2109.375000
3659		2109.375000
3660		2109.375000
3661		2109.375000
3662		2109.375000
3663		2109.375000
3664		2109.375000
3665		2109.375000
3666		2109.375000
3667		2109.375000
3668		2109.375000
3669		2109.375000
3670		2109.375000
3671		2109.375000
3672		2109.375000
3673		2109.375000
3674		2109.375000
3675		2109.375000
3676		2109.375000
3677		2109.375000
3678		2109.375000
3679		2109.375000
3680		2109.375000
3681		2109.375000
3682		2109.375000
3683		2109.375000
3684		2109.375000
3685		2109.375000
3686		2109.375000
3687		2109.375000
3688		2109.375000
3689		2109.375000
3690		2109.375000
3691		2109.375000
3692		2109.375000
3693		2109.375000
3694		2109.375000
3695		2109.375000
3696		2109.375000
3697		2109.375000
3698		2109.375000
3699		2109.375000
3700		2109.375000
3701		2109.375000
3702		2109.375000
3703		2109.375000
3704		2109.375000
3705		2109.375000
3706		2109.375000
3707		2109.375000
3708		2109.375000
3709		2109.375000
3710		2109.375000
3711		2109.375000
3712		2109.375000
3713		2109.375000
3714		2109.375000
3715		2109.375000
3716		2109.375000
3717		2109.375000
3718		2109.375000
3719		2109.375000
3720		2109.375000
3721		2109.375000
3722		2109.375000
3723		2109.375000
3724		2109.375000
3725		2109.375000
3726		2109.375000
3727		2109.375000
3728		2109.375000
3729		2109.375000
3730		2109.375000
3731		2109.375000
3732		2109.375000
3733		2109.375000
3734		2109.375000
3735		2109.375000
3736		2109.375000
3737		2109.375000
3738		2109.375000
3739		2109.375000
3740		2109.375000
3741		2109.375000
3742		2109.375000
3743		2109.375000
3744		2109.375000
3745		2109.375000
3746		2109.375000
3747		2109.375000
3748		2109.375000
3749		2109.375000
3750		2109.375000
3751		2109.375000
3752		2109.375000
3753		2109.375000
3754		2109.375000
3755		2109.375000
3756		2109.375000
3757		2109.375000
3758		2109.375000
3759		2109.375000
3760		2109.375000
3761		2109.375000
3762		2109.375000
3763		2109.375000
3764		2109.375000
3765		2109.375000
3766		2109.375000
3767		2109.375000
3768		2109.375000
3769		2109.375000
3770		2109.375000
3771		2187.500000
3772		2187.500000
3773		2187.500000
3774		2187.500000
3775		2187.500000
3776		2187.500000
3777		2187.500000
3778		2187.500000
3779		2187.500000
3780		2187.500000
3781		2187.500000
3782		2187.500000
3783		2187.500000
3784		2187.500000
3785		2187.500000
3786		2187.500000
3787		2187.500000
3788		2187.500000
3789		2187.500000
3790		2187.500000
3791		2187.500000
3792		2187.500000
3793		2187.500000
3794		2187.500000
3795		2187.500000
3796		2187.500000
3797		2187.500000
3798		2187.500000
3799		2187.500000
3800		2187.500000
3801		2187.500000
3802		2187.500000
3803		2187.500000
3804		2187.500000
3805		2187.500000
3806		2187.500000
3807		2187.500000
3808		2187.500000
3809		2187.500000
3810		2187.500000
3811		2187.500000
3812		2187.500000
3813		2187.500000
3814		2187.500000
3815		2187.500000
3816		2187.500000
3817		2187.500000
3818		2187.500000
3819		2187.500000
3820		2187.500000
3821		2187.500000
3822		2187.500000
3823		2187.500000
3824		2187.500000
3825		2187.500000
3826		2187.500000
3827		2187.500000
3828		2187.500000
3829		2187.500000
3830		2187.500000
3831		2187.500000
3832		2187.500000
3833		2187.500000
3834		2265.625000
3835		2187.500000
3836		2187.500000
3837		2187.500000
3838		2187.500000
3839		2187.500000
3840		2187.500000
3841		2187.500000
3842		2187.500000
3843		2187.500000
3844		2187.500000
3845		2265.625000
3846		2265.625000
3847		2265.625000
3848		2265.625000
3849		2265.625000
3850		2265.625000
3851		2265.625000
3852		2265.625000
3853		2265.625000
3854		2265.625000
3855		2265.625000
3856		2265.625000
3857		2265.625000
3858		2265.625000
3859		2265.625000
3860		2265.625000
3861		2265.625000
3862		2265.625000
3863		2265.625000
3864		2265.625000
3865		2265.625000
3866		2265.625000
3867		2265.625000
3868		2265.625000
3869		2265.625000
3870		2265.625000
3871		2265.625000
3872		2265.625000
3873		2265.625000
3874		2265.625000
3875		2265.625000
3876		2265.625000
3877		2265.625000
3878		2265.625000
3879		2265.625000
3880		2265.625000
3881		2265.625000
3882		2265.625000
3883		2265.625000
3884		2265.625000
3885		2265.625000
3886		2265.625000
3887		2265.625000
3888		2265.625000
3889		2265.625000
3890		2343.750000
3891		2265.625000
3892		2265.625000
3893		2343.750000
3894		2343.750000
3895		2265.625000
3896		2343.750000
3897		2343.750000
3898		2343.750000
3899		2343.750000
3900		2343.750000
3901		2343.750000
3902		2343.750000
3903		2343.750000
3904		2343.750000
3905		2343.750000
3906		2343.750000
3907		2343.750000
3908		2343.750000
3909		2343.750000
3910		2343.750000
3911		2343.750000
3912		2343.750000
3913		2343.750000
3914		2343.750000
3915		2343.750000
3916		2343.750000
3917		2343.750000
3918		2343.750000
3919		2343.750000
3920		2343.750000
3921		2343.750000
3922		2343.750000
3923		2343.750000
3924		2343.750000
3925		2343.750000
3926		2343.750000
3927		2343.750000
3928		2343.750000
3929		2343.750000
3930		2343.750000
3931		2343.750000
3932		2421.875000
3933		2343.750000
3934		2343.750000
3935		2421.875000
3936		2421.875000
3937		2421.875000
3938		2421.875000
3939		2421.875000
3940		2421.875000
3941		2421.875000
3942		2421.875000
3943		2421.875000
3944		2421.875000
3945		2421.875000
3946		2421.875000
3947		2421.875000
3948		2421.875000
3949		2421.875000
3950		2421.875000
3951		2421.875000
3952		2421.875000
3953		2421.875000
3954		2421.875000
3955		2421.875000
3956		2421.875000
3957		2421.875000
3958		2421.875000
3959		2421.875000
3960		2421.875000
3961		2421.875000
3962		2421.875000
3963		2421.875000
3964		2421.875000
3965		2421.875000
3966		2421.875000
3967		2421.875000
3968		2421.875000
3969		2421.875000
3970		2421.875000
3971		2421.875000
3972		2500.000000
3973		2500.000000
3974		2500.000000
3975		2500.000000
3976		2500.000000
3977		2500.000000
3978		2500.000000
3979		2500.000000
3980		2500.000000
3981		2500.000000
3982		2500.000000
3983		2500.000000
3984		2500.000000
3985		2500.000000
3986		2500.000000
3987		2500.000000
3988		2500.000000
3989		2500.000000
3990		2500.000000
3991		2500.000000
3992		2500.000000
3993		2500.000000
3994		2500.000000
3995		2500.000000
3996		2500.000000
3997		2500.000000
3998		2500.000000
3999		2500.000000
4000		2500.000000
4001		2500.000000
4002		2500.000000
4003		2500.000000
4004		2500.000000
4005		2578.125000
4006		2578.125000
4007		2578.125000
4008		2578.125000
4009		2578.125000
4010		2578.125000
4011		2578.125000
4012		2578.125000
4013		2578.125000
4014		2578.125000
4015		2578.125000
4016		2578.125000
4017		2578.125000
4018		2578.125000
4019		2578.125000
4020		2578.125000
4021		2578.125000
4022		2578.125000
4023		2578.125000
4024		2578.125000
4025		2578.125000
4026		2578.125000
4027		2578.125000
4028		2578.125000
4029		2578.125000
4030		2578.125000
4031		2578.125000
4032		2656.250000
4033		2656.250000
4034		2656.250000
4035		2656.250000
4036		2656.250000
4037		2578.125000
4038		2656.250000
4039		2656.250000
4040		2656.250000
4041		2656.250000
4042		2656.250000
4043		2656.250000
4044		2656.250000
4045		2656.250000
4046		2656.250000
4047		2656.250000
4048		2656.250000
4049		2656.250000
4050		2656.250000
4051		2656.250000
4052		2656.250000
4053		2656.250000
4054		2656.250000
4055		2656.250000
4056		2656.250000
4057		2656.250000
4058		2656.250000
4059		2656.250000
4060		2734.375000
4061		2656.250000
4062		2734.375000
4063		2734.375000
4064		2734.375000
4065		2734.375000
4066		2734.375000
4067		2734.375000
4068		2734.375000
4069		2734.375000
4070		2734.375000
4071		2734.375000
4072		2734.375000
4073		2734.375000
4074		2734.375000
4075		2734.375000
4076		2734.375000
4077		2734.375000
4078		2734.375000
4079		2734.375000
4080		2734.375000
4081		2734.375000
4082		2734.375000
4083		2812.500000
4084		2812.500000
4085		2812.500000
4086		2812.500000
4087		2812.500000
4088		2812.500000
4089		2812.500000
4090		2812.500000
4091		2812.500000
4092		2812.500000
4093		2812.500000
4094		2812.500000
4095		2812.500000
4096		2812.500000
4097		2812.500000
4098		2812.500000
4099		2812.500000
4100		2812.500000
4101		2812.500000
4102		2812.500000
4103		2812.500000
4104		2812.500000
4105		2812.500000
4106		2812.500000
4107		2812.500000
4108		2812.500000
4109		2812.500000
4110		2890.625000
4111		2890.625000
4112		2890.625000
4113		2890.625000
4114		2890.625000
4115		2890.625000
4116		2890.625000
4117		2890.625000
4118		2890.625000
4119		2890.625000
4120		2890.625000
4121		2890.625000
4122		2890.625000
4123		2890.625000
4124		2890.625000
4125		2890.625000
4126		2890.625000
4127		2890.625000
4128		2890.625000
4129		2890.625000
4130		2890.625000
4131		2968.750000
4132		2968.750000
4133		2968.750000
4134		2968.750000
4135		2968.750000
4136		2968.750000
4137		2968.750000
4138		2968.750000
4139		2968.750000
4140		2968.750000
4141		2968.750000
4142		2968.750000
4143		2968.750000
4144		2968.750000
4145		2968.750000
4146		2968.750000
4147		2968.750000
4148		2968.750000
4149		2968.750000
4150		2968.750000
4151		2968.750000
4152		2968.750000
4153		3046.875000
4154		3046.875000
4155		3046.875000
4156		3046.875000
4157		3046.875000
4158		3046.875000
4159		3046.875000
4160		3046.875000
4161		3046.875000
4162		3046.875000
4163		3046.875000
4164		3046.875000
4165		3046.875000
4166		3046.875000
4167		3046.875000
4168		3046.875000
4169		3046.875000
4170		3046.875000
4171		3046.875000
4172		3046.875000
4173		3046.875000
4174		3046.875000
4175		3046.875000
4176		3125.000000
4177		3125.000000
4178		3046.875000
4179		3125.000000
4180		3125.000000
4181		3125.000000
4182		3125.000000
4183		3125.000000
4184		3125.000000
4185		3125.000000
4186		3125.000000
4187		3125.000000
4188		3125.000000
4189		3125.000000
4190		3125.000000
4191		3125.000000
4192		3125.000000
4193		3125.000000
4194		3125.000000
4195		3125.000000
4196		3125.000000
4197		3125.000000
4198		3125.000000
4199		3125.000000
4200		3203.125000
4201		3203.125000
4202		3203.125000
4203		3203.125000
4204		3203.125000
4205		3203.125000
4206		3203.125000
4207		3203.125000
4208		3203.125000
4209		3203.125000
4210		3203.125000
4211		3203.125000
4212		3203.125000
4213		3203.125000
4214		3203.125000
4215		3203.125000
4216		3203.125000
4217		3203.125000
4218		3203.125000
4219		3203.125000
4220		3203.125000
4221		3203.125000
4222		3203.125000
4223		3281.250000
4224		3203.125000
4225		3281.250000
4226		3203.125000
4227		3281.250000
4228		3281.250000
4229		3281.250000
4230		3281.250000
4231		3281.250000
4232		3281.250000
4233		3281.250000
4234		3281.250000
4235		3281.250000
4236		3281.250000
4237		3281.250000
4238		3281.250000
4239		3281.250000
4240		3281.250000
4241		3281.250000
4242		3281.250000
4243		3281.250000
4244		3281.250000
4245		3281.250000
4246		3281.250000
4247		3359.375000
4248		3359.375000
4249		3359.375000
4250		3359.375000
4251		3359.375000
4252		3359.375000
4253		3359.375000
4254		3359.375000
4255		3359.375000
4256		3359.375000
4257		3359.375000
4258		3359.375000
4259		3359.375000
4260		3359.375000
4261		3359.375000
4262		3359.375000
4263		3359.375000
4264		3359.375000
4265		3359.375000
4266		3359.375000
4267		3359.375000
4268		3359.375000
4269		3359.375000
4270		3359.375000
4271		3359.375000
4272		3359.375000
4273		3359.375000
4274		3437.500000
4275		3437.500000
4276		3437.500000
4277		3437.500000
4278		3437.500000
4279		3437.500000
4280		3437.500000
4281		3437.500000
4282		3437.500000
4283		3437.500000
4284		3437.500000
4285		3437.500000
4286		3437.500000
4287		3437.500000
4288		3437.500000
4289		3437.500000
4290		3437.500000
4291		3437.500000
4292		3437.500000
4293		3437.500000
4294		3437.500000
4295		3437.500000
4296		3437.500000
4297		3515.625000
4298		3437.500000
4299		3437.500000
4300		3437.500000
4301		3515.625000
4302		3515.625000
4303		3515.625000
4304		3515.625000
4305		3515.625000
4306		3515.625000
4307		3515.625000
4308		3515.625000
4309		3515.625000
4310		3515.625000
4311		3515.625000
4312		3515.625000
4313		3515.625000
4314		3515.625000
4315		3515.625000
4316		3515.625000
4317		3515.625000
4318		3515.625000
4319		3515.625000
4320		3515.625000
4321		3515.625000
4322		3515.625000
4323		3515.625000
4324		3515.625000
4325		3515.625000
4326		3515.625000
4327		3515.625000
4328		3515.625000
4329		3515.625000
4330		3515.625000
4331		3515.625000
4332		3515.625000
4333		3593.750000
4334		3593.750000
4335		3593.750000
4336		3593.750000
4337		3593.750000
4338		3593.750000
4339		3593.750000
4340		3593.750000
4341		3593.750000
4342		3593.750000
4343		3593.750000
4344		3593.750000
4345		3593.750000
4346		3593.750000
4347		3593.750000
4348		3593.750000
4349		3593.750000
4350		3593.750000
4351		3593.750000
4352		3593.750000
4353		3593.750000
4354		3593.750000
4355		3593.750000
4356		3593.750000
4357		3593.750000
4358		3593.750000
4359		3593.750000
4360		3593.750000
4361		3593.750000
4362		3593.750000
4363		3593.750000
4364		3593.750000
4365		3593.750000
4366		3593.750000
4367		3593.750000
4368		3593.750000
4369		3593.750000
4370		3593.750000
4371		3593.750000
4372		3671.875000
4373		3593.750000
4374		3593.750000
4375		3671.875000
4376		3671.875000
4377		3593.750000
4378		3671.875000
4379		3593.750000
4380		3671.875000
4381		3671.875000
4382		3593.750000
4383		3593.750000
4384		3671.875000
4385		3671.875000
4386		3671.875000
4387		3671.875000
4388		3671.875000
4389		3671.875000
4390		3671.875000
4391		3671.875000
4392		3671.875000
4393		3671.875000
4394		3671.875000
4395		3671.875000
4396		3671.875000
4397		3671.875000
4398		3671.875000
4399		3671.875000
4400		3671.875000
4401		3671.875000
4402		3671.875000
4403		3671.875000
4404		3671.875000
4405		3671.875000
4406		3671.875000
4407		3671.875000
4408		3671.875000
4409		3671.875000
4410		3671.875000
4411		3671.875000
4412		3671.875000
4413		3671.875000
4414		3671.875000
4415		3671.875000
4416		3671.875000
4417		3671.875000
4418		3671.875000
4419		3671.875000
4420		3671.875000
4421		3671.875000
4422		3671.875000
4423		3671.875000
4424		3593.750000
4425		3671.875000
4426		3671.875000
4427		3671.875000
4428		3671.875000
4429		3671.875000
4430		3671.875000
4431		3671.875000
4432		3671.875000
4433		3671.875000
4434		3671.875000
4435		3671.875000
4436		3671.875000
4437		3671.875000
4438		3671.875000
4439		3671.875000
4440		3671.875000
4441		3671.875000
4442		3671.875000
4443		3671.875000
4444		3671.875000
4445		3671.875000
4446		3671.875000
4447		3671.875000
4448		3671.875000
4449		3671.875000
4450		3671.875000
4451		3671.875000
4452		3671.875000
4453		3671.875000
4454		3671.875000
4455		3671.875000
4456		3671.875000
4457		3671.875000
4458		3671.875000
4459		3671.875000
4460		3671.875000
4461		3671.875000
4462		3671.875000
4463		3671.875000
4464		3671.875000
4465		3671.875000
4466		3671.875000
4467		3671.875000
4468		3671.875000
4469		3671.875000
4470		3671.875000
4471		3671.875000
4472		3671.875000
4473		3671.875000
4474		3671.875000
4475		3671.875000
4476		3671.875000
4477		3671.875000
4478		3671.875000
4479		3671.875000
4480		3671.875000
4481		3671.875000
4482		3671.875000
4483		3671.875000
4484		3671.875000
4485		3671.875000
4486		3671.875000
4487		3671.875000
4488		3671.875000
4489		3671.875000
4490		3671.875000
4491		3671.875000
4492		3671.875000
4493		3671.875000
4494		3671.875000
4495		3671.875000
4496		3671.875000
4497		3671.875000
4498		3671.875000
4499		3671.875000
4500		3671.875000
4501		3671.875000
4502		3671.875000
4503		3671.875000
4504		3671.875000
4505		3671.875000
4506		3671.875000
4507		3671.875000
4508		3671.875000
4509		3671.875000
4510		3671.875000
4511		3671.875000
4512		3671.875000
4513		3671.875000
4514		3671.875000
4515		3671.875000
4516		3671.875000
4517		3671.875000
4518		3671.875000
4519		3671.875000
4520		3671.875000
4521		3671.875000
4522		3593.750000
4523		3671.875000
4524		3671.875000
4525		3593.750000
4526		3593.750000
4527		3593.750000
4528		3593.750000
4529		3671.875000
4530		3593.750000
4531		3593.750000
4532		3593.750000
4533		3593.750000
4534		3593.750000
4535		3593.750000
4536		3593.750000
4537		3593.750000
4538		3593.750000
4539		3593.750000
4540		3593.750000
4541		3593.750000
4542		3593.750000
4543		3593.750000
4544		3593.750000
4545		3593.750000
4546		3593.750000
4547		3593.750000
4548		3593.750000
4549		3593.750000
4550		3593.750000
4551		3593.750000
4552		3593.750000
4553		3593.750000
4554		3593.750000
4555		3593.750000
4556		3593.750000
4557		3593.750000
4558		3593.750000
4559		3593.750000
4560		3593.750000
4561		3593.750000
4562		3593.750000
4563		3593.750000
4564		3593.750000
4565		3593.750000
4566		3593.750000
4567		3593.750000
4568		3593.750000
4569		3593.750000
4570		3515.625000
4571		3515.625000
4572		3593.750000
4573		3593.750000
4574		3593.750000
4575		3515.625000
4576		3515.625000
4577		3515.625000
4578		3515.625000
4579		3515.625000
4580		3515.625000
4581		3515.625000
4582		3515.625000
4583		3515.625000
4584		3515.625000
4585		3515.625000
4586		3515.625000
4587		3515.625000
4588		3515.625000
4589		3515.625000
4590		3515.625000
4591		3515.625000
4592		3515.625000
4593		3515.625000
4594		3515.625000
4595		3515.625000
4596		3515.625000
4597		3515.625000
4598		3515.625000
4599		3515.625000
4600		3515.625000
4601		3515.625000
4602		3515.625000
4603		3515.625000
4604		3437.500000
4605		3437.500000
4606		3437.500000
4607		3515.625000
4608		3437.500000
4609		3437.500000
4610		3515.625000
4611		3437.500000
4612		3437.500000
4613		3437.500000
4614		3437.500000
4615		3437.500000
4616		3437.500000
4617		3437.500000
4618		3437.500000
4619		3437.500000
4620		3437.500000
4621		3437.500000
4622		3437.500000
4623		3437.500000
4624		3437.500000
4625		3437.500000
4626		3437.500000
4627		3437.500000
4628		3437.500000
4629		3437.500000
4630		3437.500000
4631		3437.500000
4632		3437.500000
4633		3437.500000
4634		3359.375000
4635		3359.375000
4636		3437.500000
4637		3359.375000
4638		3359.375000
4639		3359.375000
4640		3359.375000
4641		3359.375000
4642		3359.375000
4643		3359.375000
4644		3359.375000
4645		3359.375000
4646		3359.375000
4647		3359.375000
4648		3359.375000
4649		3359.375000
4650		3359.375000
4651		3359.375000
4652		3359.375000
4653		3359.375000
4654		3359.375000
4655		3359.375000
4656		3359.375000
4657		3359.375000
4658		3359.375000
4659		3359.375000
4660		3359.375000
4661		3359.375000
4662		3281.250000
4663		3359.375000
4664		3359.375000
4665		3281.250000
4666		3281.250000
4667		3281.250000
4668		3281.250000
4669		3281.250000
4670		3281.250000
4671		3281.250000
4672		3281.250000
4673		3281.250000
4674		3281.250000
4675		3281.250000
4676		3281.250000
4677		3281.250000
4678		3281.250000
4679		3281.250000
4680		3281.250000
4681		3281.250000
4682		3281.250000
4683		3281.250000
4684		3281.250000
4685		3281.250000
4686		3281.250000
4687		3203.125000
4688		3203.125000
4689		3203.125000
4690		3281.250000
4691		3203.125000
4692		3203.125000
4693		3203.125000
4694		3203.125000
4695		3203.125000
4696		3203.125000
4697		3203.125000
4698		3203.125000
4699		3203.125000
4700		3203.125000
4701		3203.125000
4702		3203.125000
4703		3203.125000
4704		3203.125000
4705		3203.125000
4706		3203.125000
4707		3203.125000
4708		3203.125000
4709		3203.125000
4710		3203.125000
4711		3203.125000
4712		3203.125000
4713		3203.125000
4714		3125.000000
4715		3125.000000
4716		3125.000000
4717		3125.000000
4718		3125.000000
4719		3125.000000
4720		3125.000000
4721		3125.000000
4722		3125.000000
4723		3125.000000
4724		3125.000000
4725		3125.000000
4726		3125.000000
4727		3125.000000
4728		3125.000000
4729		3125.000000
4730		3125.000000
4731		3125.000000
4732		3125.000000
4733		3125.000000
4734		3125.000000
4735		3125.000000
4736		3125.000000
4737		3046.875000
4738		3046.875000
4739		3046.875000
4740		3046.875000
4741		3046.875000
4742		3046.875000
4743		3046.875000
4744		3046.875000
4745		3046.875000
4746		3046.875000
4747		3046.875000
4748		3046.875000
4749		3046.875000
4750		3046.875000
4751		3046.875000
4752		3046.875000
4753		3046.875000
4754		3046.875000
4755		3046.875000
4756		3046.875000
4757		3046.875000
4758		3046.875000
4759		2968.750000
4760		2968.750000
4761		2968.750000
4762		2968.750000
4763		2968.750000
4764		2968.750000
4765		2968.750000
4766		2968.750000
4767		2968.750000
4768		2968.750000
4769		2968.750000
4770		2968.750000
4771		2968.750000
4772		2968.750000
4773		2968.750000
4774		2968.750000
4775		2968.750000
4776		2968.750000
4777		2968.750000
4778		2968.750000
4779		2968.750000
4780		2968.750000
4781		2890.625000
4782		2890.625000
4783		2890.625000
4784		2890.625000
4785		2890.625000
4786		2890.625000
4787		2890.625000
4788		2890.625000
4789		2890.625000
4790		2890.625000
4791		2890.625000
4792		2890.625000
4793		2890.625000
4794		2890.625000
4795		2890.625000
4796		2890.625000
4797		2890.625000
4798		2890.625000
4799		2890.625000
4800		2890.625000
4801		2890.625000
4802		2890.625000
4803		2812.500000
4804		2890.625000
4805		2890.625000
4806		2890.625000
4807		2890.625000
4808		2812.500000
4809		2812.500000
4810		2812.500000
4811		2812.500000
4812		2812.500000
4813		2812.500000
4814		2812.500000
4815		2812.500000
4816		2812.500000
4817		2812.500000
4818		2812.500000
4819		2812.500000
4820		2812.500000
4821		2812.500000
4822		2812.500000
4823		2812.500000
4824		2812.500000
4825		2812.500000
4826		2812.500000
4827		2812.500000
4828		2812.500000
4829		2812.500000
4830		2812.500000
4831		2812.500000
4832		2812.500000
4833		2812.500000
4834		2734.375000
4835		2734.375000
4836		2812.500000
4837		2734.375000
4838		2734.375000
4839		2734.375000
4840		2734.375000
4841		2734.375000
4842		2734.375000
4843		2734.375000
4844		2734.375000
4845		2734.375000
4846		2734.375000
4847		2734.375000
4848		2734.375000
4849		2734.375000
4850		2734.375000
4851		2734.375000
4852		2734.375000
4853		2734.375000
4854		2734.375000
4855		2734.375000
4856		2734.375000
4857		2734.375000
4858		2734.375000
4859		2734.375000
4860		2734.375000
4861		2734.375000
4862		2656.250000
4863		2656.250000
4864		2656.250000
4865		2656.250000
4866		2656.250000
4867		2656.250000
4868		2656.250000
4869		2656.250000
4870		2656.250000
4871		2656.250000
4872		2656.250000
4873		2656.250000
4874		2656.250000
4875		2656.250000
4876		2656.250000
4877		2656.250000
4878		2656.250000
4879		2656.250000
4880		2656.250000
4881		2656.250000
4882		2656.250000
4883		2656.250000
4884		2656.250000
4885		2656.250000
4886		2656.250000
4887		2656.250000
4888		2578.125000
4889		2656.250000
4890		2656.250000
4891		2578.125000
4892		2578.125000
4893		2578.125000
4894		2578.125000
4895		2578.125000
4896		2656.250000
4897		2578.125000
4898		2578.125000
4899		2578.125000
4900		2578.125000
4901		2578.125000
4902		2578.125000
4903		2578.125000
4904		2578.125000
4905		2578.125000
4906		2578.125000
4907		2578.125000
4908		2578.125000
4909		2578.125000
4910		2578.125000
4911		2578.125000
4912		2578.125000
4913		2578.125000
4914		2578.125000
4915		2578.125000
4916		2578.125000
4917		2578.125000
4918		2578.125000
4919		2578.125000
4920		2578.125000
4921		2500.000000
4922		2500.000000
4923		2500.000000
4924		2500.000000
4925		2500.000000
4926		2500.000000
4927		2500.000000
4928		2500.000000
4929		2500.000000
4930		2500.000000
4931		2500.000000
4932		2500.000000
4933		2500.000000
4934		2500.000000
4935		2500.000000
4936		2500.000000
4937		2500.000000
4938		2500.000000
4939		2500.000000
4940		2500.000000
4941		2500.000000
4942		2500.000000
4943		2500.000000
4944		2500.000000
4945		2500.000000
4946		2500.000000
4947		2500.000000
4948		2500.000000
4949		2500.000000
4950		2500.000000
4951		2500.000000
4952		2500.000000
4953		2500.000000
4954		2500.000000
4955		2500.000000
4956		2421.875000
4957		2500.000000
4958		2421.875000
4959		2421.875000
4960		2421.875000
4961		2421.875000
4962		2421.875000
4963		2421.875000
4964		2421.875000
4965		2421.875000
4966		2421.875000
4967		2421.875000
4968		2421.875000
4969		2421.875000
4970		2421.875000
4971		2421.875000
4972		2421.875000
4973		2421.875000
4974		2421.875000
4975		2421.875000
4976		2421.875000
4977		2421.875000
4978		2421.875000
4979		2421.875000
4980		2421.875000
4981		2421.875000
4982		2421.875000
4983		2421.875000
4984		2421.875000
4985		2421.875000
4986		2421.875000
4987		2421.875000
4988		2421.875000
4989		2421.875000
4990		2421.875000
4991		2421.875000
4992		2421.875000
4993		2421.875000
4994		2343.750000
4995		2343.750000
4996		2421.875000
4997		2343.750000
4998		2343.750000
4999		2343.750000
5000		2343.750000
5001		2343.750000
5002		2343.750000
5003		2343.750000
5004		2343.750000
5005		2343.750000
5006		2343.750000
5007		2343.750000
5008		2343.750000
5009		2343.750000
5010		2343.750000
5011		2343.750000
5012		2343.750000
5013		2343.750000
5014		2343.750000
5015		2343.750000
5016		2343.750000
5017		2343.750000
5018		2343.750000
5019		2343.750000
5020		2343.750000
5021		2343.750000
5022		2343.750000
5023		2343.750000
5024		2343.750000
5025		2343.750000
5026		2343.750000
5027		2343.750000
5028		2343.750000
5029		2343.750000
5030		2343.750000
5031		2343.750000
5032		2343.750000
5033		2343.750000
5034		2343.750000
5035		2343.750000
5036		2265.625000
5037		2343.750000
5038		2343.750000
5039		2343.750000
5040		2265.625000
5041		2343.750000
5042		2265.625000
5043		2265.625000
5044		2343.750000
5045		2265.625000
5046		2265.625000
5047		2265.625000
5048		2265.625000
5049		2265.625000
5050		2265.625000
5051		2265.625000
5052		2265.625000
5053		2265.625000
5054		2265.625000
5055		2265.625000
5056		2265.625000
5057		2265.625000
5058		2265.625000
5059		2265.625000
5060		2265.625000
5061		2265.625000
5062		2265.625000
5063		2265.625000
5064		2265.625000
5065		2265.625000
5066		2265.625000
5067		2265.625000
5068		2265.625000
5069		2265.625000
5070		2265.625000
5071		2265.625000
5072		2265.625000
5073		2265.625000
5074		2265.625000
5075		2265.625000
5076		2265.625000
5077		2265.625000
5078		2265.625000
5079		2265.625000
5080		2265.625000
5081		2265.625000
5082		2265.625000
5083		2265.625000
5084		2265.625000
5085		2265.625000
5086		2265.625000
5087		2265.625000
5088		2265.625000
5089		2265.625000
5090		2265.625000
5091		2265.625000
5092		2265.625000
5093		2265.625000
5094		2265.625000
5095		2265.625000
5096		2187.500000
5097		2265.625000
5098		2187.500000
5099		2187.500000
5100		2187.500000
5101		2187.500000
5102		2187.500000
5103		2187.500000
5104		2187.500000
5105		2187.500000
5106		2187.500000
5107		2187.500000
5108		2187.500000
5109		2187.500000
5110		2187.500000
5111		2187.500000
5112		2187.500000
5113		2187.500000
5114		2187.500000
5115		2187.500000
5116		2187.500000
5117		2187.500000
5118		2187.500000
5119		2187.500000
5120		2187.500000
5121		2187.500000
5122		2187.500000
5123		2187.500000
5124		2187.500000
5125		2187.500000
5126		2187.500000
5127		2187.500000
5128		2187.500000
5129		2187.500000
5130		2187.500000
5131		2187.500000
5132		2187.500000
5133		2187.500000
5134		2187.500000
5135		2187.500000
5136		2187.500000
5137		2187.500000
5138		2187.500000
5139		2187.500000
5140		2187.500000
5141		2187.500000
5142		2187.500000
5143		2187.500000
5144		2187.500000
5145		2187.500000
5146		2187.500000
5147		2187.500000
5148		2187.500000
5149		2187.500000
5150		2187.500000
5151		2187.500000
5152		2187.500000
5153		2187.500000
5154		2187.500000
5155		2187.500000
5156		2187.500000
5157		2187.500000
5158		2187.500000
5159		2187.500000
5160		2187.500000
5161		2187.500000
5162		2187.500000
5163		2187.500000
5164		2187.500000
5165		2187.500000
5166		2187.500000
5167		2187.500000
5168		2187.500000
5169		2187.500000
5170		2187.500000
5171		2187.500000
5172		2187.500000
5173		2187.500000
5174		2187.500000
5175		2187.500000
5176		2187.500000
5177		2109.375000
5178		2109.375000
5179		2109.375000
5180		2187.500000
5181		2109.375000
5182		2187.500000
5183		2187.500000
5184		2187.500000
5185		2187.500000
5186		2187.500000
5187		2187.500000
5188		2187.500000
5189		2187.500000
5190		2187.500000
5191		2109.375000
5192		2187.500000
5193		2109.375000
5194		2109.375000
5195		2187.500000
5196		2109.375000
5197		2109.375000
5198		2109.375000
5199		2109.375000
5200		2109.375000
5201		2109.375000
5202		2109.375000
5203		2187.500000
5204		2109.375000
5205		2109.375000
5206		2109.375000
5207		2109.375000
5208		2109.375000
5209		2109.375000
5210		2109.375000
5211		2109.375000
5212		2109.375000
5213		2109.375000
5214		2109.375000
5215		2109.375000
5216		2109.375000
5217		2109.375000
5218		2109.375000
5219		2109.375000
5220		2109.375000
5221		2109.375000
5222		2109.375000
5223		2109.375000
5224		2109.375000
5225		2109.375000
5226		2109.375000
5227		2109.375000
5228		2109.375000
5229		2109.375000
5230		2109.375000
5231		2109.375000
5232		2109.375000
5233		2109.375000
5234		2109.375000
5235		2109.375000
5236		2109.375000
5237		2109.375000
5238		2109.375000
5239		2109.375000
5240		2109.375000
5241		2109.375000
5242		2109.375000
5243		2109.375000
5244		2109.375000
5245		2109.375000
5246		2109.375000
5247		2109.375000
5248		2109.375000
5249		2109.375000
5250		2109.375000
5251		2109.375000
5252		2109.375000
5253		2109.375000
5254		2109.375000
5255		2109.375000
5256		2109.375000
5257		2109.375000
5258		2109.375000
5259		2109.375000
5260		2109.375000
5261		2109.375000
5262		2109.375000
5263		2109.375000
5264		2109.375000
5265		2109.375000
5266		2109.375000
5267		2109.375000
5268		2109.375000
5269		2109.375000
5270		2109.375000
5271		2109.375000
5272		2109.375000
5273		2109.375000
5274		2109.375000
5275		2109.375000
5276		2109.375000
5277		2109.375000
5278		2109.375000
5279		2109.375000
5280		2109.375000
5281		2109.375000
5282		2109.375000
5283		2109.375000
5284		2109.375000
5285		2109.375000
5286		2109.375000
5287		2109.375000
5288		2109.375000
5289		2109.375000
5290		2109.375000
5291		2109.375000
5292		2109.375000
5293		2109.375000
5294		2109.375000
5295		2109.375000
5296		2109.375000
5297		2109.375000
5298		2109.375000
5299		2109.375000
5300		2109.375000
5301		2109.375000
5302		2109.375000
5303		2109.375000
5304		2109.375000
5305		2109.375000
5306		2109.375000
5307		2109.375000
5308		2109.375000
5309		2109.375000
5310		2109.375000
5311		2109.375000
5312		2109.375000
5313		2109.375000
5314		2109.375000
5315		2109.375000
5316		2109.375000
5317		2109.375000
5318		2109.375000
5319		2109.375000
5320		2109.375000
5321		2109.375000
5322		2109.375000
5323		2109.375000
5324		2109.375000
5325		2109.375000
5326		2109.375000
5327		2109.375000
5328		2109.375000
5329		2109.375000
5330		2109.375000
5331		2109.375000
5332		2109.375000
5333		2109.375000
5334		2109.375000
5335		2109.375000
5336		2109.375000
5337		2109.375000
5338		2109.375000
5339		2109.375000
5340		2109.375000
5341		2109.375000
5342		2109.375000
5343		2109.375000
5344		2109.375000
5345		2109.375000
5346		2109.375000
5347		2109.375000
5348		2187.500000
5349		2109.375000
5350		2187.500000
5351		2187.500000
5352		2109.375000
5353		2187.500000
5354		2109.375000
5355		2109.375000
5356		2109.375000
5357		2109.375000
5358		2109.375000
5359		2109.375000
5360		2109.375000
5361		2109.375000
5362		2109.375000
5363		2109.375000
5364		2109.375000
5365		2109.375000
5366		2109.375000
5367		2187.500000
5368		2187.500000
5369		2187.500000
5370		2109.375000
5371		2187.500000
5372		2187.500000
5373		2187.500000
5374		2187.500000
5375		2109.375000
5376		2109.375000
5377		2187.500000
5378		2109.375000
5379		2187.500000
5380		2109.375000
5381		2187.500000
5382		2109.375000
5383		2187.500000
5384		2187.500000
5385		2187.500000
5386		2187.500000
5387		2187.500000
5388		2187.500000
5389		2187.500000
5390		2187.500000
5391		2187.500000
5392		2187.500000
5393		2187.500000
5394		2187.500000
5395		2187.500000
5396		2187.500000
5397		2187.500000
5398		2187.500000
5399		2187.500000
5400		2187.500000
5401		2187.500000
5402		2187.500000
5403		2187.500000
5404		2187.500000
5405		2187.500000
5406		2187.500000
5407		2187.500000
5408		2187.500000
5409		2187.500000
5410		2187.500000
5411		2187.500000
5412		2187.500000
5413		2187.500000
5414		2187.500000
5415		2187.500000
5416		2187.500000
5417		2187.500000
5418		2187.500000
5419		2187.500000
5420		2187.500000
5421		2187.500000
5422		2187.500000
5423		2187.500000
5424		2187.500000
5425		2187.500000
5426		2187.500000
5427		2187.500000
5428		2187.500000
5429		2187.500000
5430		2187.500000
5431		2187.500000
5432		2187.500000
5433		2187.500000
5434		2187.500000
5435		2187.500000
5436		2187.500000
5437		2187.500000
5438		2187.500000
5439		2187.500000
5440		2187.500000
5441		2187.500000
5442		2187.500000
5443		2187.500000
5444		2187.500000
5445		2187.500000
5446		2187.500000
5447		2187.500000
5448		2187.500000
5449		2187.500000
5450		2187.500000
5451		2187.500000
5452		2187.500000
5453		2187.500000
5454		2187.500000
5455		2187.500000
5456		2187.500000
5457		2187.500000
5458		2187.500000
5459		2187.500000
5460		2265.625000
5461		2187.500000
5462		2187.500000
5463		2187.500000
5464		2187.500000
5465		2187.500000
5466		2265.625000
5467		2265.625000
5468		2265.625000
5469		2265.625000
5470		2187.500000
5471		2265.625000
5472		2265.625000
5473		2265.625000
5474		2265.625000
5475		2265.625000
5476		2265.625000
5477		2265.625000
5478		2265.625000
5479		2265.625000
5480		2265.625000
5481		2265.625000
5482		2265.625000
5483		2265.625000
5484		2265.625000
5485		2265.625000
5486		2265.625000
5487		2265.625000
5488		2265.625000
5489		2265.625000
5490		2265.625000
5491		2265.625000
5492		2265.625000
5493		2265.625000
5494		2265.625000
5495		2265.625000
5496		2265.625000
5497		2265.625000
5498		2265.625000
5499		2265.625000
5500		2265.625000
5501		2265.625000
5502		2265.625000
5503		2265.625000
5504		2265.625000
5505		2265.625000
5506		2265.625000
5507		2265.625000
5508		2265.625000
5509		2265.625000
5510		2265.625000
5511		2265.625000
5512		2265.625000
5513		2265.625000
5514		2265.625000
5515		2265.625000
5516		2265.625000
5517		2265.625000
5518		2265.625000
5519		2265.625000
5520		2265.625000
5521		2265.625000
5522		2265.625000
5523		2265.625000
5524		2265.625000
5525		2265.625000
5526		2343.750000
5527		2343.750000
5528		2343.750000
5529		2343.750000
5530		2343.750000
5531		2343.750000
5532		2343.750000
5533		2343.750000
5534		2343.750000
5535		2343.750000
5536		2343.750000
5537		2343.750000
5538		2343.750000
5539		2343.750000
5540		2343.750000
5541		2343.750000
5542		2343.750000
5543		2343.750000
5544		2343.750000
5545		2343.750000
5546		2343.750000
5547		2343.750000
5548		2343.750000
5549		2343.750000
5550		2343.750000
5551		2343.750000
5552		2343.750000
5553		2343.750000
5554		2343.750000
5555		2343.750000
5556		2343.750000
5557		2343.750000
5558		2343.750000
5559		2343.750000
5560		2343.750000
5561		2343.750000
5562		2343.750000
5563		2343.750000
5564		2343.750000
5565		2421.875000
5566		2421.875000
5567		2421.875000
5568		2421.875000
5569		2421.875000
5570		2421.875000
5571		2421.875000
5572		2421.875000
5573		2421.875000
5574		2421.875000
5575		2421.875000
5576		2421.875000
5577		2421.875000
5578		2421.875000
5579		2421.875000
5580		2421.875000
5581		2421.875000
5582		2421.875000
5583		2421.875000
5584		2421.875000
5585		2421.875000
5586		2421.875000
5587		2421.875000
5588		2421.875000
5589		2421.875000
5590		2421.875000
5591		2421.875000
5592		2421.875000
5593		2421.875000
5594		2421.875000
5595		2421.875000
5596		2421.875000
5597		2421.875000
5598		2421.875000
5599		2421.875000
5600		2421.875000
5601		2421.875000
5602		2421.875000
5603		2421.875000
5604		2421.875000
5605		2421.875000
5606		2421.875000
5607		2500.000000
5608		2500.000000
5609		2500.000000
5610		2500.000000
5611		2500.000000
5612		2500.000000
5613		2500.000000
5614		2500.000000
5615		2500.000000
5616		2500.000000
5617		2500.000000
5618		2500.000000
5619		2500.000000
5620		2500.000000
5621		2500.000000
5622		2500.000000
5623		2500.000000
5624		2500.000000
5625		2500.000000
5626		2500.000000
5627		2500.000000
5628		2500.000000
5629		2500.000000
5630		2500.000000
5631		2500.000000
5632		2500.000000
5633		2500.000000
5634		2500.000000
5635		2500.000000
5636		2500.000000
5637		2500.000000
5638		2578.125000
5639		2578.125000
5640		2578.125000
5641		2578.125000
5642		2578.125000
5643		2578.125000
5644		2578.125000
5645		2578.125000
5646		2578.125000
5647		2578.125000
5648		2578.125000
5649		2578.125000
5650		2578.125000
5651		2578.125000
5652		2578.125000
5653		2578.125000
5654		2578.125000
5655		2578.125000
5656		2578.125000
5657		2578.125000
5658		2578.125000
5659		2578.125000
5660		2578.125000
5661		2578.125000
5662		2578.125000
5663		2578.125000
5664		2578.125000
5665		2578.125000
5666		2578.125000
5667		2578.125000
5668		2578.125000
5669		2656.250000
5670		2578.125000
5671		2656.250000
5672		2656.250000
5673		2656.250000
5674		2656.250000
5675		2656.250000
5676		2656.250000
5677		2656.250000
5678		2656.250000
5679		2656.250000
5680		2656.250000
5681		2656.250000
5682		2656.250000
5683		2656.250000
5684		2656.250000
5685		2656.250000
5686		2656.250000
5687		2656.250000
5688		2656.250000
5689		2656.250000
5690		2656.250000
5691		2656.250000
5692		2656.250000
5693		2734.375000
5694		2656.250000
5695		2734.375000
5696		2656.250000
5697		2734.375000
5698		2734.375000
5699		2734.375000
5700		2734.375000
5701		2734.375000
5702		2734.375000
5703		2734.375000
5704		2734.375000
5705		2734.375000
5706		2734.375000
5707		2734.375000
5708		2734.375000
5709		2734.375000
5710		2734.375000
5711		2734.375000
5712		2734.375000
5713		2734.375000
5714		2734.375000
5715		2734.375000
5716		2734.375000
5717		2734.375000
5718		2734.375000
5719		2734.375000
5720		2734.375000
5721		2734.375000
5722		2734.375000
5723		2734.375000
5724		2812.500000
5725		2812.500000
5726		2812.500000
5727		2812.500000
5728		2812.500000
5729		2812.500000
5730		2812.500000
5731		2812.500000
5732		2812.500000
5733		2812.500000
5734		2812.500000
5735		2812.500000
5736		2812.500000
5737		2812.500000
5738		2812.500000
5739		2812.500000
5740		2812.500000
5741		2812.500000
5742		2812.500000
5743		2812.500000
5744		2812.500000
5745		2812.500000
5746		2890.625000
5747		2890.625000
5748		2890.625000
5749		2890.625000
5750		2890.625000
5751		2890.625000
5752		2890.625000
5753		2890.625000
5754		2890.625000
5755		2890.625000
5756		2890.625000
5757		2890.625000
5758		2890.625000
5759		2890.625000
5760		2890.625000
5761		2890.625000
5762		2890.625000
5763		2890.625000
5764		2890.625000
5765		2890.625000
5766		2890.625000
5767		2890.625000
5768		2890.625000
5769		2890.625000
5770		2890.625000
5771		2890.625000
5772		2968.750000
5773		2968.750000
5774		2968.750000
5775		2968.750000
5776		2968.750000
5777		2968.750000
5778		2968.750000
5779		2968.750000
5780		2968.750000
5781		2968.750000
5782		2968.750000
5783		2968.750000
5784		2968.750000
5785		2968.750000
5786		2968.750000
5787		2968.750000
5788		2968.750000
5789		2968.750000
5790		2968.750000
5791		2968.750000
5792		2968.750000
5793		2968.750000
5794		3046.875000
5795		3046.875000
5796		2968.750000
5797		2968.750000
5798		3046.875000
5799		3046.875000
5800		3046.875000
5801		3046.875000
5802		3046.875000
5803		3046.875000
5804		3046.875000
5805		3046.875000
5806		3046.875000
5807		3046.875000
5808		3046.875000
5809		3046.875000
5810		3046.875000
5811		3046.875000
5812		3046.875000
5813		3046.875000
5814		3046.875000
5815		3046.875000
5816		3046.875000
5817		3046.875000
5818		3046.875000
5819		3125.000000
5820		3125.000000
5821		3125.000000
5822		3125.000000
5823		3125.000000
5824		3125.000000
5825		3125.000000
5826		3125.000000
5827		3125.000000
5828		3125.000000
5829		3125.000000
5830		3125.000000
5831		3125.000000
5832		3125.000000
5833		3125.000000
5834		3125.000000
5835		3125.000000
5836		3125.000000
5837		3125.000000
5838		3125.000000
5839		3125.000000
5840		3203.125000
5841		3203.125000
5842		3203.125000
5843		3203.125000
5844		3203.125000
5845		3203.125000
5846		3203.125000
5847		3203.125000
5848		3203.125000
5849		3203.125000
5850		3203.125000
5851		3203.125000
5852		3203.125000
5853		3203.125000
5854		3203.125000
5855		3203.125000
5856		3203.125000
5857		3203.125000
5858		3203.125000
5859		3203.125000
5860		3203.125000
5861		3203.125000
5862		3203.125000
5863		3203.125000
5864		3203.125000
5865		3281.250000
5866		3203.125000
5867		3281.250000
5868		3281.250000
5869		3281.250000
5870		3281.250000
5871		3281.250000
5872		3281.250000
5873		3281.250000
5874		3281.250000
5875		3281.250000
5876		3281.250000
5877		3281.250000
5878		3281.250000
5879		3281.250000
5880		3281.250000
5881		3281.250000
5882		3281.250000
5883		3281.250000
5884		3281.250000
5885		3281.250000
5886		3281.250000
5887		3281.250000
5888		3359.375000
5889		3359.375000
5890		3359.375000
5891		3359.375000
5892		3359.375000
5893		3359.375000
5894		3359.375000
5895		3359.375000
5896		3359.375000
5897		3359.375000
5898		3359.375000
5899		3359.375000
5900		3359.375000
5901		3359.375000
5902		3359.375000
5903		3359.375000
5904		3359.375000
5905		3359.375000
5906		3359.375000
5907		3359.375000
5908		3359.375000
5909		3359.375000
5910		3359.375000
5911		3437.500000
5912		3437.500000
5913		3437.500000
5914		3437.500000
5915		3437.500000
5916		3437.500000
5917		3437.500000
5918		3437.500000
5919		3437.500000
5920		3437.500000
5921		3437.500000
5922		3437.500000
5923		3437.500000
5924		3437.500000
5925		3437.500000
5926		3437.500000
5927		3437.500000
5928		3437.500000
5929		3437.500000
5930		3437.500000
5931		3437.500000
5932		3437.500000
5933		3437.500000
5934		3437.500000
5935		3437.500000
5936		3437.500000
5937		3437.500000
5938		3437.500000
5939		3437.500000
5940		3515.625000
5941		3437.500000
5942		3515.625000
5943		3515.625000
5944		3515.625000
5945		3515.625000
5946		3515.625000
5947		3515.625000
5948		3515.625000
5949		3515.625000
5950		3515.625000
5951		3515.625000
5952		3515.625000
5953		3515.625000
5954		3515.625000
5955		3515.625000
5956		3515.625000
5957		3515.625000
5958		3515.625000
5959		3515.625000
5960		3515.625000
5961		3515.625000
5962		3515.625000
5963		3515.625000
5964		3515.625000
5965		3515.625000
5966		3515.625000
5967		3515.625000
5968		3515.625000
5969		3515.625000
5970		3515.625000
5971		3593.750000
5972		3593.750000
5973		3515.625000
5974		3593.750000
5975		3593.750000
5976		3593.750000
5977		3593.750000
5978		3593.750000
5979		3593.750000
5980		3593.750000
5981		3593.750000
5982		3593.750000
5983		3593.750000
5984		3593.750000
5985		3593.750000
5986		3593.750000
5987		3593.750000
5988		3593.750000
5989		3593.750000
5990		3593.750000
5991		3593.750000
5992		3593.750000
5993		3593.750000
5994		3593.750000
5995		3593.750000
5996		3593.750000
5997		3593.750000
5998		3593.750000
5999		3593.750000
6000		3593.750000
6001		3593.750000
6002		3593.750000
6003		3593.750000
6004		3593.750000
6005		3593.750000
6006		3593.750000
6007		3593.750000
6008		3593.750000
6009		3593.750000
6010		3671.875000
6011		3671.875000
6012		3671.875000
6013		3671.875000
6014		3671.875000
6015		3671.875000
6016		3671.875000
6017		3671.875000
6018		3671.875000
6019		3671.875000
6020		3671.875000
6021		3671.875000
6022		3671.875000
6023		3671.875000
6024		3671.875000
6025		3671.875000
6026		3671.875000
6027		3671.875000
6028		3671.875000
6029		3671.875000
6030		3671.875000
6031		3671.875000
6032		3671.875000
6033		3671.875000
6034		3671.875000
6035		3671.875000
6036		3671.875000
6037		3671.875000
6038		3671.875000
6039		3671.875000
6040		3671.875000
6041		3671.875000
6042		3671.875000
6043		3671.875000
6044		3671.875000
6045		3671.875000
6046		3671.875000
6047		3671.875000
6048		3671.875000
6049		3671.875000
6050		3671.875000
6051		3671.875000
6052		3671.875000
6053		3671.875000
6054		3671.875000
6055		3671.875000
6056		3671.875000
6057		3671.875000
6058		3671.875000
6059		3671.875000
6060		3671.875000
6061		3671.875000
6062		3671.875000
6063		3671.875000
6064		3671.875000
6065		3671.875000
6066		3671.875000
6067		3671.875000
6068		3671.875000
6069		3750.000000
6070		3671.875000
6071		3750.000000
6072		3671.875000
6073		3671.875000
6074		3671.875000
6075		3671.875000
6076		3671.875000
6077		3671.875000
6078		3671.875000
6079		3671.875000
6080		3671.875000
6081		3671.875000
6082		3671.875000
6083		3671.875000
6084		3671.875000
6085		3671.875000
6086		3671.875000
6087		3750.000000
6088		3750.000000
6089		3750.000000
6090		3750.000000
6091		3750.000000
6092		3750.000000
6093		3750.000000
6094		3750.000000
6095		3750.000000
6096		3750.000000
6097		3671.875000
6098		3671.875000
6099		3750.000000
6100		3671.875000
6101		3671.875000
6102		3671.875000
6103		3671.875000
6104		3671.875000
6105		3750.000000
6106		3750.000000
6107		3750.000000
6108		3750.000000
6109		3750.000000
6110		3750.000000
6111		3750.000000
6112		3750.000000
6113		3671.875000
6114		3750.000000
6115		3671.875000
6116		3671.875000
6117		3671.875000
6118		3750.000000
6119		3671.875000
6120		3671.875000
6121		3671.875000
6122		3671.875000
6123		3671.875000
6124		3671.875000
6125		3671.875000
6126		3671.875000
6127		3671.875000
6128		3671.875000
6129		3750.000000
6130		3671.875000
6131		3671.875000
6132		3671.875000
6133		3671.875000
6134		3671.875000
6135		3671.875000
6136		3671.875000
6137		3671.875000
6138		3671.875000
6139		3671.875000
6140		3671.875000
6141		3671.875000
6142		3671.875000
6143		3671.875000
6144		3671.875000
6145		3671.875000
6146		3671.875000
6147		3671.875000
6148		3671.875000
6149		3671.875000
6150		3671.875000
6151		3671.875000
6152		3671.875000
6153		3671.875000
6154		3671.875000
6155		3671.875000
6156		3671.875000
6157		3671.875000
6158		3671.875000
6159		3671.875000
6160		3671.875000
6161		3671.875000
6162		3671.875000
6163		3671.875000
6164		3671.875000
6165		3671.875000
6166		3671.875000
6167		3671.875000
6168		3671.875000
6169		3671.875000
6170		3671.875000
6171		3671.875000
6172		3671.875000
6173		3671.875000
6174		3671.875000
6175		3671.875000
6176		3671.875000
6177		3671.875000
6178		3671.875000
6179		3671.875000
6180		3671.875000
6181		3671.875000
6182		3671.875000
6183		3671.875000
6184		3671.875000
6185		3671.875000
6186		3671.875000
6187		3671.875000
6188		3671.875000
6189		3671.875000
6190		3671.875000
6191		3671.875000
6192		3671.875000
6193		3671.875000
6194		3671.875000
6195		3593.750000
6196		3671.875000
6197		3671.875000
6198		3593.750000
6199		3593.750000
6200		3593.750000
6201		3593.750000
6202		3593.750000
6203		3593.750000
6204		3593.750000
6205		3593.750000
6206		3593.750000
6207		3593.750000
6208		3593.750000
6209		3593.750000
6210		3593.750000
6211		3593.750000
6212		3593.750000
6213		3593.750000
6214		3593.750000
6215		3593.750000
6216		3593.750000
6217		3593.750000
6218		3593.750000
6219		3593.750000
6220		3593.750000
6221		3593.750000
6222		3593.750000
6223		3593.750000
6224		3593.750000
6225		3593.750000
6226		3593.750000
6227		3593.750000
6228		3593.750000
6229		3593.750000
6230		3593.750000
6231		3593.750000
6232		3515.625000
6233		3593.750000
6234		3593.750000
6235		3515.625000
6236		3515.625000
6237		3515.625000
6238		3515.625000
6239		3515.625000
6240		3515.625000
6241		3515.625000
6242		3515.625000
6243		3515.625000
6244		3515.625000
6245		3515.625000
6246		3515.625000
6247		3515.625000
6248		3515.625000
6249		3515.625000
6250		3515.625000
6251		3515.625000
6252		3515.625000
6253		3515.625000
6254		3515.625000
6255		3515.625000
6256		3515.625000
6257		3515.625000
6258		3515.625000
6259		3515.625000
6260		3515.625000
6261		3515.625000
6262		3437.500000
6263		3437.500000
6264		3437.500000
6265		3437.500000
6266		3437.500000
6267		3437.500000
6268		3437.500000
6269		3437.500000
6270		3437.500000
6271		3437.500000
6272		3437.500000
6273		3437.500000
6274		3437.500000
6275		3437.500000
6276		3437.500000
6277		3437.500000
6278		3437.500000
6279		3437.500000
6280		3437.500000
6281		3437.500000
6282		3437.500000
6283		3437.500000
6284		3437.500000
6285		3437.500000
6286		3437.500000
6287		3437.500000
6288		3437.500000
6289		3437.500000
6290		3437.500000
6291		3437.500000
6292		3437.500000
6293		3437.500000
6294		3359.375000
6295		3437.500000
6296		3359.375000
6297		3359.375000
6298		3359.375000
6299		3359.375000
6300		3359.375000
6301		3359.375000
6302		3359.375000
6303		3359.375000
6304		3359.375000
6305		3359.375000
6306		3359.375000
6307		3359.375000
6308		3359.375000
6309		3359.375000
6310		3359.375000
6311		3359.375000
6312		3359.375000
6313		3359.375000
6314		3359.375000
6315		3359.375000
6316		3281.250000
6317		3281.250000
6318		3281.250000
6319		3359.375000
6320		3281.250000
6321		3281.250000
6322		3281.250000
6323		3281.250000
6324		3281.250000
6325		3281.250000
6326		3281.250000
6327		3281.250000
6328		3281.250000
6329		3281.250000
6330		3281.250000
6331		3281.250000
6332		3281.250000
6333		3281.250000
6334		3281.250000
6335		3281.250000
6336		3281.250000
6337		3281.250000
6338		3281.250000
6339		3281.250000
6340		3281.250000
6341		3281.250000
6342		3281.250000
6343		3281.250000
6344		3281.250000
6345		3281.250000
6346		3281.250000
6347		3203.125000
6348		3203.125000
6349		3203.125000
6350		3203.125000
6351		3203.125000
6352		3203.125000
6353		3203.125000
6354		3203.125000
6355		3203.125000
6356		3203.125000
6357		3203.125000
6358		3203.125000
6359		3203.125000
6360		3203.125000
6361		3203.125000
6362		3203.125000
6363		3203.125000
6364		3203.125000
6365		3203.125000
6366		3203.125000
6367		3203.125000
6368		3125.000000
6369		3125.000000
6370		3125.000000
6371		3125.000000
6372		3125.000000
6373		3125.000000
6374		3125.000000
6375		3125.000000
6376		3125.000000
6377		3125.000000
6378		3125.000000
6379		3125.000000
6380		3125.000000
6381		3125.000000
6382		3125.000000
6383		3125.000000
6384		3125.000000
6385		3125.000000
6386		3125.000000
6387		3125.000000
6388		3125.000000
6389		3125.000000
6390		3125.000000
6391		3046.875000
6392		3046.875000
6393		3125.000000
6394		3046.875000
6395		3046.875000
6396		3046.875000
6397		3046.875000
6398		3046.875000
6399		3046.875000
6400		3046.875000
6401		3046.875000
6402		3046.875000
6403		3046.875000
6404		3046.875000
6405		3046.875000
6406		3046.875000
6407		3046.875000
6408		3046.875000
6409		3046.875000
6410		3046.875000
6411		3046.875000
6412		3046.875000
6413		3046.875000
6414		3046.875000
6415		3046.875000
6416		3046.875000
6417		3046.875000
6418		2968.750000
6419		2968.750000
6420		2968.750000
6421		2968.750000
6422		2968.750000
6423		2968.750000
6424		2968.750000
6425		2968.750000
6426		2968.750000
6427		2968.750000
6428		2968.750000
6429		2968.750000
6430		2968.750000
6431		2968.750000
6432		2968.750000
6433		2968.750000
6434		2968.750000
6435		2968.750000
6436		2968.750000
6437		2968.750000
6438		2968.750000
6439		2968.750000
6440		2890.625000
6441		2968.750000
6442		2890.625000
6443		2890.625000
6444		2890.625000
6445		2890.625000
6446		2890.625000
6447		2890.625000
6448		2890.625000
6449		2890.625000
6450		2890.625000
6451		2890.625000
6452		2890.625000
6453		2890.625000
6454		2890.625000
6455		2890.625000
6456		2890.625000
6457		2890.625000
6458		2890.625000
6459		2890.625000
6460		2890.625000
6461		2890.625000
6462		2890.625000
6463		2890.625000
6464		2890.625000
6465		2890.625000
6466		2890.625000
6467		2890.625000
6468		2890.625000
6469		2890.625000
6470		2812.500000
6471		2812.500000
6472		2812.500000
6473		2812.500000
6474		2812.500000
6475		2812.500000
6476		2812.500000
6477		2812.500000
6478		2812.500000
6479		2812.500000
6480		2812.500000
6481		2812.500000
6482		2812.500000
6483		2812.500000
6484		2812.500000
6485		2812.500000
6486		2812.500000
6487		2812.500000
6488		2812.500000
6489		2812.500000
6490		2812.500000
6491		2812.500000
6492		2734.375000
6493		2812.500000
6494		2812.500000
6495		2812.500000
6496		2734.375000
6497		2734.375000
6498		2734.375000
6499		2734.375000
6500		2734.375000
6501		2734.375000
6502		2734.375000
6503		2734.375000
6504		2734.375000
6505		2734.375000
6506		2734.375000
6507		2734.375000
6508		2734.375000
6509		2734.375000
6510		2734.375000
6511		2734.375000
6512		2734.375000
6513		2734.375000
6514		2734.375000
6515		2734.375000
6516		2734.375000
6517		2734.375000
6518		2734.375000
6519		2734.375000
6520		2734.375000
6521		2734.375000
6522		2734.375000
6523		2656.250000
6524		2656.250000
6525		2656.250000
6526		2656.250000
6527		2656.250000
6528		2656.250000
6529		2656.250000
6530		2656.250000
6531		2656.250000
6532		2656.250000
6533		2656.250000
6534		2656.250000
6535		2656.250000
6536		2656.250000
6537		2656.250000
6538		2656.250000
6539		2656.250000
6540		2656.250000
6541		2656.250000
6542		2656.250000
6543		2656.250000
6544		2656.250000
6545		2656.250000
6546		2656.250000
6547		2656.250000
6548		2656.250000
6549		2656.250000
6550		2578.125000
6551		2656.250000
6552		2656.250000
6553		2656.250000
6554		2656.250000
6555		2578.125000
6556		2578.125000
6557		2578.125000
6558		2578.125000
6559		2578.125000
6560		2578.125000
6561		2578.125000
6562		2578.125000
6563		2578.125000
6564		2578.125000
6565		2578.125000
6566		2578.125000
6567		2578.125000
6568		2578.125000
6569		2578.125000
6570		2578.125000
6571		2578.125000
6572		2578.125000
6573		2578.125000
6574		2578.125000
6575		2578.125000
6576		2578.125000
6577		2578.125000
6578		2578.125000
6579		2578.125000
6580		2578.125000
6581		2578.125000
6582		2578.125000
6583		2578.125000
6584		2578.125000
6585		2500.000000
6586		2500.000000
6587		2500.000000
6588		2500.000000
6589		2500.000000
6590		2500.000000
6591		2500.000000
6592		2500.000000
6593		2500.000000
6594		2500.000000
6595		2500.000000
6596		2500.000000
6597		2500.000000
6598		2500.000000
6599		2500.000000
6600		2500.000000
6601		2500.000000
6602		2500.000000
6603		2500.000000
6604		2500.000000
6605		2500.000000
6606		2500.000000
6607		2500.000000
6608		2500.000000
6609		2500.000000
6610		2500.000000
6611		2500.000000
6612		2500.000000
6613		2500.000000
6614		2500.000000
6615		2500.000000
6616		2500.000000
6617		2500.000000
6618		2421.875000
6619		2500.000000
6620		2421.875000
6621		2421.875000
6622		2421.875000
6623		2421.875000
6624		2421.875000
6625		2421.875000
6626		2421.875000
6627		2421.875000
6628		2421.875000
6629		2421.875000
6630		2421.875000
6631		2421.875000
6632		2421.875000
6633		2421.875000
6634		2421.875000
6635		2421.875000
6636		2421.875000
6637		2421.875000
6638		2421.875000
6639		2421.875000
6640		2421.875000
6641		2421.875000
6642		2421.875000
6643		2421.875000
6644		2421.875000
6645		2421.875000
6646		2421.875000
6647		2421.875000
6648		2421.875000
6649		2421.875000
6650		2421.875000
6651		2421.875000
6652		2421.875000
6653		2421.875000
6654		2421.875000
6655		2421.875000
6656		2421.875000
6657		2421.875000
6658		2421.875000
6659		2343.750000
6660		2421.875000
6661		2343.750000
6662		2343.750000
6663		2343.750000
6664		2343.750000
6665		2343.750000
6666		2343.750000
6667		2343.750000
6668		2343.750000
6669		2343.750000
6670		2343.750000
6671		2343.750000
6672		2343.750000
6673		2343.750000
6674		2343.750000
6675		2343.750000
6676		2343.750000
6677		2343.750000
6678		2343.750000
6679		2343.750000
6680		2343.750000
6681		2343.750000
6682		2343.750000
6683		2343.750000
6684		2343.750000
6685		2343.750000
6686		2343.750000
6687		2343.750000
6688		2343.750000
6689		2343.750000
6690		2343.750000
6691		2343.750000
6692		2343.750000
6693		2343.750000
6694		2343.750000
6695		2343.750000
6696		2343.750000
6697		2343.750000
6698		2343.750000
6699		2343.750000
6700		2343.750000
6701		2343.750000
6702		2343.750000
6703		2343.750000
6704		2343.750000
6705		2343.750000
6706		2343.750000
6707		2343.750000
6708		2265.625000
6709		2343.750000
6710		2343.750000
6711		2343.750000
6712		2343.750000
6713		2265.625000
6714		2265.625000
6715		2265.625000
6716		2265.625000
6717		2265.625000
6718		2265.625000
6719		2265.625000
6720		2265.625000
6721		2265.625000
6722		2265.625000
6723		2265.625000
6724		2265.625000
6725		2265.625000
6726		2265.625000
6727		2265.625000
6728		2265.625000
6729		2265.625000
6730		2265.625000
6731		2265.625000
6732		2265.625000
6733		2265.625000
6734		2265.625000
6735		2265.625000
6736		2265.625000
6737		2265.625000
6738		2265.625000
6739		2265.625000
6740		2265.625000
6741		2265.625000
6742		2265.625000
6743		2265.625000
6744		2265.625000
6745		2265.625000
6746		2265.625000
6747		2265.625000
6748		2265.625000
6749		2265.625000
6750		2265.625000
6751		2265.625000
6752		2265.625000
6753		2265.625000
6754		2265.625000
6755		2265.625000
6756		2265.625000
6757		2265.625000
6758		2265.625000
6759		2265.625000
6760		2265.625000
6761		2265.625000
6762		2265.625000
6763		2265.625000
6764		2187.500000
6765		2265.625000
6766		2265.625000
6767		2187.500000
6768		2265.625000
6769		2265.625000
6770		2265.625000
6771		2265.625000
6772		2265.625000
6773		2265.625000
6774		2265.625000
6775		2265.625000
6776		2265.625000
6777		2265.625000
6778		2187.500000
6779		2187.500000
6780		2187.500000
6781		2187.500000
6782		2187.500000
6783		2187.500000
6784		2187.500000
6785		2187.500000
6786		2187.500000
6787		2187.500000
6788		2187.500000
6789		2187.500000
6790		2187.500000
6791		2187.500000
6792		2187.500000
6793		2187.500000
6794		2187.500000
6795		2187.500000
6796		2187.500000
6797		2187.500000
6798		2187.500000
6799		2187.500000
6800		2187.500000
6801		2187.500000
6802		2187.500000
6803		2187.500000
6804		2187.500000
6805		2187.500000
6806		2187.500000
6807		2187.500000
6808		2187.500000
6809		2187.500000
6810		2187.500000
6811		2187.500000
6812		2187.500000
6813		2187.500000
6814		2187.500000
6815		2187.500000
6816		2187.500000
6817		2187.500000
6818		2187.500000
6819		2187.500000
6820		2187.500000
6821		2187.500000
6822		2187.500000
6823		2187.500000
6824		2187.500000
6825		2187.500000
6826		2187.500000
6827		2187.500000
6828		2187.500000
6829		2187.500000
6830		2187.500000
6831		2187.500000
6832		2187.500000
6833		2187.500000
6834		2187.500000
6835		2187.500000
6836		2187.500000
6837		2187.500000
6838		2187.500000
6839		2187.500000
6840		2187.500000
6841		2187.500000
6842		2187.500000
6843		2187.500000
6844		2187.500000
6845		2187.500000
6846		2187.500000
6847		2187.500000
6848		2187.500000
6849		2187.500000
6850		2187.500000
6851		2187.500000
6852		2187.500000
6853		2187.500000
6854		2187.500000
6855		2187.500000
6856		2187.500000
6857		2187.500000
6858		2187.500000
6859		2187.500000
6860		2187.500000
6861		2187.500000
6862		2187.500000
6863		2187.500000
6864		2187.500000
6865		2187.500000
6866		2187.500000
6867		2187.500000
6868		2187.500000
6869		2187.500000
6870		2187.500000
6871		2187.500000
6872		2187.500000
6873		2187.500000
6874		2187.500000
6875		2187.500000
6876		2187.500000
6877		2187.500000
6878		2187.500000
6879		2187.500000
6880		2187.500000
6881		2187.500000
6882		2187.500000
6883		2187.500000
6884		2187.500000
6885		2187.500000
6886		2187.500000
6887		2187.500000
6888		2187.500000
6889		2187.500000
6890		2187.500000
6891		2187.500000
6892		2187.500000
6893		2187.500000
6894		2187.500000
6895		2187.500000
6896		2187.500000
6897		2187.500000
6898		2187.500000
6899		2187.500000
6900		2187.500000
6901		2187.500000
6902		2187.500000
6903		2187.500000
6904		2187.500000
6905		2187.500000
6906		2187.500000
6907		2187.500000
6908		2187.500000
6909		2187.500000
6910		2187.500000
6911		2187.500000
6912		2187.500000
6913		2187.500000
6914		2187.500000
6915		2187.500000
6916		2187.500000
6917		2187.500000
6918		2187.500000
6919		2109.375000
6920		2187.500000
6921		2109.375000
6922		2187.500000
6923		2187.500000
6924		2187.500000
6925		2187.500000
6926		2187.500000
6927		2187.500000
6928		2187.500000
6929		2187.500000
6930		2187.500000
6931		2187.500000
6932		2109.375000
6933		2187.500000
6934		2187.500000
6935		2109.375000
6936		2187.500000
6937		2187.500000
6938		2187.500000
6939		2187.500000
6940		2187.500000
6941		2187.500000
6942		2187.500000
6943		2187.500000
6944		2187.500000
6945		2187.500000
6946		2187.500000
6947		2187.500000
6948		2187.500000
6949		2187.500000
6950		2187.500000
6951		2187.500000
6952		2187.500000
6953		2187.500000
6954		2187.500000
6955		2187.500000
6956		2187.500000
6957		2187.500000
6958		2187.500000
6959		2187.500000
6960		2187.500000
6961		2187.500000
6962		2187.500000
6963		2109.375000
6964		2187.500000
6965		2187.500000
6966		2187.500000
6967		2187.500000
6968		2187.500000
6969		2187.500000
6970		2187.500000
6971		2187.500000
6972		2187.500000
6973		2187.500000
6974		2187.500000
6975		2187.500000
6976		2187.500000
6977		2187.500000
6978		2187.500000
6979		2187.500000
6980		2187.500000
6981		2187.500000
6982		2187.500000
6983		2187.500000
6984		2187.500000
6985		2187.500000
6986		2187.500000
6987		2187.500000
6988		2187.500000
6989		2187.500000
6990		2187.500000
6991		2187.500000
6992		2187.500000
6993		2187.500000
6994		2187.500000
6995		2187.500000
6996		2187.500000
6997		2187.500000
6998		2187.500000
6999		2187.500000
7000		2187.500000
7001		2187.500000
7002		2187.500000
7003		2187.500000
7004		2187.500000
7005		2187.500000
7006		2187.500000
7007		2187.500000
7008		2187.500000
7009		2187.500000
7010		2187.500000
7011		2187.500000
7012		2187.500000
7013		2187.500000
7014		2187.500000
7015		2187.500000
7016		2187.500000
7017		2187.500000
7018		2187.500000
7019		2187.500000
7020		2187.500000
7021		2187.500000
7022		2187.500000
7023		2187.500000
7024		2187.500000
7025		2187.500000
7026		2187.500000
7027		2187.500000
7028		2187.500000
7029		2187.500000
7030		2187.500000
7031		2187.500000
7032		2187.500000
7033		2187.500000
7034		2187.500000
7035		2187.500000
7036		2187.500000
7037		2187.500000
7038		2187.500000
7039		2187.500000
7040		2187.500000
7041		2187.500000
7042		2187.500000
7043		2187.500000
7044		2187.500000
7045		2187.500000
7046		2187.500000
7047		2187.500000
7048		2187.500000
7049		2187.500000
7050		2187.500000
7051		2187.500000
7052		2187.500000
7053		2187.500000
7054		2187.500000
7055		2187.500000
7056		2187.500000
7057		2187.500000
7058		2187.500000
7059		2187.500000
7060		2187.500000
7061		2187.500000
7062		2187.500000
7063		2187.500000
7064		2187.500000
7065		2187.500000
7066		2187.500000
7067		2265.625000
7068		2187.500000
7069		2187.500000
7070		2187.500000
7071		2187.500000
7072		2265.625000
7073		2265.625000
7074		2187.500000
7075		2187.500000
7076		2187.500000
7077		2187.500000
7078		2187.500000
7079		2187.500000
7080		2187.500000
7081		2265.625000
7082		2265.625000
7083		2265.625000
7084		2265.625000
7085		2265.625000
7086		2265.625000
7087		2265.625000
7088		2265.625000
7089		2265.625000
7090		2265.625000
7091		2265.625000
7092		2265.625000
7093		2265.625000
7094		2265.625000
7095		2265.625000
7096		2265.625000
7097		2265.625000
7098		2265.625000
7099		2265.625000
7100		2265.625000
7101		2265.625000
7102		2265.625000
7103		2265.625000
7104		2265.625000
7105		2265.625000
7106		2265.625000
7107		2265.625000
7108		2265.625000
7109		2265.625000
7110		2265.625000
7111		2265.625000
7112		2265.625000
7113		2265.625000
7114		2265.625000
7115		2265.625000
7116		2265.625000
7117		2265.625000
7118		2265.625000
7119		2265.625000
7120		2265.625000
7121		2265.625000
7122		2265.625000
7123		2265.625000
7124		2265.625000
7125		2265.625000
7126		2265.625000
7127		2265.625000
7128		2265.625000
7129		2265.625000
7130		2265.625000
7131		2265.625000
7132		2265.625000
7133		2265.625000
7134		2265.625000
7135		2265.625000
7136		2265.625000
7137		2265.625000
7138		2265.625000
7139		2265.625000
7140		2265.625000
7141		2343.750000
7142		2265.625000
7143		2265.625000
7144		2265.625000
7145		2265.625000
7146		2343.750000
7147		2265.625000
7148		2343.750000
7149		2343.750000
7150		2343.750000
7151		2343.750000
7152		2343.750000
7153		2343.750000
7154		2265.625000
7155		2343.750000
7156		2343.750000
7157		2343.750000
7158		2343.750000
7159		2343.750000
7160		2343.750000
7161		2343.750000
7162		2343.750000
7163		2343.750000
7164		2343.750000
7165		2343.750000
7166		2343.750000
7167		2343.750000
7168		2343.750000
7169		2343.750000
7170		2343.750000
7171		2343.750000
7172		2343.750000
7173		2343.750000
7174		2343.750000
7175		2343.750000
7176		2343.750000
7177		2343.750000
7178		2343.750000
7179		2343.750000
7180		2343.750000
7181		2343.750000
7182		2343.750000
7183		2343.750000
7184		2343.750000
7185		2343.750000
7186		2343.750000
7187		2343.750000
7188		2343.750000
7189		2343.750000
7190		2343.750000
7191		2343.750000
7192		2343.750000
7193		2421.875000
7194		2343.750000
7195		2421.875000
7196		2421.875000
7197		2343.750000
7198		2421.875000
7199		2343.750000
7200		2343.750000
7201		2343.750000
7202		2421.875000
7203		2421.875000
7204		2421.875000
7205		2421.875000
7206		2421.875000
7207		2421.875000
7208		2421.875000
7209		2421.875000
7210		2421.875000
7211		2421.875000
7212		2421.875000
7213		2421.875000
7214		2421.875000
7215		2421.875000
7216		2421.875000
7217		2421.875000
7218		2421.875000
7219		2421.875000
7220		2421.875000
7221		2421.875000
7222		2421.875000
7223		2421.875000
7224		2421.875000
7225		2421.875000
7226		2421.875000
7227		2421.875000
7228		2421.875000
7229		2421.875000
7230		2421.875000
7231		2421.875000
7232		2421.875000
7233		2421.875000
7234		2421.875000
7235		2421.875000
7236		2421.875000
7237		2421.875000
7238		2421.875000
7239		2421.875000
7240		2421.875000
7241		2500.000000
7242		2500.000000
7243		2500.000000
7244		2500.000000
7245		2500.000000
7246		2500.000000
7247		2500.000000
7248		2500.000000
7249		2500.000000
7250		2500.000000
7251		2500.000000
7252		2500.000000
7253		2500.000000
7254		2500.000000
7255		2500.000000
7256		2500.000000
7257		2500.000000
7258		2500.000000
7259		2500.000000
7260		2500.000000
7261		2500.000000
7262		2500.000000
7263		2500.000000
7264		2500.000000
7265		2500.000000
7266		2500.000000
7267		2500.000000
7268		2500.000000
7269		2500.000000
7270		2500.000000
7271		2578.125000
7272		2500.000000
7273		2500.000000
7274		2578.125000
7275		2578.125000
7276		2578.125000
7277		2578.125000
7278		2578.125000
7279		2578.125000
7280		2578.125000
7281		2578.125000
7282		2578.125000
7283		2578.125000
7284		2578.125000
7285		2578.125000
7286		2578.125000
7287		2578.125000
7288		2578.125000
7289		2578.125000
7290		2578.125000
7291		2578.125000
7292		2578.125000
7293		2578.125000
7294		2578.125000
7295		2578.125000
7296		2578.125000
7297		2578.125000
7298		2578.125000
7299		2578.125000
7300		2578.125000
7301		2578.125000
7302		2578.125000
7303		2656.250000
7304		2656.250000
7305		2578.125000
7306		2656.250000
7307		2656.250000
7308		2656.250000
7309		2656.250000
7310		2656.250000
7311		2656.250000
7312		2656.250000
7313		2656.250000
7314		2656.250000
7315		2656.250000
7316		2656.250000
7317		2656.250000
7318		2656.250000
7319		2656.250000
7320		2656.250000
7321		2656.250000
7322		2656.250000
7323		2656.250000
7324		2656.250000
7325		2656.250000
7326		2656.250000
7327		2656.250000
7328		2656.250000
7329		2656.250000
7330		2656.250000
7331		2734.375000
7332		2734.375000
7333		2734.375000
7334		2734.375000
7335		2734.375000
7336		2734.375000
7337		2734.375000
7338		2734.375000
7339		2734.375000
7340		2734.375000
7341		2734.375000
7342		2734.375000
7343		2734.375000
7344		2734.375000
7345		2734.375000
7346		2734.375000
7347		2734.375000
7348		2734.375000
7349		2734.375000
7350		2734.375000
7351		2734.375000
7352		2734.375000
7353		2734.375000
7354		2734.375000
7355		2734.375000
7356		2734.375000
7357		2734.375000
7358		2812.500000
7359		2812.500000
7360		2812.500000
7361		2812.500000
7362		2734.375000
7363		2812.500000
7364		2812.500000
7365		2812.500000
7366		2812.500000
7367		2812.500000
7368		2812.500000
7369		2812.500000
7370		2812.500000
7371		2812.500000
7372		2812.500000
7373		2812.500000
7374		2812.500000
7375		2812.500000
7376		2812.500000
7377		2812.500000
7378		2812.500000
7379		2812.500000
7380		2812.500000
7381		2812.500000
7382		2812.500000
7383		2812.500000
7384		2812.500000
7385		2812.500000
7386		2890.625000
7387		2890.625000
7388		2890.625000
7389		2890.625000
7390		2890.625000
7391		2890.625000
7392		2890.625000
7393		2890.625000
7394		2890.625000
7395		2890.625000
7396		2890.625000
7397		2890.625000
7398		2890.625000
7399		2890.625000
7400		2890.625000
7401		2890.625000
7402		2890.625000
7403		2890.625000
7404		2890.625000
7405		2890.625000
7406		2890.625000
7407		2890.625000
7408		2968.750000
7409		2968.750000
7410		2968.750000
7411		2968.750000
7412		2968.750000
7413		2968.750000
7414		2968.750000
7415		2968.750000
7416		2968.750000
7417		2968.750000
7418		2968.750000
7419		2968.750000
7420		2968.750000
7421		2968.750000
7422		2968.750000
7423		2968.750000
7424		2968.750000
7425		2968.750000
7426		2968.750000
7427		2968.750000
7428		2968.750000
7429		2968.750000
7430		2968.750000
7431		2968.750000
7432		3046.875000
7433		3046.875000
7434		3046.875000
7435		3046.875000
7436		3046.875000
7437		3046.875000
7438		3046.875000
7439		3046.875000
7440		3046.875000
7441		3046.875000
7442		3046.875000
7443		3046.875000
7444		3046.875000
7445		3046.875000
7446		3046.875000
7447		3046.875000
7448		3046.875000
7449		3046.875000
7450		3046.875000
7451		3046.875000
7452		3046.875000
7453		3046.875000
7454		3046.875000
7455		3046.875000
7456		3046.875000
7457		3046.875000
7458		3125.000000
7459		3125.000000
7460		3125.000000
7461		3125.000000
7462		3125.000000
7463		3125.000000
7464		3125.000000
7465		3125.000000
7466		3125.000000
7467		3125.000000
7468		3125.000000
7469		3125.000000
7470		3125.000000
7471		3125.000000
7472		3125.000000
7473		3125.000000
7474		3125.000000
7475		3125.000000
7476		3125.000000
7477		3125.000000
7478		3125.000000
7479		3203.125000
7480		3203.125000
7481		3203.125000
7482		3203.125000
7483		3203.125000
7484		3203.125000
7485		3203.125000
7486		3203.125000
7487		3203.125000
7488		3203.125000
7489		3203.125000
7490		3203.125000
7491		3203.125000
7492		3203.125000
7493		3203.125000
7494		3203.125000
7495		3203.125000
7496		3203.125000
7497		3203.125000
7498		3203.125000
7499		3203.125000
7500		3203.125000
7501		3203.125000
7502		3203.125000
7503		3281.250000
7504		3281.250000
7505		3281.250000
7506		3281.250000
7507		3281.250000
7508		3281.250000
7509		3281.250000
7510		3281.250000
7511		3281.250000
7512		3281.250000
7513		3281.250000
7514		3281.250000
7515		3281.250000
7516		3281.250000
7517		3281.250000
7518		3281.250000
7519		3281.250000
7520		3281.250000
7521		3281.250000
7522		3281.250000
7523		3281.250000
7524		3359.375000
7525		3281.250000
7526		3281.250000
7527		3359.375000
7528		3359.375000
7529		3359.375000
7530		3359.375000
7531		3359.375000
7532		3359.375000
7533		3359.375000
7534		3359.375000
7535		3359.375000
7536		3359.375000
7537		3359.375000
7538		3359.375000
7539		3359.375000
7540		3359.375000
7541		3359.375000
7542		3359.375000
7543		3359.375000
7544		3359.375000
7545		3359.375000
7546		3359.375000
7547		3359.375000
7548		3359.375000
7549		3359.375000
7550		3437.500000
7551		3437.500000
7552		3437.500000
7553		3437.500000
7554		3437.500000
7555		3437.500000
7556		3437.500000
7557		3437.500000
7558		3437.500000
7559		3437.500000
7560		3437.500000
7561		3437.500000
7562		3437.500000
7563		3437.500000
7564		3437.500000
7565		3437.500000
7566		3437.500000
7567		3437.500000
7568		3437.500000
7569		3437.500000
7570		3437.500000
7571		3437.500000
7572		3437.500000
7573		3437.500000
7574		3437.500000
7575		3437.500000
7576		3437.500000
7577		3437.500000
7578		3437.500000
7579		3437.500000
7580		3515.625000
7581		3437.500000
7582		3515.625000
7583		3515.625000
7584		3515.625000
7585		3515.625000
7586		3515.625000
7587		3515.625000
7588		3515.625000
7589		3515.625000
7590		3515.625000
7591		3515.625000
7592		3515.625000
7593		3515.625000
7594		3515.625000
7595		3515.625000
7596		3515.625000
7597		3515.625000
7598		3515.625000
7599		3515.625000
7600		3515.625000
7601		3515.625000
7602		3515.625000
7603		3515.625000
7604		3515.625000
7605		3593.750000
7606		3515.625000
7607		3515.625000
7608		3593.750000
7609		3593.750000
7610		3593.750000
7611		3593.750000
7612		3593.750000
7613		3593.750000
7614		3593.750000
7615		3593.750000
7616		3593.750000
7617		3593.750000
7618		3593.750000
7619		3593.750000
7620		3593.750000
7621		3593.750000
7622		3593.750000
7623		3593.750000
7624		3593.750000
7625		3593.750000
7626		3593.750000
7627		3593.750000
7628		3593.750000
7629		3593.750000
7630		3593.750000
7631		3593.750000
7632		3593.750000
7633		3593.750000
7634		3593.750000
7635		3593.750000
7636		3593.750000
7637		3593.750000
7638		3593.750000
7639		3593.750000
7640		3593.750000
7641		3593.750000
7642		3671.875000
7643		3593.750000
7644		3671.875000
7645		3671.875000
7646		3671.875000
7647		3671.875000
7648		3671.875000
7649		3671.875000
7650		3671.875000
7651		3671.875000
7652		3671.875000
7653		3671.875000
7654		3671.875000
7655		3671.875000
7656		3671.875000
7657		3671.875000
7658		3671.875000
7659		3671.875000
7660		3671.875000
7661		3671.875000
7662		3671.875000
7663		3671.875000
7664		3671.875000
7665		3671.875000
7666		3671.875000
7667		3671.875000
7668		3671.875000
7669		3671.875000
7670		3671.875000
7671		3671.875000
7672		3671.875000
7673		3671.875000
7674		3671.875000
7675		3671.875000
7676		3671.875000
7677		3671.875000
7678		3671.875000
7679		3671.875000
7680		3671.875000
7681		3671.875000
7682		3671.875000
7683		3671.875000
7684		3671.875000
7685		3671.875000
7686		3671.875000
7687		3671.875000
7688		3671.875000
7689		3671.875000
7690		3671.875000
7691		3671.875000
7692		3671.875000
7693		3750.000000
7694		3750.000000
7695		3671.875000
7696		3750.000000
7697		3750.000000
7698		3671.875000
7699		3750.000000
7700		3750.000000
7701		3750.000000
7702		3750.000000
7703		3750.000000
7704		3750.000000
7705		3750.000000
7706		3750.000000
7707		3750.000000
7708		3750.000000
7709		3750.000000
7710		3750.000000
7711		3750.000000
7712		3750.000000
7713		3750.000000
7714		3750.000000
7715		3750.000000
7716		3750.000000
7717		3750.000000
7718		3750.000000
7719		3750.000000
7720		3750.000000
7721		3750.000000
7722		3750.000000
7723		3750.000000
7724		3750.000000
7725		3750.000000
7726		3750.000000
7727		3750.000000
7728		3750.000000
7729		3750.000000
7730		3750.000000
7731		3750.000000
7732		3750.000000
7733		3750.000000
7734		3750.000000
7735		3750.000000
7736		3750.000000
7737		3750.000000
7738		3750.000000
7739		3750.000000
7740		3750.000000
7741		3750.000000
7742		3750.000000
7743		3750.000000
7744		3750.000000
7745		3750.000000
7746		3750.000000
7747		3750.000000
7748		3750.000000
7749		3750.000000
7750		3750.000000
7751		3750.000000
7752		3750.000000
7753		3750.000000
7754		3750.000000
7755		3750.000000
7756		3750.000000
7757		3750.000000
7758		3750.000000
7759		3750.000000
7760		3750.000000
7761		3750.000000
7762		3750.000000
7763		3750.000000
7764		3750.000000
7765		3750.000000
7766		3750.000000
7767		3750.000000
7768		3750.000000
7769		3750.000000
7770		3750.000000
7771		3750.000000
7772		3750.000000
7773		3750.000000
7774		3750.000000
7775		3750.000000
7776		3750.000000
7777		3750.000000
7778		3750.000000
7779		3750.000000
7780		3750.000000
7781		3750.000000
7782		3671.875000
7783		3750.000000
7784		3750.000000
7785		3750.000000
7786		3750.000000
7787		3750.000000
7788		3750.000000
7789		3750.000000
7790		3750.000000
7791		3671.875000
7792		3750.000000
7793		3750.000000
7794		3750.000000
7795		3750.000000
7796		3750.000000
7797		3750.000000
7798		3671.875000
7799		3671.875000
7800		3671.875000
7801		3671.875000
7802		3671.875000
7803		3671.875000
7804		3671.875000
7805		3750.000000
7806		3750.000000
7807		3671.875000
7808		3750.000000
7809		3671.875000
7810		3671.875000
7811		3671.875000
7812		3671.875000
7813		3671.875000
7814		3671.875000
7815		3671.875000
7816		3671.875000
7817		3671.875000
7818		3671.875000
7819		3671.875000
7820		3671.875000
7821		3671.875000
7822		3671.875000
7823		3671.875000
7824		3671.875000
7825		3671.875000
7826		3671.875000
7827		3671.875000
7828		3671.875000
7829		3671.875000
7830		3671.875000
7831		3671.875000
7832		3671.875000
7833		3671.875000
7834		3671.875000
7835		3671.875000
7836		3671.875000
7837		3671.875000
7838		3671.875000
7839		3671.875000
7840		3671.875000
7841		3671.875000
7842		3671.875000
7843		3671.875000
7844		3671.875000
7845		3671.875000
7846		3671.875000
7847		3671.875000
7848		3671.875000
7849		3671.875000
7850		3671.875000
7851		3671.875000
7852		3671.875000
7853		3593.750000
7854		3671.875000
7855		3593.750000
7856		3593.750000
7857		3593.750000
7858		3593.750000
7859		3593.750000
7860		3593.750000
7861		3593.750000
7862		3593.750000
7863		3593.750000
7864		3593.750000
7865		3593.750000
7866		3593.750000
7867		3593.750000
7868		3593.750000
7869		3593.750000
7870		3593.750000
7871		3593.750000
7872		3593.750000
7873		3593.750000
7874		3593.750000
7875		3593.750000
7876		3593.750000
7877		3593.750000
7878		3593.750000
7879		3593.750000
7880		3593.750000
7881		3593.750000
7882		3593.750000
7883		3593.750000
7884		3593.750000
7885		3593.750000
7886		3593.750000
7887		3593.750000
7888		3593.750000
7889		3593.750000
7890		3593.750000
7891		3593.750000
7892		3593.750000
7893		3593.750000
7894		3515.625000
7895		3515.625000
7896		3515.625000
7897		3515.625000
7898		3515.625000
7899		3515.625000
7900		3515.625000
7901		3515.625000
7902		3515.625000
7903		3515.625000
7904		3515.625000
7905		3515.625000
7906		3515.625000
7907		3515.625000
7908		3515.625000
7909		3515.625000
7910		3515.625000
7911		3515.625000
7912		3515.625000
7913		3515.625000
7914		3515.625000
7915		3515.625000
7916		3515.625000
7917		3515.625000
7918		3515.625000
7919		3515.625000
7920		3515.625000
7921		3437.500000
7922		3437.500000
7923		3437.500000
7924		3437.500000
7925		3437.500000
7926		3437.500000
7927		3437.500000
7928		3437.500000
7929		3437.500000
7930		3437.500000
7931		3437.500000
7932		3437.500000
7933		3437.500000
7934		3437.500000
7935		3437.500000
7936		3437.500000
7937		3437.500000
7938		3437.500000
7939		3437.500000
7940		3437.500000
7941		3437.500000
7942		3437.500000
7943		3437.500000
7944		3437.500000
7945		3437.500000
7946		3437.500000
7947		3359.375000
7948		3437.500000
7949		3437.500000
7950		3437.500000
7951		3359.375000
7952		3359.375000
7953		3359.375000
7954		3359.375000
7955		3359.375000
7956		3359.375000
7957		3359.375000
7958		3359.375000
7959		3359.375000
7960		3359.375000
7961		3359.375000
7962		3359.375000
7963		3359.375000
7964		3359.375000
7965		3359.375000
7966		3359.375000
7967		3359.375000
7968		3359.375000
7969		3359.375000
7970		3359.375000
7971		3359.375000
7972		3359.375000
7973		3359.375000
7974		3359.375000
7975		3281.250000
7976		3281.250000
7977		3281.250000
7978		3281.250000
7979		3281.250000
7980		3281.250000
7981		3281.250000
7982		3281.250000
7983		3281.250000
7984		3281.250000
7985		3281.250000
7986		3281.250000
7987		3281.250000
7988		3281.250000
7989		3281.250000
7990		3281.250000
7991		3281.250000
7992		3281.250000
7993		3281.250000
7994		3281.250000
7995		3281.250000
7996		3281.250000
7997		3281.250000
7998		3281.250000
7999		3203.125000
8000		3203.125000
8001		3203.125000
8002		3203.125000
8003		3203.125000
8004		3203.125000
8005		3203.125000
8006		3203.125000
8007		3203.125000
8008		3203.125000
8009		3203.125000
8010		3203.125000
8011		3203.125000
8012		3203.125000
8013		3203.125000
8014		3203.125000
8015		3203.125000
8016		3203.125000
8017		3203.125000
8018		3203.125000
8019		3203.125000
8020		3203.125000
8021		3203.125000
8022		3203.125000
8023		3203.125000
8024		3125.000000
8025		3203.125000
8026		3125.000000
8027		3125.000000
8028		3125.000000
8029		3125.000000
8030		3125.000000
8031		3125.000000
8032		3125.000000
8033		3125.000000
8034		3125.000000
8035		3125.000000
8036		3125.000000
8037		3125.000000
8038		3125.000000
8039		3125.000000
8040		3125.000000
8041		3125.000000
8042		3125.000000
8043		3125.000000
8044		3125.000000
8045		3125.000000
8046		3125.000000
8047		3125.000000
8048		3125.000000
8049		3125.000000
8050		3125.000000
8051		3046.875000
8052		3046.875000
8053		3046.875000
8054		3046.875000
8055		3046.875000
8056		3046.875000
8057		3046.875000
8058		3046.875000
8059		3046.875000
8060		3046.875000
8061		3046.875000
8062		3046.875000
8063		3046.875000
8064		3046.875000
8065		3046.875000
8066		3046.875000
8067		3046.875000
8068		3046.875000
8069		3046.875000
8070		3046.875000
8071		3046.875000
8072		2968.750000
8073		3046.875000
8074		2968.750000
8075		2968.750000
8076		2968.750000
8077		2968.750000
8078		2968.750000
8079		2968.750000
8080		2968.750000
8081		2968.750000
8082		2968.750000
8083		2968.750000
8084		2968.750000
8085		2968.750000
8086		2968.750000
8087		2968.750000
8088		2968.750000
8089		2968.750000
8090		2968.750000
8091		2968.750000
8092		2968.750000
8093		2968.750000
8094		2968.750000
8095		2968.750000
8096		2890.625000
8097		2968.750000
8098		2968.750000
8099		2890.625000
8100		2890.625000
8101		2890.625000
8102		2890.625000
8103		2890.625000
8104		2890.625000
8105		2890.625000
8106		2890.625000
8107		2890.625000
8108		2890.625000
8109		2890.625000
8110		2890.625000
8111		2890.625000
8112		2890.625000
8113		2890.625000
8114		2890.625000
8115		2890.625000
8116		2890.625000
8117		2890.625000
8118		2890.625000
8119		2890.625000
8120		2890.625000
8121		2890.625000
8122		2812.500000
8123		2812.500000
8124		2812.500000
8125		2812.500000
8126		2812.500000
8127		2812.500000
8128		2812.500000
8129		2812.500000
8130		2812.500000
8131		2812.500000
8132		2812.500000
8133		2812.500000
8134		2812.500000
8135		2812.500000
8136		2812.500000
8137		2812.500000
8138		2812.500000
8139		2812.500000
8140		2812.500000
8141		2812.500000
8142		2812.500000
8143		2812.500000
8144		2812.500000
8145		2812.500000
8146		2812.500000
8147		2812.500000
8148		2812.500000
8149		2812.500000
8150		2812.500000
8151		2812.500000
8152		2812.500000
8153		2734.375000
8154		2734.375000
8155		2734.375000
8156		2734.375000
8157		2734.375000
8158		2734.375000
8159		2734.375000
8160		2734.375000
8161		2734.375000
8162		2734.375000
8163		2734.375000
8164		2734.375000
8165		2734.375000
8166		2734.375000
8167		2734.375000
8168		2734.375000
8169		2734.375000
8170		2734.375000
8171		2734.375000
8172		2734.375000
8173		2734.375000
8174		2734.375000
8175		2734.375000
8176		2734.375000
8177		2656.250000
8178		2656.250000
8179		2656.250000
8180		2656.250000
8181		2656.250000
8182		2656.250000
8183		2656.250000
8184		2656.250000
8185		2656.250000
8186		2656.250000
8187		2656.250000
8188		2656.250000
8189		2656.250000
8190		2656.250000
8191		2656.250000
8192		2656.250000
8193		2656.250000
8194		2656.250000
8195		2656.250000
8196		2656.250000
8197		2656.250000
8198		2656.250000
8199		2656.250000
8200		2656.250000
8201		2656.250000
8202		2656.250000
8203		2656.250000
8204		2656.250000
8205		2656.250000
8206		2656.250000
8207		2656.250000
8208		2656.250000
8209		2656.250000
8210		2578.125000
8211		2578.125000
8212		2578.125000
8213		2578.125000
8214		2578.125000
8215		2578.125000
8216		2578.125000
8217		2578.125000
8218		2578.125000
8219		2578.125000
8220		2578.125000
8221		2578.125000
8222		2578.125000
8223		2578.125000
8224		2578.125000
8225		2578.125000
8226		2578.125000
8227		2578.125000
8228		2578.125000
8229		2578.125000
8230		2578.125000
8231		2578.125000
8232		2578.125000
8233		2578.125000
8234		2578.125000
8235		2578.125000
8236		2578.125000
8237		2578.125000
8238		2578.125000
8239		2578.125000
8240		2578.125000
8241		2578.125000
8242		2578.125000
8243		2578.125000
8244		2578.125000
8245		2500.000000
8246		2500.000000
8247		2500.000000
8248		2500.000000
8249		2500.000000
8250		2500.000000
8251		2500.000000
8252		2500.000000
8253		2500.000000
8254		2500.000000
8255		2500.000000
8256		2500.000000
8257		2500.000000
8258		2500.000000
8259		2500.000000
8260		2500.000000
8261		2500.000000
8262		2500.000000
8263		2500.000000
8264		2500.000000
8265		2500.000000
8266		2500.000000
8267		2500.000000
8268		2500.000000
8269		2500.000000
8270		2500.000000
8271		2500.000000
8272		2500.000000
8273		2500.000000
8274		2500.000000
8275		2500.000000
8276		2500.000000
8277		2500.000000
8278		2500.000000
8279		2500.000000
8280		2500.000000
8281		2421.875000
8282		2421.875000
8283		2500.000000
8284		2421.875000
8285		2421.875000
8286		2421.875000
8287		2421.875000
8288		2421.875000
8289		2421.875000
8290		2421.875000
8291		2421.875000
8292		2421.875000
8293		2421.875000
8294		2421.875000
8295		2421.875000
8296		2421.875000
8297		2421.875000
8298		2421.875000
8299		2421.875000
8300		2421.875000
8301		2421.875000
8302		2421.875000
8303		2421.875000
8304		2421.875000
8305		2421.875000
8306		2421.875000
8307		2421.875000
8308		2421.875000
8309		2421.875000
8310		2421.875000
8311		2421.875000
8312		2421.875000
8313		2421.875000
8314		2343.750000
8315		2421.875000
8316		2421.875000
8317		2421.875000
8318		2421.875000
8319		2421.875000
8320		2421.875000
8321		2421.875000
8322		2421.875000
8323		2421.875000
8324		2421.875000
8325		2343.750000
8326		2343.750000
8327		2343.750000
8328		2343.750000
8329		2343.750000
8330		2343.750000
8331		2343.750000
8332		2343.750000
8333		2343.750000
8334		2343.750000
8335		2343.750000
8336		2343.750000
8337		2343.750000
8338		2343.750000
8339		2343.750000
8340		2343.750000
8341		2343.750000
8342		2343.750000
8343		2343.750000
8344		2343.750000
8345		2343.750000
8346		2343.750000
8347		2343.750000
8348		2343.750000
8349		2343.750000
8350		2343.750000
8351		2343.750000
8352		2343.750000
8353		2343.750000
8354		2343.750000
8355		2343.750000
8356		2343.750000
8357		2343.750000
8358		2343.750000
8359		2343.750000
8360		2343.750000
8361		2343.750000
8362		2343.750000
8363		2343.750000
8364		2343.750000
8365		2343.750000
8366		2343.750000
8367		2343.750000
8368		2343.750000
8369		2343.750000
8370		2343.750000
8371		2343.750000
8372		2343.750000
8373		2343.750000
8374		2343.750000
8375		2343.750000
8376		2343.750000
8377		2265.625000
8378		2265.625000
8379		2265.625000
8380		2265.625000
8381		2265.625000
8382		2265.625000
8383		2265.625000
8384		2343.750000
8385		2265.625000
8386		2265.625000
8387		2265.625000
8388		2265.625000
8389		2343.750000
8390		2265.625000
8391		2265.625000
8392		2265.625000
8393		2265.625000
8394		2265.625000
8395		2265.625000
8396		2265.625000
8397		2265.625000
8398		2265.625000
8399		2265.625000
8400		2265.625000
8401		2265.625000
8402		2265.625000
8403		2265.625000
8404		2265.625000
8405		2265.625000
8406		2265.625000
8407		2265.625000
8408		2265.625000
8409		2265.625000
8410		2265.625000
8411		2265.625000
8412		2265.625000
8413		2265.625000
8414		2265.625000
8415		2265.625000
8416		2265.625000
8417		2265.625000
8418		2265.625000
8419		2265.625000
8420		2265.625000
8421		2265.625000
8422		2265.625000
8423		2265.625000
8424		2265.625000
8425		2265.625000
8426		2265.625000
8427		2265.625000
8428		2265.625000
8429		2265.625000
8430		2265.625000
8431		2265.625000
8432		2265.625000
8433		2265.625000
8434		2265.625000
8435		2265.625000
8436		2265.625000
8437		2265.625000
8438		2265.625000
8439		2265.625000
8440		2265.625000
8441		2265.625000
8442		2265.625000
8443		2265.625000
8444		2265.625000
8445		2265.625000
8446		2265.625000
8447		2265.625000
8448		2265.625000
8449		2265.625000
8450		2265.625000
8451		2265.625000
8452		2265.625000
8453		2265.625000
8454		2265.625000
8455		2265.625000
8456		2265.625000
8457		2265.625000
8458		2265.625000
8459		2187.500000
8460		2187.500000
8461		2265.625000
8462		2187.500000
8463		2187.500000
8464		2265.625000
8465		2187.500000
8466		2187.500000
8467		2187.500000
8468		2187.500000
8469		2187.500000
8470		2187.500000
8471		2187.500000
8472		2187.500000
8473		2187.500000
8474		2187.500000
8475		2187.500000
8476		2187.500000
8477		2187.500000
8478		2187.500000
8479		2187.500000
8480		2187.500000
8481		2187.500000
8482		2187.500000
8483		2187.500000
8484		2187.500000
8485		2187.500000
8486		2187.500000
8487		2187.500000
8488		2187.500000
8489		2187.500000
8490		2187.500000
8491		2187.500000
8492		2187.500000
8493		2187.500000
8494		2187.500000
8495		2187.500000
8496		2187.500000
8497		2187.500000
8498		2187.500000
8499		2187.500000
8500		2187.500000
8501		2187.500000
8502		2187.500000
8503		2187.500000
8504		2187.500000
8505		2187.500000
8506		2187.500000
8507		2187.500000
8508		2187.500000
8509		2187.500000
8510		2187.500000
8511		2187.500000
8512		2187.500000
8513		2187.500000
8514		2187.500000
8515		2187.500000
8516		2187.500000
8517		2187.500000
8518		2187.500000
8519		2187.500000
8520		2187.500000
8521		2187.500000
8522		2187.500000
8523		2187.500000
8524		2187.500000
8525		2187.500000
8526		2187.500000
8527		2187.500000
8528		2187.500000
8529		2187.500000
8530		2187.500000
8531		2187.500000
8532		2187.500000
8533		2187.500000
8534		2187.500000
8535		2187.500000
8536		2187.500000
8537		2187.500000
8538		2187.500000
8539		2187.500000
8540		2187.500000
8541		2187.500000
8542		2187.500000
8543		2187.500000
8544		2187.500000
8545		2187.500000
8546		2187.500000
8547		2187.500000
8548		2187.500000
8549		2187.500000
8550		2187.500000
8551		2187.500000
8552		2187.500000
8553		2187.500000
8554		2187.500000
8555		2187.500000
8556		2187.500000
8557		2187.500000
8558		2187.500000
8559		2187.500000
8560		2187.500000
8561		2187.500000
8562		2187.500000
8563		2187.500000
8564		2187.500000
8565		2187.500000
8566		2187.500000
8567		2187.500000
8568		2187.500000
8569		2187.500000
8570		2187.500000
8571		2187.500000
8572		2187.500000
8573		2187.500000
8574		2187.500000
8575		2187.500000
8576		2187.500000
8577		2187.500000
8578		2187.500000
8579		2187.500000
8580		2187.500000
8581		2187.500000
8582		2187.500000
8583		2187.500000
8584		2187.500000
8585		2187.500000
8586		2187.500000
8587		2187.500000
8588		2187.500000
8589		2187.500000
8590		2187.500000
8591		2187.500000
8592		2187.500000
8593		2187.500000
8594		2187.500000
8595		2187.500000
8596		2187.500000
8597		2187.500000
8598		2187.500000
8599		2187.500000
8600		2187.500000
8601		2187.500000
8602		2187.500000
8603		2187.500000
8604		2187.500000
8605		2187.500000
8606		2187.500000
8607		2187.500000
8608		2187.500000
8609		2187.500000
8610		2187.500000
8611		2187.500000
8612		2187.500000
8613		2187.500000
8614		2187.500000
8615		2187.500000
8616		2187.500000
8617		2187.500000
8618		2187.500000
8619		2187.500000
8620		2187.500000
8621		2187.500000
8622		2187.500000
8623		2187.500000
8624		2187.500000
8625		2187.500000
8626		2187.500000
8627		2187.500000
8628		2187.500000
8629		2187.500000
8630		2187.500000
8631		2187.500000
8632		2187.500000
8633		2187.500000
8634		2187.500000
8635		2187.500000
8636		2187.500000
8637		2187.500000
8638		2187.500000
8639		2187.500000
8640		2187.500000
8641		2187.500000
8642		2187.500000
8643		2187.500000
8644		2187.500000
8645		2187.500000
8646		2187.500000
8647		2187.500000
8648		2187.500000
8649		2187.500000
8650		2187.500000
8651		2187.500000
8652		2187.500000
8653		2187.500000
8654		2187.500000
8655		2187.500000
8656		2187.500000
8657		2187.500000
8658		2187.500000
8659		2187.500000
8660		2187.500000
8661		2187.500000
8662		2187.500000
8663		2187.500000
8664		2187.500000
8665		2187.500000
8666		2187.500000
8667		2187.500000
8668		2187.500000
8669		2187.500000
8670		2187.500000
8671		2187.500000
8672		2187.500000
8673		2187.500000
8674		2187.500000
8675		2187.500000
8676		2187.500000
8677		2265.625000
8678		2187.500000
8679		2187.500000
8680		2187.500000
8681		2187.500000
8682		2187.500000
8683		2187.500000
8684		2187.500000
8685		2187.500000
8686		2187.500000
8687		2187.500000
8688		2265.625000
8689		2265.625000
8690		2265.625000
8691		2265.625000
8692		2187.500000
8693		2265.625000
8694		2265.625000
8695		2265.625000
8696		2265.625000
8697		2265.625000
8698		2265.625000
8699		2265.625000
8700		2265.625000
8701		2265.625000
8702		2265.625000
8703		2265.625000
8704		2265.625000
8705		2265.625000
8706		2265.625000
8707		2265.625000
8708		2265.625000
8709		2265.625000
8710		2265.625000
8711		2265.625000
8712		2265.625000
8713		2265.625000
8714		2265.625000
8715		2265.625000
8716		2265.625000
8717		2265.625000
8718		2265.625000
8719		2265.625000
8720		2265.625000
8721		2265.625000
8722		2265.625000
8723		2265.625000
8724		2265.625000
8725		2265.625000
8726		2265.625000
8727		2265.625000
8728		2265.625000
8729		2265.625000
8730		2265.625000
8731		2265.625000
8732		2265.625000
8733		2265.625000
8734		2265.625000
8735		2265.625000
8736		2265.625000
8737		2265.625000
8738		2265.625000
8739		2265.625000
8740		2265.625000
8741		2265.625000
8742		2265.625000
8743		2265.625000
8744		2265.625000
8745		2265.625000
8746		2265.625000
8747		2265.625000
8748		2265.625000
8749		2265.625000
8750		2265.625000
8751		2265.625000
8752		2265.625000
8753		2265.625000
8754		2265.625000
8755		2265.625000
8756		2265.625000
8757		2265.625000
8758		2265.625000
8759		2265.625000
8760		2265.625000
8761		2265.625000
8762		2265.625000
8763		2265.625000
8764		2265.625000
8765		2265.625000
8766		2343.750000
8767		2343.750000
8768		2343.750000
8769		2343.750000
8770		2265.625000
8771		2343.750000
8772		2343.750000
8773		2343.750000
8774		2265.625000
8775		2343.750000
8776		2343.750000
8777		2265.625000
8778		2343.750000
8779		2343.750000
8780		2343.750000
8781		2343.750000
8782		2343.750000
8783		2343.750000
8784		2343.750000
8785		2343.750000
8786		2343.750000
8787		2343.750000
8788		2343.750000
8789		2343.750000
8790		2343.750000
8791		2343.750000
8792		2343.750000
8793		2343.750000
8794		2343.750000
8795		2343.750000
8796		2343.750000
8797		2343.750000
8798		2343.750000
8799		2343.750000
8800		2343.750000
8801		2343.750000
8802		2343.750000
8803		2343.750000
8804		2343.750000
8805		2343.750000
8806		2343.750000
8807		2343.750000
8808		2343.750000
8809		2343.750000
8810		2343.750000
8811		2343.750000
8812		2343.750000
8813		2343.750000
8814		2343.750000
8815		2343.750000
8816		2343.750000
8817		2343.750000
8818		2343.750000
8819		2343.750000
8820		2343.750000
8821		2343.750000
8822		2343.750000
8823		2343.750000
8824		2343.750000
8825		2343.750000
8826		2343.750000
8827		2421.875000
8828		2343.750000
8829		2421.875000
8830		2421.875000
8831		2421.875000
8832		2421.875000
8833		2421.875000
8834		2421.875000
8835		2421.875000
8836		2421.875000
8837		2421.875000
8838		2421.875000
8839		2421.875000
8840		2421.875000
8841		2421.875000
8842		2421.875000
8843		2421.875000
8844		2421.875000
8845		2421.875000
8846		2421.875000
8847		2421.875000
8848		2421.875000
8849		2421.875000
8850		2421.875000
8851		2421.875000
8852		2421.875000
8853		2421.875000
8854		2421.875000
8855		2421.875000
8856		2421.875000
8857		2421.875000
8858		2421.875000
8859		2421.875000
8860		2421.875000
8861		2421.875000
8862		2421.875000
8863		2421.875000
8864		2421.875000
8865		2421.875000
8866		2421.875000
8867		2421.875000
8868		2421.875000
8869		2421.875000
8870		2421.875000
8871		2500.000000
8872		2500.000000
8873		2500.000000
8874		2500.000000
8875		2500.000000
8876		2500.000000
8877		2500.000000
8878		2500.000000
8879		2500.000000
8880		2500.000000
8881		2500.000000
8882		2500.000000
8883		2500.000000
8884		2500.000000
8885		2500.000000
8886		2500.000000
8887		2500.000000
8888		2500.000000
8889		2500.000000
8890		2500.000000
8891		2500.000000
8892		2500.000000
8893		2500.000000
8894		2500.000000
8895		2500.000000
8896		2500.000000
8897		2500.000000
8898		2500.000000
8899		2500.000000
8900		2500.000000
8901		2500.000000
8902		2500.000000
8903		2500.000000
8904		2500.000000
8905		2500.000000
8906		2578.125000
8907		2578.125000
8908		2500.000000
8909		2578.125000
8910		2578.125000
8911		2578.125000
8912		2578.125000
8913		2578.125000
8914		2578.125000
8915		2578.125000
8916		2578.125000
8917		2578.125000
8918		2578.125000
8919		2578.125000
8920		2578.125000
8921		2578.125000
8922		2578.125000
8923		2578.125000
8924		2578.125000
8925		2578.125000
8926		2578.125000
8927		2578.125000
8928		2578.125000
8929		2578.125000
8930		2656.250000
8931		2578.125000
8932		2578.125000
8933		2578.125000
8934		2578.125000
8935		2578.125000
8936		2578.125000
8937		2578.125000
8938		2578.125000
8939		2578.125000
8940		2578.125000
8941		2578.125000
8942		2578.125000
8943		2656.250000
8944		2656.250000
8945		2656.250000
8946		2656.250000
8947		2656.250000
8948		2656.250000
8949		2656.250000
8950		2656.250000
8951		2656.250000
8952		2656.250000
8953		2656.250000
8954		2656.250000
8955		2656.250000
8956		2656.250000
8957		2656.250000
8958		2656.250000
8959		2656.250000
8960		2656.250000
8961		2656.250000
8962		2656.250000
8963		2656.250000
8964		2656.250000
8965		2656.250000
8966		2734.375000
8967		2656.250000
8968		2656.250000
8969		2734.375000
8970		2734.375000
8971		2656.250000
8972		2734.375000
8973		2734.375000
8974		2734.375000
8975		2734.375000
8976		2734.375000
8977		2734.375000
8978		2734.375000
8979		2734.375000
8980		2734.375000
8981		2734.375000
8982		2734.375000
8983		2734.375000
8984		2734.375000
8985		2734.375000
8986		2734.375000
8987		2734.375000
8988		2734.375000
8989		2734.375000
8990		2734.375000
8991		2734.375000
8992		2734.375000
8993		2734.375000
8994		2734.375000
8995		2734.375000
8996		2734.375000
8997		2734.375000
8998		2734.375000
8999		2812.500000
9000		2734.375000
9001		2812.500000
9002		2812.500000
9003		2734.375000
9004		2812.500000
9005		2812.500000
9006		2812.500000
9007		2812.500000
9008		2812.500000
9009		2812.500000
9010		2812.500000
9011		2812.500000
9012		2812.500000
9013		2812.500000
9014		2812.500000
9015		2812.500000
9016		2812.500000
9017		2812.500000
9018		2812.500000
9019		2812.500000
9020		2812.500000
9021		2812.500000
9022		2812.500000
9023		2812.500000
9024		2812.500000
9025		2890.625000
9026		2890.625000
9027		2890.625000
9028		2890.625000
9029		2890.625000
9030		2890.625000
9031		2890.625000
9032		2890.625000
9033		2890.625000
9034		2890.625000
9035		2890.625000
9036		2890.625000
9037		2890.625000
9038		2890.625000
9039		2890.625000
9040		2890.625000
9041		2890.625000
9042		2890.625000
9043		2890.625000
9044		2890.625000
9045		2890.625000
9046		2890.625000
9047		2890.625000
9048		2890.625000
9049		2890.625000
9050		2968.750000
9051		2968.750000
9052		2968.750000
9053		2968.750000
9054		2968.750000
9055		2968.750000
9056		2968.750000
9057		2968.750000
9058		2968.750000
9059		2968.750000
9060		2968.750000
9061		2968.750000
9062		2968.750000
9063		2968.750000
9064		2968.750000
9065		2968.750000
9066		2968.750000
9067		2968.750000
9068		2968.750000
9069		2968.750000
9070		2968.750000
9071		3046.875000
9072		2968.750000
9073		3046.875000
9074		3046.875000
9075		3046.875000
9076		3046.875000
9077		3046.875000
9078		3046.875000
9079		3046.875000
9080		3046.875000
9081		3046.875000
9082		3046.875000
9083		3046.875000
9084		3046.875000
9085		3046.875000
9086		3046.875000
9087		3046.875000
9088		3046.875000
9089		3046.875000
9090		3046.875000
9091		3046.875000
9092		3046.875000
9093		3046.875000
9094		3046.875000
9095		3125.000000
9096		3046.875000
9097		3125.000000
9098		3125.000000
9099		3125.000000
9100		3125.000000
9101		3125.000000
9102		3125.000000
9103		3125.000000
9104		3125.000000
9105		3125.000000
9106		3125.000000
9107		3125.000000
9108		3125.000000
9109		3125.000000
9110		3125.000000
9111		3125.000000
9112		3125.000000
9113		3125.000000
9114		3125.000000
9115		3125.000000
9116		3125.000000
9117		3125.000000
9118		3125.000000
9119		3125.000000
9120		3125.000000
9121		3203.125000
9122		3203.125000
9123		3203.125000
9124		3203.125000
9125		3203.125000
9126		3203.125000
9127		3203.125000
9128		3203.125000
9129		3203.125000
9130		3203.125000
9131		3203.125000
9132		3203.125000
9133		3203.125000
9134		3203.125000
9135		3203.125000
9136		3203.125000
9137		3203.125000
9138		3203.125000
9139		3203.125000
9140		3203.125000
9141		3203.125000
9142		3203.125000
9143		3281.250000
9144		3281.250000
9145		3281.250000
9146		3281.250000
9147		3281.250000
9148		3281.250000
9149		3281.250000
9150		3281.250000
9151		3281.250000
9152		3281.250000
9153		3281.250000
9154		3281.250000
9155		3281.250000
9156		3281.250000
9157		3281.250000
9158		3281.250000
9159		3281.250000
9160		3281.250000
9161		3281.250000
9162		3281.250000
9163		3281.250000
9164		3359.375000
9165		3359.375000
9166		3359.375000
9167		3359.375000
9168		3359.375000
9169		3359.375000
9170		3359.375000
9171		3359.375000
9172		3359.375000
9173		3359.375000
9174		3359.375000
9175		3359.375000
9176		3359.375000
9177		3359.375000
9178		3359.375000
9179		3359.375000
9180		3359.375000
9181		3359.375000
9182		3359.375000
9183		3359.375000
9184		3359.375000
9185		3359.375000
9186		3359.375000
9187		3359.375000
9188		3359.375000
9189		3359.375000
9190		3437.500000
9191		3437.500000
9192		3437.500000
9193		3437.500000
9194		3437.500000
9195		3437.500000
9196		3437.500000
9197		3437.500000
9198		3437.500000
9199		3437.500000
9200		3437.500000
9201		3437.500000
9202		3437.500000
9203		3437.500000
9204		3437.500000
9205		3437.500000
9206		3437.500000
9207		3437.500000
9208		3437.500000
9209		3437.500000
9210		3437.500000
9211		3437.500000
9212		3437.500000
9213		3437.500000
9214		3437.500000
9215		3515.625000
9216		3515.625000
9217		3515.625000
9218		3515.625000
9219		3515.625000
9220		3515.625000
9221		3515.625000
9222		3515.625000
9223		3515.625000
9224		3515.625000
9225		3515.625000
9226		3515.625000
9227		3515.625000
9228		3515.625000
9229		3515.625000
9230		3515.625000
9231		3515.625000
9232		3515.625000
9233		3515.625000
9234		3515.625000
9235		3515.625000
9236		3515.625000
9237		3515.625000
9238		3515.625000
9239		3515.625000
9240		3515.625000
9241		3593.750000
9242		3515.625000
9243		3515.625000
9244		3593.750000
9245		3593.750000
9246		3593.750000
9247		3593.750000
9248		3593.750000
9249		3593.750000
9250		3593.750000
9251		3593.750000
9252		3593.750000
9253		3593.750000
9254		3593.750000
9255		3593.750000
9256		3593.750000
9257		3515.625000
9258		3593.750000
9259		3593.750000
9260		3593.750000
9261		3593.750000
9262		3593.750000
9263		3593.750000
9264		3593.750000
9265		3593.750000
9266		3593.750000
9267		3593.750000
9268		3593.750000
9269		3593.750000
9270		3593.750000
9271		3671.875000
9272		3593.750000
9273		3671.875000
9274		3671.875000
9275		3593.750000
9276		3671.875000
9277		3593.750000
9278		3671.875000
9279		3671.875000
9280		3671.875000
9281		3671.875000
9282		3671.875000
9283		3671.875000
9284		3671.875000
9285		3671.875000
9286		3671.875000
9287		3671.875000
9288		3671.875000
9289		3671.875000
9290		3671.875000
9291		3671.875000
9292		3671.875000
9293		3671.875000
9294		3671.875000
9295		3671.875000
9296		3671.875000
9297		3671.875000
9298		3671.875000
9299		3671.875000
9300		3671.875000
9301		3671.875000
9302		3671.875000
9303		3671.875000
9304		3671.875000
9305		3671.875000
9306		3671.875000
9307		3671.875000
9308		3671.875000
9309		3671.875000
9310		3671.875000
9311		3671.875000
9312		3671.875000
9313		3671.875000
9314		3671.875000
9315		3671.875000
9316		3671.875000
9317		3671.875000
9318		3671.875000
9319		3671.875000
9320		3671.875000
9321		3671.875000
9322		3671.875000
9323		3750.000000
9324		3750.000000
9325		3750.000000
9326		3750.000000
9327		3750.000000
9328		3750.000000
9329		3750.000000
9330		3750.000000
9331		3750.000000
9332		3750.000000
9333		3750.000000
9334		3750.000000
9335		3750.000000
9336		3750.000000
9337		3750.000000
9338		3750.000000
9339		3750.000000
9340		3750.000000
9341		3750.000000
9342		3750.000000
9343		3750.000000
9344		3750.000000
9345		3750.000000
9346		3750.000000
9347		3750.000000
9348		3750.000000
9349		3750.000000
9350		3750.000000
9351		3750.000000
9352		3750.000000
9353		3750.000000
9354		3750.000000
9355		3750.000000
9356		3750.000000
9357		3750.000000
9358		3750.000000
9359		3750.000000
9360		3750.000000
9361		3750.000000
9362		3750.000000
9363		3750.000000
9364		3750.000000
9365		3750.000000
9366		3750.000000
9367		3750.000000
9368		3750.000000
9369		3750.000000
9370		3750.000000
9371		3750.000000
9372		3750.000000
9373		3750.000000
9374		3750.000000
9375		3750.000000
9376		3750.000000
9377		3750.000000
9378		3750.000000
9379		3750.000000
9380		3750.000000
9381		3750.000000
9382		3750.000000
9383		3750.000000
9384		3750.000000
9385		3750.000000
9386		3750.000000
9387		3750.000000
9388		3750.000000
9389		3750.000000
9390		3750.000000
9391		3750.000000
9392		3750.000000
9393		3750.000000
9394		3750.000000
9395		3750.000000
9396		3750.000000
9397		3750.000000
9398		3750.000000
9399		3750.000000
9400		3750.000000
9401		3750.000000
9402		3750.000000
9403		3750.000000
9404		3750.000000
9405		3750.000000
9406		3750.000000
9407		3750.000000
9408		3750.000000
9409		3750.000000
9410		3750.000000
9411		3750.000000
9412		3750.000000
9413		3750.000000
9414		3750.000000
9415		3750.000000
9416		3750.000000
9417		3750.000000
9418		3750.000000
9419		3750.000000
9420		3750.000000
9421		3750.000000
9422		3750.000000
9423		3750.000000
9424		3750.000000
9425		3750.000000
9426		3750.000000
9427		3750.000000
9428		3750.000000
9429		3750.000000
9430		3750.000000
9431		3750.000000
9432		3750.000000
9433		3750.000000
9434		3750.000000
9435		3750.000000
9436		3750.000000
9437		3750.000000
9438		3750.000000
9439		3750.000000
9440		3750.000000
9441		3750.000000
9442		3750.000000
9443		3750.000000
9444		3750.000000
9445		3750.000000
9446		3750.000000
9447		3750.000000
9448		3750.000000
9449		3750.000000
9450		3750.000000
9451		3750.000000
9452		3750.000000
9453		3750.000000
9454		3750.000000
9455		3750.000000
9456		3750.000000
9457		3750.000000
9458		3750.000000
9459		3750.000000
9460		3750.000000
9461		3750.000000
9462		3750.000000
9463		3750.000000
9464		3750.000000
9465		3750.000000
9466		3750.000000
9467		3750.000000
9468		3750.000000
9469		3750.000000
9470		3750.000000
9471		3750.000000
9472		3750.000000
9473		3671.875000
9474		3750.000000
9475		3671.875000
9476		3671.875000
9477		3671.875000
9478		3671.875000
9479		3671.875000
9480		3671.875000
9481		3671.875000
9482		3671.875000
9483		3671.875000
9484		3671.875000
9485		3671.875000
9486		3671.875000
9487		3671.875000
9488		3671.875000
9489		3671.875000
9490		3671.875000
9491		3671.875000
9492		3671.875000
9493		3671.875000
9494		3671.875000
9495		3671.875000
9496		3671.875000
9497		3671.875000
9498		3671.875000
9499		3671.875000
9500		3671.875000
9501		3671.875000
9502		3671.875000
9503		3671.875000
9504		3671.875000
9505		3671.875000
9506		3671.875000
9507		3671.875000
9508		3671.875000
9509		3671.875000
9510		3671.875000
9511		3671.875000
9512		3671.875000
9513		3671.875000
9514		3593.750000
9515		3593.750000
9516		3593.750000
9517		3593.750000
9518		3593.750000
9519		3593.750000
9520		3593.750000
9521		3593.750000
9522		3593.750000
9523		3593.750000
9524		3593.750000
9525		3593.750000
9526		3593.750000
9527		3593.750000
9528		3593.750000
9529		3593.750000
9530		3593.750000
9531		3593.750000
9532		3593.750000
9533		3593.750000
9534		3593.750000
9535		3593.750000
9536		3593.750000
9537		3593.750000
9538		3593.750000
9539		3593.750000
9540		3593.750000
9541		3593.750000
9542		3593.750000
9543		3593.750000
9544		3593.750000
9545		3593.750000
9546		3593.750000
9547		3593.750000
9548		3593.750000
9549		3593.750000
9550		3515.625000
9551		3515.625000
9552		3515.625000
9553		3515.625000
9554		3515.625000
9555		3515.625000
9556		3515.625000
9557		3515.625000
9558		3515.625000
9559		3515.625000
9560		3593.750000
9561		3593.750000
9562		3515.625000
9563		3515.625000
9564		3515.625000
9565		3515.625000
9566		3515.625000
9567		3515.625000
9568		3515.625000
9569		3515.625000
9570		3515.625000
9571		3515.625000
9572		3515.625000
9573		3515.625000
9574		3515.625000
9575		3515.625000
9576		3515.625000
9577		3437.500000
9578		3437.500000
9579		3437.500000
9580		3437.500000
9581		3437.500000
9582		3437.500000
9583		3437.500000
9584		3437.500000
9585		3437.500000
9586		3437.500000
9587		3437.500000
9588		3437.500000
9589		3437.500000
9590		3437.500000
9591		3437.500000
9592		3437.500000
9593		3437.500000
9594		3437.500000
9595		3437.500000
9596		3437.500000
9597		3437.500000
9598		3437.500000
9599		3437.500000
9600		3437.500000
9601		3437.500000
9602		3437.500000
9603		3437.500000
9604		3437.500000
9605		3437.500000
9606		3359.375000
9607		3359.375000
9608		3359.375000
9609		3359.375000
9610		3359.375000
9611		3359.375000
9612		3359.375000
9613		3359.375000
9614		3359.375000
9615		3359.375000
9616		3359.375000
9617		3359.375000
9618		3359.375000
9619		3359.375000
9620		3359.375000
9621		3359.375000
9622		3359.375000
9623		3359.375000
9624		3359.375000
9625		3359.375000
9626		3359.375000
9627		3359.375000
9628		3359.375000
9629		3359.375000
9630		3359.375000
9631		3359.375000
9632		3359.375000
9633		3281.250000
9634		3281.250000
9635		3281.250000
9636		3281.250000
9637		3281.250000
9638		3281.250000
9639		3281.250000
9640		3281.250000
9641		3281.250000
9642		3281.250000
9643		3281.250000
9644		3281.250000
9645		3281.250000
9646		3281.250000
9647		3281.250000
9648		3281.250000
9649		3281.250000
9650		3281.250000
9651		3281.250000
9652		3281.250000
9653		3281.250000
9654		3281.250000
9655		3281.250000
9656		3203.125000
9657		3203.125000
9658		3203.125000
9659		3203.125000
9660		3203.125000
9661		3203.125000
9662		3203.125000
9663		3203.125000
9664		3203.125000
9665		3203.125000
9666		3203.125000
9667		3203.125000
9668		3203.125000
9669		3203.125000
9670		3203.125000
9671		3203.125000
9672		3203.125000
9673		3203.125000
9674		3203.125000
9675		3203.125000
9676		3203.125000
9677		3203.125000
9678		3125.000000
9679		3125.000000
9680		3203.125000
9681		3125.000000
9682		3125.000000
9683		3125.000000
9684		3125.000000
9685		3125.000000
9686		3125.000000
9687		3125.000000
9688		3125.000000
9689		3125.000000
9690		3125.000000
9691		3125.000000
9692		3125.000000
9693		3125.000000
9694		3125.000000
9695		3125.000000
9696		3125.000000
9697		3125.000000
9698		3125.000000
9699		3125.000000
9700		3125.000000
9701		3125.000000
9702		3125.000000
9703		3125.000000
9704		3046.875000
9705		3125.000000
9706		3046.875000
9707		3046.875000
9708		3046.875000
9709		3046.875000
9710		3046.875000
9711		3046.875000
9712		3046.875000
9713		3046.875000
9714		3046.875000
9715		3046.875000
9716		3046.875000
9717		3046.875000
9718		3046.875000
9719		3046.875000
9720		3046.875000
9721		3046.875000
9722		3046.875000
9723		3046.875000
9724		3046.875000
9725		3046.875000
9726		3046.875000
9727		3046.875000
9728		3046.875000
9729		2968.750000
9730		3046.875000
9731		2968.750000
9732		2968.750000
9733		2968.750000
9734		2968.750000
9735		2968.750000
9736		2968.750000
9737		2968.750000
9738		2968.750000
9739		2968.750000
9740		2968.750000
9741		2968.750000
9742		2968.750000
9743		2968.750000
9744		2968.750000
9745		2968.750000
9746		2968.750000
9747		2968.750000
9748		2968.750000
9749		2968.750000
9750		2968.750000
9751		2968.750000
9752		2968.750000
9753		2890.625000
9754		2968.750000
9755		2890.625000
9756		2890.625000
9757		2890.625000
9758		2890.625000
9759		2890.625000
9760		2890.625000
9761		2890.625000
9762		2890.625000
9763		2890.625000
9764		2890.625000
9765		2890.625000
9766		2890.625000
9767		2890.625000
9768		2890.625000
9769		2890.625000
9770		2890.625000
9771		2890.625000
9772		2890.625000
9773		2890.625000
9774		2890.625000
9775		2890.625000
9776		2890.625000
9777		2890.625000
9778		2890.625000
9779		2890.625000
9780		2812.500000
9781		2890.625000
9782		2812.500000
9783		2812.500000
9784		2812.500000
9785		2812.500000
9786		2812.500000
9787		2812.500000
9788		2812.500000
9789		2812.500000
9790		2812.500000
9791		2812.500000
9792		2812.500000
9793		2812.500000
9794		2812.500000
9795		2812.500000
9796		2812.500000
9797		2812.500000
9798		2812.500000
9799		2812.500000
9800		2812.500000
9801		2812.500000
9802		2812.500000
9803		2812.500000
9804		2812.500000
9805		2812.500000
9806		2812.500000
9807		2812.500000
9808		2812.500000
9809		2812.500000
9810		2734.375000
9811		2734.375000
9812		2734.375000
9813		2734.375000
9814		2734.375000
9815		2734.375000
9816		2734.375000
9817		2734.375000
9818		2734.375000
9819		2734.375000
9820		2734.375000
9821		2734.375000
9822		2734.375000
9823		2734.375000
9824		2734.375000
9825		2734.375000
9826		2734.375000
9827		2734.375000
9828		2734.375000
9829		2734.375000
9830		2734.375000
9831		2734.375000
9832		2734.375000
9833		2734.375000
9834		2734.375000
9835		2734.375000
9836		2734.375000
9837		2734.375000
9838		2734.375000
9839		2734.375000
9840		2656.250000
9841		2656.250000
9842		2656.250000
9843		2656.250000
9844		2656.250000
9845		2656.250000
9846		2656.250000
9847		2656.250000
9848		2656.250000
9849		2656.250000
9850		2656.250000
9851		2656.250000
9852		2656.250000
9853		2656.250000
9854		2656.250000
9855		2656.250000
9856		2656.250000
9857		2656.250000
9858		2656.250000
9859		2656.250000
9860		2656.250000
9861		2656.250000
9862		2656.250000
9863		2656.250000
9864		2656.250000
9865		2656.250000
9866		2656.250000
9867		2656.250000
9868		2656.250000
9869		2656.250000
9870		2656.250000
9871		2656.250000
9872		2578.125000
9873		2656.250000
9874		2578.125000
9875		2578.125000
9876		2578.125000
9877		2578.125000
9878		2578.125000
9879		2578.125000
9880		2578.125000
9881		2578.125000
9882		2578.125000
9883		2578.125000
9884		2578.125000
9885		2578.125000
9886		2578.125000
9887		2578.125000
9888		2578.125000
9889		2578.125000
9890		2578.125000
9891		2578.125000
9892		2578.125000
9893		2578.125000
9894		2578.125000
9895		2578.125000
9896		2578.125000
9897		2578.125000
9898		2578.125000
9899		2578.125000
9900		2578.125000
9901		2578.125000
9902		2578.125000
9903		2578.125000
9904		2578.125000
9905		2578.125000
9906		2578.125000
9907		2500.000000
9908		2578.125000
9909		2500.000000
9910		2500.000000
9911		2500.000000
9912		2500.000000
9913		2500.000000
9914		2500.000000
9915		2500.000000
9916		2500.000000
9917		2500.000000
9918		2500.000000
9919		2500.000000
9920		2500.000000
9921		2500.000000
9922		2500.000000
9923		2500.000000
9924		2500.000000
9925		2500.000000
9926		2500.000000
9927		2500.000000
9928		2500.000000
9929		2500.000000
9930		2500.000000
9931		2500.000000
9932		2500.000000
9933		2500.000000
9934		2500.000000
9935		2500.000000
9936		2500.000000
9937		2500.000000
9938		2500.000000
9939		2500.000000
9940		2500.000000
9941		2500.000000
9942		2500.000000
9943		2500.000000
9944		2500.000000
9945		2500.000000
9946		2500.000000
9947		2421.875000
9948		2421.875000
9949		2421.875000
9950		2421.875000
9951		2421.875000
9952		2421.875000
9953		2421.875000
9954		2421.875000
9955		2421.875000
9956		2421.875000
9957		2421.875000
9958		2421.875000
9959		2421.875000
9960		2421.875000
9961		2421.875000
9962		2421.875000
9963		2421.875000
9964		2421.875000
9965		2421.875000
9966		2421.875000
9967		2421.875000
9968		2421.875000
9969		2421.875000
9970		2421.875000
9971		2421.875000
9972		2421.875000
9973		2421.875000
9974		2421.875000
9975		2421.875000
9976		2421.875000
9977		2421.875000
9978		2421.875000
9979		2421.875000
9980		2421.875000
9981		2421.875000
9982		2421.875000
9983		2421.875000
9984		2421.875000
9985		2421.875000
9986		2421.875000
9987		2421.875000
9988		2421.875000
9989		2421.875000
9990		2421.875000
9991		2421.875000
9992		2421.875000
9993		2421.875000
9994		2421.875000
9995		2421.875000
9996		2421.875000
9997		2343.750000
9998		2421.875000
9999		2343.750000
10000		2343.750000
