Channel              :		CH1
Frequency            :		  ?
Period               :		  ?
PK-PK                :		2.891V
Probe attenuation    :		1X
Voltage per ADC value:		4.882813mV
Time interval        :		1000.00000us

index		CH1_Voltage(mV)
1		2578.125000
2		2578.125000
3		2578.125000
4		2578.125000
5		2578.125000
6		2578.125000
7		2578.125000
8		2578.125000
9		2578.125000
10		2578.125000
11		2578.125000
12		2578.125000
13		2578.125000
14		2578.125000
15		2578.125000
16		2578.125000
17		2578.125000
18		2578.125000
19		2578.125000
20		2578.125000
21		2578.125000
22		2578.125000
23		2578.125000
24		2656.250000
25		2578.125000
26		2656.250000
27		2656.250000
28		2656.250000
29		2656.250000
30		2656.250000
31		2656.250000
32		2656.250000
33		2656.250000
34		2656.250000
35		2656.250000
36		2656.250000
37		2656.250000
38		2656.250000
39		2656.250000
40		2656.250000
41		2656.250000
42		2656.250000
43		2656.250000
44		2656.250000
45		2656.250000
46		2656.250000
47		2656.250000
48		2656.250000
49		2656.250000
50		2656.250000
51		2656.250000
52		2656.250000
53		2656.250000
54		2656.250000
55		2656.250000
56		2656.250000
57		2656.250000
58		2656.250000
59		2656.250000
60		2656.250000
61		2656.250000
62		2656.250000
63		2656.250000
64		2656.250000
65		2734.375000
66		2656.250000
67		2656.250000
68		2734.375000
69		2734.375000
70		2734.375000
71		2734.375000
72		2734.375000
73		2734.375000
74		2734.375000
75		2734.375000
76		2734.375000
77		2734.375000
78		2734.375000
79		2734.375000
80		2734.375000
81		2734.375000
82		2734.375000
83		2734.375000
84		2734.375000
85		2734.375000
86		2734.375000
87		2734.375000
88		2734.375000
89		2734.375000
90		2734.375000
91		2734.375000
92		2734.375000
93		2734.375000
94		2734.375000
95		2734.375000
96		2734.375000
97		2734.375000
98		2734.375000
99		2734.375000
100		2734.375000
101		2734.375000
102		2734.375000
103		2812.500000
104		2734.375000
105		2812.500000
106		2812.500000
107		2812.500000
108		2812.500000
109		2812.500000
110		2812.500000
111		2812.500000
112		2812.500000
113		2812.500000
114		2812.500000
115		2812.500000
116		2812.500000
117		2812.500000
118		2812.500000
119		2812.500000
120		2812.500000
121		2812.500000
122		2812.500000
123		2812.500000
124		2812.500000
125		2812.500000
126		2812.500000
127		2812.500000
128		2812.500000
129		2812.500000
130		2812.500000
131		2812.500000
132		2812.500000
133		2812.500000
134		2890.625000
135		2890.625000
136		2890.625000
137		2890.625000
138		2890.625000
139		2890.625000
140		2890.625000
141		2890.625000
142		2890.625000
143		2890.625000
144		2890.625000
145		2890.625000
146		2890.625000
147		2890.625000
148		2812.500000
149		2890.625000
150		2890.625000
151		2890.625000
152		2890.625000
153		2890.625000
154		2890.625000
155		2890.625000
156		2890.625000
157		2890.625000
158		2890.625000
159		2890.625000
160		2890.625000
161		2890.625000
162		2890.625000
163		2890.625000
164		2890.625000
165		2890.625000
166		2890.625000
167		2968.750000
168		2890.625000
169		2968.750000
170		2968.750000
171		2968.750000
172		2968.750000
173		2968.750000
174		2968.750000
175		2968.750000
176		2968.750000
177		2968.750000
178		2968.750000
179		2968.750000
180		2968.750000
181		2968.750000
182		2968.750000
183		2968.750000
184		2968.750000
185		2968.750000
186		2968.750000
187		2968.750000
188		2968.750000
189		2968.750000
190		2968.750000
191		3046.875000
192		3046.875000
193		3046.875000
194		3046.875000
195		3046.875000
196		3046.875000
197		3046.875000
198		3046.875000
199		3046.875000
200		3046.875000
201		3046.875000
202		3046.875000
203		3046.875000
204		3046.875000
205		3046.875000
206		3046.875000
207		3046.875000
208		3046.875000
209		3046.875000
210		3046.875000
211		3046.875000
212		3046.875000
213		3046.875000
214		3046.875000
215		3125.000000
216		3125.000000
217		3125.000000
218		3125.000000
219		3125.000000
220		3125.000000
221		3125.000000
222		3125.000000
223		3125.000000
224		3125.000000
225		3125.000000
226		3125.000000
227		3125.000000
228		3125.000000
229		3125.000000
230		3125.000000
231		3125.000000
232		3125.000000
233		3125.000000
234		3125.000000
235		3125.000000
236		3125.000000
237		3125.000000
238		3203.125000
239		3203.125000
240		3203.125000
241		3203.125000
242		3203.125000
243		3203.125000
244		3203.125000
245		3203.125000
246		3203.125000
247		3203.125000
248		3203.125000
249		3203.125000
250		3203.125000
251		3203.125000
252		3203.125000
253		3203.125000
254		3203.125000
255		3281.250000
256		3203.125000
257		3203.125000
258		3281.250000
259		3203.125000
260		3281.250000
261		3281.250000
262		3281.250000
263		3281.250000
264		3281.250000
265		3281.250000
266		3281.250000
267		3281.250000
268		3281.250000
269		3281.250000
270		3281.250000
271		3281.250000
272		3359.375000
273		3281.250000
274		3281.250000
275		3359.375000
276		3359.375000
277		3359.375000
278		3359.375000
279		3359.375000
280		3359.375000
281		3359.375000
282		3359.375000
283		3359.375000
284		3359.375000
285		3359.375000
286		3359.375000
287		3359.375000
288		3359.375000
289		3359.375000
290		3437.500000
291		3437.500000
292		3437.500000
293		3437.500000
294		3437.500000
295		3437.500000
296		3437.500000
297		3437.500000
298		3437.500000
299		3437.500000
300		3437.500000
301		3437.500000
302		3437.500000
303		3437.500000
304		3437.500000
305		3437.500000
306		3437.500000
307		3437.500000
308		3437.500000
309		3515.625000
310		3515.625000
311		3515.625000
312		3515.625000
313		3515.625000
314		3515.625000
315		3515.625000
316		3515.625000
317		3515.625000
318		3515.625000
319		3515.625000
320		3515.625000
321		3515.625000
322		3515.625000
323		3593.750000
324		3593.750000
325		3593.750000
326		3593.750000
327		3593.750000
328		3593.750000
329		3593.750000
330		3593.750000
331		3593.750000
332		3593.750000
333		3593.750000
334		3593.750000
335		3671.875000
336		3671.875000
337		3671.875000
338		3671.875000
339		3671.875000
340		3671.875000
341		3671.875000
342		3671.875000
343		3671.875000
344		3671.875000
345		3671.875000
346		3671.875000
347		3671.875000
348		3671.875000
349		3750.000000
350		3750.000000
351		3750.000000
352		3750.000000
353		3750.000000
354		3750.000000
355		3750.000000
356		3750.000000
357		3750.000000
358		3750.000000
359		3750.000000
360		3750.000000
361		3828.125000
362		3828.125000
363		3828.125000
364		3828.125000
365		3828.125000
366		3828.125000
367		3828.125000
368		3828.125000
369		3828.125000
370		3828.125000
371		3828.125000
372		3828.125000
373		3906.250000
374		3906.250000
375		3906.250000
376		3906.250000
377		3906.250000
378		3906.250000
379		3906.250000
380		3906.250000
381		3906.250000
382		3906.250000
383		3906.250000
384		3906.250000
385		3906.250000
386		3984.375000
387		3984.375000
388		3984.375000
389		3984.375000
390		3984.375000
391		3984.375000
392		3984.375000
393		3984.375000
394		3984.375000
395		3984.375000
396		3984.375000
397		3984.375000
398		3984.375000
399		4062.500000
400		4062.500000
401		4062.500000
402		4062.500000
403		4062.500000
404		4062.500000
405		4062.500000
406		4062.500000
407		4062.500000
408		4062.500000
409		4062.500000
410		4140.625000
411		4140.625000
412		4140.625000
413		4140.625000
414		4140.625000
415		4140.625000
416		4140.625000
417		4140.625000
418		4140.625000
419		4140.625000
420		4140.625000
421		4140.625000
422		4140.625000
423		4218.750000
424		4218.750000
425		4218.750000
426		4218.750000
427		4218.750000
428		4218.750000
429		4218.750000
430		4218.750000
431		4218.750000
432		4218.750000
433		4218.750000
434		4218.750000
435		4218.750000
436		4296.875000
437		4296.875000
438		4296.875000
439		4296.875000
440		4296.875000
441		4296.875000
442		4296.875000
443		4296.875000
444		4296.875000
445		4296.875000
446		4296.875000
447		4296.875000
448		4296.875000
449		4375.000000
450		4375.000000
451		4375.000000
452		4375.000000
453		4375.000000
454		4375.000000
455		4375.000000
456		4375.000000
457		4375.000000
458		4375.000000
459		4375.000000
460		4375.000000
461		4375.000000
462		4375.000000
463		4453.125000
464		4453.125000
465		4453.125000
466		4453.125000
467		4453.125000
468		4453.125000
469		4453.125000
470		4453.125000
471		4453.125000
472		4453.125000
473		4453.125000
474		4453.125000
475		4453.125000
476		4453.125000
477		4531.250000
478		4531.250000
479		4531.250000
480		4531.250000
481		4531.250000
482		4531.250000
483		4531.250000
484		4531.250000
485		4531.250000
486		4531.250000
487		4531.250000
488		4531.250000
489		4531.250000
490		4609.375000
491		4609.375000
492		4609.375000
493		4609.375000
494		4609.375000
495		4609.375000
496		4609.375000
497		4609.375000
498		4609.375000
499		4609.375000
500		4609.375000
501		4609.375000
502		4609.375000
503		4609.375000
504		4687.500000
505		4609.375000
506		4609.375000
507		4687.500000
508		4687.500000
509		4687.500000
510		4687.500000
511		4687.500000
512		4687.500000
513		4687.500000
514		4687.500000
515		4687.500000
516		4687.500000
517		4687.500000
518		4687.500000
519		4687.500000
520		4765.625000
521		4765.625000
522		4765.625000
523		4765.625000
524		4765.625000
525		4765.625000
526		4765.625000
527		4765.625000
528		4765.625000
529		4765.625000
530		4765.625000
531		4765.625000
532		4765.625000
533		4765.625000
534		4765.625000
535		4843.750000
536		4843.750000
537		4843.750000
538		4843.750000
539		4843.750000
540		4843.750000
541		4843.750000
542		4843.750000
543		4843.750000
544		4843.750000
545		4843.750000
546		4843.750000
547		4843.750000
548		4843.750000
549		4843.750000
550		4843.750000
551		4843.750000
552		4921.875000
553		4843.750000
554		4921.875000
555		4921.875000
556		4921.875000
557		4921.875000
558		4921.875000
559		4921.875000
560		4921.875000
561		4921.875000
562		4921.875000
563		4921.875000
564		4921.875000
565		4921.875000
566		4921.875000
567		4921.875000
568		4921.875000
569		4921.875000
570		4921.875000
571		4921.875000
572		4921.875000
573		4921.875000
574		5000.000000
575		5000.000000
576		5000.000000
577		5000.000000
578		5000.000000
579		5000.000000
580		5000.000000
581		5000.000000
582		5000.000000
583		5000.000000
584		5000.000000
585		5000.000000
586		5000.000000
587		5000.000000
588		5000.000000
589		5000.000000
590		5000.000000
591		5000.000000
592		5000.000000
593		5000.000000
594		5000.000000
595		5000.000000
596		5000.000000
597		5000.000000
598		5000.000000
599		5000.000000
600		5000.000000
601		5000.000000
602		5078.125000
603		5078.125000
604		5078.125000
605		5078.125000
606		5078.125000
607		5078.125000
608		5078.125000
609		5078.125000
610		5078.125000
611		5078.125000
612		5078.125000
613		5078.125000
614		5078.125000
615		5078.125000
616		5078.125000
617		5078.125000
618		5078.125000
619		5078.125000
620		5078.125000
621		5078.125000
622		5078.125000
623		5078.125000
624		5078.125000
625		5078.125000
626		5078.125000
627		5078.125000
628		5078.125000
629		5078.125000
630		5156.250000
631		5078.125000
632		5078.125000
633		5078.125000
634		5078.125000
635		5156.250000
636		5156.250000
637		5078.125000
638		5078.125000
639		5156.250000
640		5156.250000
641		5156.250000
642		5156.250000
643		5156.250000
644		5156.250000
645		5156.250000
646		5156.250000
647		5156.250000
648		5156.250000
649		5156.250000
650		5156.250000
651		5156.250000
652		5156.250000
653		5156.250000
654		5156.250000
655		5156.250000
656		5156.250000
657		5156.250000
658		5156.250000
659		5156.250000
660		5156.250000
661		5156.250000
662		5156.250000
663		5156.250000
664		5156.250000
665		5156.250000
666		5156.250000
667		5156.250000
668		5156.250000
669		5156.250000
670		5156.250000
671		5156.250000
672		5156.250000
673		5156.250000
674		5156.250000
675		5156.250000
676		5156.250000
677		5156.250000
678		5156.250000
679		5156.250000
680		5156.250000
681		5156.250000
682		5156.250000
683		5156.250000
684		5156.250000
685		5156.250000
686		5156.250000
687		5156.250000
688		5156.250000
689		5156.250000
690		5156.250000
691		5156.250000
692		5156.250000
693		5156.250000
694		5156.250000
695		5156.250000
696		5156.250000
697		5156.250000
698		5156.250000
699		5156.250000
700		5156.250000
701		5156.250000
702		5156.250000
703		5156.250000
704		5156.250000
705		5156.250000
706		5156.250000
707		5156.250000
708		5156.250000
709		5156.250000
710		5156.250000
711		5156.250000
712		5156.250000
713		5156.250000
714		5156.250000
715		5156.250000
716		5156.250000
717		5156.250000
718		5156.250000
719		5156.250000
720		5156.250000
721		5156.250000
722		5156.250000
723		5078.125000
724		5156.250000
725		5156.250000
726		5078.125000
727		5156.250000
728		5078.125000
729		5078.125000
730		5156.250000
731		5156.250000
732		5078.125000
733		5156.250000
734		5156.250000
735		5078.125000
736		5078.125000
737		5078.125000
738		5078.125000
739		5078.125000
740		5078.125000
741		5078.125000
742		5078.125000
743		5078.125000
744		5078.125000
745		5078.125000
746		5078.125000
747		5078.125000
748		5078.125000
749		5078.125000
750		5078.125000
751		5078.125000
752		5078.125000
753		5078.125000
754		5078.125000
755		5078.125000
756		5078.125000
757		5078.125000
758		5078.125000
759		5078.125000
760		5078.125000
761		5078.125000
762		5078.125000
763		5000.000000
764		5000.000000
765		5000.000000
766		5000.000000
767		5000.000000
768		5000.000000
769		5000.000000
770		5000.000000
771		5000.000000
772		5000.000000
773		5000.000000
774		5000.000000
775		5000.000000
776		5000.000000
777		5000.000000
778		5000.000000
779		5000.000000
780		5000.000000
781		5000.000000
782		5000.000000
783		5000.000000
784		5000.000000
785		5000.000000
786		5000.000000
787		5000.000000
788		5000.000000
789		5000.000000
790		5000.000000
791		5000.000000
792		5000.000000
793		5000.000000
794		4921.875000
795		4921.875000
796		4921.875000
797		4921.875000
798		4921.875000
799		4921.875000
800		4921.875000
801		4921.875000
802		4921.875000
803		4921.875000
804		4921.875000
805		4921.875000
806		4921.875000
807		4921.875000
808		4921.875000
809		4921.875000
810		4921.875000
811		4921.875000
812		4921.875000
813		4921.875000
814		4843.750000
815		4843.750000
816		4843.750000
817		4843.750000
818		4843.750000
819		4843.750000
820		4843.750000
821		4843.750000
822		4843.750000
823		4843.750000
824		4843.750000
825		4843.750000
826		4843.750000
827		4843.750000
828		4843.750000
829		4843.750000
830		4843.750000
831		4843.750000
832		4765.625000
833		4765.625000
834		4765.625000
835		4765.625000
836		4765.625000
837		4765.625000
838		4765.625000
839		4765.625000
840		4765.625000
841		4765.625000
842		4765.625000
843		4765.625000
844		4765.625000
845		4765.625000
846		4765.625000
847		4765.625000
848		4765.625000
849		4765.625000
850		4765.625000
851		4687.500000
852		4687.500000
853		4687.500000
854		4687.500000
855		4687.500000
856		4687.500000
857		4687.500000
858		4687.500000
859		4687.500000
860		4687.500000
861		4687.500000
862		4687.500000
863		4687.500000
864		4687.500000
865		4687.500000
866		4609.375000
867		4609.375000
868		4609.375000
869		4609.375000
870		4609.375000
871		4609.375000
872		4609.375000
873		4609.375000
874		4609.375000
875		4609.375000
876		4609.375000
877		4609.375000
878		4609.375000
879		4609.375000
880		4531.250000
881		4609.375000
882		4531.250000
883		4531.250000
884		4531.250000
885		4531.250000
886		4531.250000
887		4531.250000
888		4531.250000
889		4531.250000
890		4531.250000
891		4531.250000
892		4531.250000
893		4531.250000
894		4531.250000
895		4531.250000
896		4453.125000
897		4453.125000
898		4453.125000
899		4453.125000
900		4453.125000
901		4453.125000
902		4453.125000
903		4453.125000
904		4453.125000
905		4453.125000
906		4453.125000
907		4453.125000
908		4453.125000
909		4453.125000
910		4375.000000
911		4375.000000
912		4375.000000
913		4375.000000
914		4375.000000
915		4375.000000
916		4375.000000
917		4375.000000
918		4375.000000
919		4375.000000
920		4375.000000
921		4375.000000
922		4296.875000
923		4296.875000
924		4296.875000
925		4296.875000
926		4296.875000
927		4296.875000
928		4296.875000
929		4296.875000
930		4296.875000
931		4296.875000
932		4296.875000
933		4296.875000
934		4296.875000
935		4296.875000
936		4296.875000
937		4218.750000
938		4218.750000
939		4218.750000
940		4218.750000
941		4218.750000
942		4218.750000
943		4218.750000
944		4218.750000
945		4218.750000
946		4218.750000
947		4218.750000
948		4218.750000
949		4140.625000
950		4218.750000
951		4218.750000
952		4140.625000
953		4140.625000
954		4140.625000
955		4140.625000
956		4140.625000
957		4140.625000
958		4140.625000
959		4140.625000
960		4140.625000
961		4140.625000
962		4140.625000
963		4062.500000
964		4062.500000
965		4062.500000
966		4062.500000
967		4062.500000
968		4062.500000
969		4062.500000
970		4062.500000
971		4062.500000
972		4062.500000
973		4062.500000
974		4062.500000
975		4062.500000
976		4062.500000
977		4062.500000
978		3984.375000
979		3984.375000
980		3984.375000
981		3984.375000
982		3984.375000
983		3984.375000
984		3984.375000
985		3984.375000
986		3984.375000
987		3984.375000
988		3984.375000
989		3984.375000
990		3984.375000
991		3984.375000
992		3984.375000
993		3906.250000
994		3906.250000
995		3906.250000
996		3906.250000
997		3906.250000
998		3906.250000
999		3906.250000
1000		3906.250000
1001		3906.250000
1002		3828.125000
1003		3906.250000
1004		3906.250000
1005		3828.125000
1006		3828.125000
1007		3828.125000
1008		3906.250000
1009		3828.125000
1010		3828.125000
1011		3828.125000
1012		3828.125000
1013		3828.125000
1014		3828.125000
1015		3828.125000
1016		3828.125000
1017		3828.125000
1018		3828.125000
1019		3750.000000
1020		3750.000000
1021		3750.000000
1022		3750.000000
1023		3750.000000
1024		3750.000000
1025		3750.000000
1026		3750.000000
1027		3750.000000
1028		3750.000000
1029		3750.000000
1030		3750.000000
1031		3750.000000
1032		3750.000000
1033		3750.000000
1034		3671.875000
1035		3671.875000
1036		3671.875000
1037		3671.875000
1038		3671.875000
1039		3671.875000
1040		3671.875000
1041		3671.875000
1042		3671.875000
1043		3671.875000
1044		3671.875000
1045		3671.875000
1046		3671.875000
1047		3671.875000
1048		3671.875000
1049		3593.750000
1050		3593.750000
1051		3593.750000
1052		3593.750000
1053		3593.750000
1054		3593.750000
1055		3593.750000
1056		3593.750000
1057		3593.750000
1058		3593.750000
1059		3593.750000
1060		3593.750000
1061		3593.750000
1062		3593.750000
1063		3593.750000
1064		3515.625000
1065		3515.625000
1066		3515.625000
1067		3515.625000
1068		3515.625000
1069		3515.625000
1070		3515.625000
1071		3515.625000
1072		3515.625000
1073		3515.625000
1074		3515.625000
1075		3515.625000
1076		3515.625000
1077		3515.625000
1078		3515.625000
1079		3515.625000
1080		3515.625000
1081		3437.500000
1082		3437.500000
1083		3437.500000
1084		3437.500000
1085		3437.500000
1086		3437.500000
1087		3437.500000
1088		3437.500000
1089		3437.500000
1090		3437.500000
1091		3437.500000
1092		3437.500000
1093		3437.500000
1094		3437.500000
1095		3437.500000
1096		3359.375000
1097		3437.500000
1098		3359.375000
1099		3359.375000
1100		3359.375000
1101		3359.375000
1102		3359.375000
1103		3359.375000
1104		3359.375000
1105		3359.375000
1106		3359.375000
1107		3359.375000
1108		3359.375000
1109		3359.375000
1110		3359.375000
1111		3359.375000
1112		3359.375000
1113		3359.375000
1114		3359.375000
1115		3281.250000
1116		3359.375000
1117		3281.250000
1118		3281.250000
1119		3281.250000
1120		3281.250000
1121		3281.250000
1122		3281.250000
1123		3281.250000
1124		3281.250000
1125		3281.250000
1126		3281.250000
1127		3281.250000
1128		3281.250000
1129		3281.250000
1130		3281.250000
1131		3281.250000
1132		3281.250000
1133		3281.250000
1134		3203.125000
1135		3203.125000
1136		3203.125000
1137		3203.125000
1138		3203.125000
1139		3203.125000
1140		3203.125000
1141		3203.125000
1142		3203.125000
1143		3203.125000
1144		3203.125000
1145		3203.125000
1146		3203.125000
1147		3203.125000
1148		3203.125000
1149		3203.125000
1150		3203.125000
1151		3203.125000
1152		3203.125000
1153		3203.125000
1154		3125.000000
1155		3125.000000
1156		3125.000000
1157		3125.000000
1158		3125.000000
1159		3125.000000
1160		3125.000000
1161		3125.000000
1162		3125.000000
1163		3125.000000
1164		3125.000000
1165		3125.000000
1166		3125.000000
1167		3125.000000
1168		3125.000000
1169		3125.000000
1170		3125.000000
1171		3125.000000
1172		3046.875000
1173		3125.000000
1174		3046.875000
1175		3046.875000
1176		3046.875000
1177		3046.875000
1178		3046.875000
1179		3046.875000
1180		3046.875000
1181		3046.875000
1182		3046.875000
1183		3046.875000
1184		3046.875000
1185		3046.875000
1186		3046.875000
1187		3046.875000
1188		3046.875000
1189		3046.875000
1190		3046.875000
1191		3046.875000
1192		3046.875000
1193		3046.875000
1194		3046.875000
1195		2968.750000
1196		2968.750000
1197		2968.750000
1198		2968.750000
1199		2968.750000
1200		2968.750000
1201		2968.750000
1202		2968.750000
1203		2968.750000
1204		2968.750000
1205		2968.750000
1206		2968.750000
1207		2968.750000
1208		2968.750000
1209		2968.750000
1210		2968.750000
1211		2968.750000
1212		2968.750000
1213		2968.750000
1214		2968.750000
1215		2968.750000
1216		2890.625000
1217		2890.625000
1218		2890.625000
1219		2890.625000
1220		2968.750000
1221		2890.625000
1222		2890.625000
1223		2890.625000
1224		2890.625000
1225		2890.625000
1226		2890.625000
1227		2890.625000
1228		2890.625000
1229		2890.625000
1230		2890.625000
1231		2890.625000
1232		2890.625000
1233		2890.625000
1234		2890.625000
1235		2890.625000
1236		2890.625000
1237		2890.625000
1238		2890.625000
1239		2890.625000
1240		2890.625000
1241		2890.625000
1242		2812.500000
1243		2812.500000
1244		2812.500000
1245		2812.500000
1246		2812.500000
1247		2812.500000
1248		2812.500000
1249		2812.500000
1250		2812.500000
1251		2812.500000
1252		2812.500000
1253		2812.500000
1254		2812.500000
1255		2812.500000
1256		2812.500000
1257		2812.500000
1258		2812.500000
1259		2812.500000
1260		2812.500000
1261		2812.500000
1262		2812.500000
1263		2812.500000
1264		2812.500000
1265		2812.500000
1266		2812.500000
1267		2812.500000
1268		2812.500000
1269		2812.500000
1270		2734.375000
1271		2734.375000
1272		2734.375000
1273		2734.375000
1274		2734.375000
1275		2734.375000
1276		2734.375000
1277		2734.375000
1278		2734.375000
1279		2734.375000
1280		2734.375000
1281		2734.375000
1282		2734.375000
1283		2734.375000
1284		2734.375000
1285		2734.375000
1286		2734.375000
1287		2734.375000
1288		2734.375000
1289		2734.375000
1290		2734.375000
1291		2734.375000
1292		2734.375000
1293		2734.375000
1294		2734.375000
1295		2734.375000
1296		2734.375000
1297		2734.375000
1298		2734.375000
1299		2734.375000
1300		2734.375000
1301		2734.375000
1302		2734.375000
1303		2656.250000
1304		2656.250000
1305		2656.250000
1306		2656.250000
1307		2656.250000
1308		2656.250000
1309		2656.250000
1310		2656.250000
1311		2656.250000
1312		2656.250000
1313		2656.250000
1314		2656.250000
1315		2656.250000
1316		2656.250000
1317		2656.250000
1318		2656.250000
1319		2656.250000
1320		2656.250000
1321		2656.250000
1322		2656.250000
1323		2656.250000
1324		2656.250000
1325		2656.250000
1326		2656.250000
1327		2656.250000
1328		2656.250000
1329		2656.250000
1330		2656.250000
1331		2656.250000
1332		2656.250000
1333		2656.250000
1334		2656.250000
1335		2656.250000
1336		2656.250000
1337		2656.250000
1338		2656.250000
1339		2656.250000
1340		2656.250000
1341		2656.250000
1342		2656.250000
1343		2656.250000
1344		2578.125000
1345		2656.250000
1346		2656.250000
1347		2656.250000
1348		2656.250000
1349		2656.250000
1350		2656.250000
1351		2656.250000
1352		2656.250000
1353		2656.250000
1354		2578.125000
1355		2578.125000
1356		2578.125000
1357		2578.125000
1358		2578.125000
1359		2578.125000
1360		2578.125000
1361		2578.125000
1362		2578.125000
1363		2578.125000
1364		2578.125000
1365		2578.125000
1366		2578.125000
1367		2578.125000
1368		2578.125000
1369		2578.125000
1370		2578.125000
1371		2578.125000
1372		2578.125000
1373		2578.125000
1374		2578.125000
1375		2578.125000
1376		2578.125000
1377		2578.125000
1378		2578.125000
1379		2578.125000
1380		2578.125000
1381		2578.125000
1382		2578.125000
1383		2578.125000
1384		2578.125000
1385		2578.125000
1386		2578.125000
1387		2578.125000
1388		2578.125000
1389		2578.125000
1390		2578.125000
1391		2578.125000
1392		2578.125000
1393		2578.125000
1394		2578.125000
1395		2578.125000
1396		2578.125000
1397		2578.125000
1398		2578.125000
1399		2578.125000
1400		2578.125000
1401		2500.000000
1402		2578.125000
1403		2578.125000
1404		2578.125000
1405		2500.000000
1406		2578.125000
1407		2578.125000
1408		2578.125000
1409		2578.125000
1410		2578.125000
1411		2578.125000
1412		2500.000000
1413		2500.000000
1414		2500.000000
1415		2500.000000
1416		2500.000000
1417		2500.000000
1418		2500.000000
1419		2500.000000
1420		2500.000000
1421		2500.000000
1422		2500.000000
1423		2500.000000
1424		2500.000000
1425		2500.000000
1426		2500.000000
1427		2500.000000
1428		2500.000000
1429		2500.000000
1430		2500.000000
1431		2500.000000
1432		2500.000000
1433		2500.000000
1434		2500.000000
1435		2500.000000
1436		2500.000000
1437		2500.000000
1438		2500.000000
1439		2500.000000
1440		2500.000000
1441		2500.000000
1442		2500.000000
1443		2500.000000
1444		2500.000000
1445		2500.000000
1446		2500.000000
1447		2500.000000
1448		2500.000000
1449		2500.000000
1450		2500.000000
1451		2500.000000
1452		2500.000000
1453		2500.000000
1454		2500.000000
1455		2500.000000
1456		2500.000000
1457		2500.000000
1458		2500.000000
1459		2500.000000
1460		2500.000000
1461		2500.000000
1462		2500.000000
1463		2500.000000
1464		2500.000000
1465		2500.000000
1466		2500.000000
1467		2500.000000
1468		2500.000000
1469		2500.000000
1470		2500.000000
1471		2500.000000
1472		2500.000000
1473		2500.000000
1474		2500.000000
1475		2500.000000
1476		2500.000000
1477		2500.000000
1478		2500.000000
1479		2500.000000
1480		2500.000000
1481		2500.000000
1482		2500.000000
1483		2500.000000
1484		2500.000000
1485		2500.000000
1486		2500.000000
1487		2500.000000
1488		2500.000000
1489		2500.000000
1490		2500.000000
1491		2500.000000
1492		2500.000000
1493		2500.000000
1494		2500.000000
1495		2500.000000
1496		2500.000000
1497		2500.000000
1498		2500.000000
1499		2500.000000
1500		2500.000000
1501		2500.000000
1502		2500.000000
1503		2500.000000
1504		2500.000000
1505		2500.000000
1506		2500.000000
1507		2500.000000
1508		2500.000000
1509		2500.000000
1510		2500.000000
1511		2500.000000
1512		2500.000000
1513		2500.000000
1514		2500.000000
1515		2500.000000
1516		2500.000000
1517		2500.000000
1518		2500.000000
1519		2500.000000
1520		2500.000000
1521		2500.000000
1522		2500.000000
1523		2500.000000
1524		2500.000000
1525		2500.000000
1526		2500.000000
1527		2500.000000
1528		2500.000000
1529		2500.000000
1530		2500.000000
1531		2500.000000
1532		2500.000000
1533		2500.000000
1534		2500.000000
1535		2500.000000
1536		2500.000000
1537		2500.000000
1538		2500.000000
1539		2500.000000
1540		2500.000000
1541		2500.000000
1542		2500.000000
1543		2500.000000
1544		2500.000000
1545		2500.000000
1546		2500.000000
1547		2500.000000
1548		2500.000000
1549		2500.000000
1550		2500.000000
1551		2500.000000
1552		2500.000000
1553		2500.000000
1554		2500.000000
1555		2500.000000
1556		2500.000000
1557		2500.000000
1558		2500.000000
1559		2500.000000
1560		2500.000000
1561		2500.000000
1562		2500.000000
1563		2500.000000
1564		2500.000000
1565		2500.000000
1566		2500.000000
1567		2500.000000
1568		2500.000000
1569		2500.000000
1570		2500.000000
1571		2500.000000
1572		2500.000000
1573		2500.000000
1574		2500.000000
1575		2500.000000
1576		2500.000000
1577		2500.000000
1578		2500.000000
1579		2500.000000
1580		2500.000000
1581		2500.000000
1582		2500.000000
1583		2500.000000
1584		2500.000000
1585		2500.000000
1586		2500.000000
1587		2500.000000
1588		2500.000000
1589		2500.000000
1590		2500.000000
1591		2500.000000
1592		2500.000000
1593		2500.000000
1594		2500.000000
1595		2500.000000
1596		2500.000000
1597		2500.000000
1598		2500.000000
1599		2500.000000
1600		2500.000000
1601		2500.000000
1602		2500.000000
1603		2500.000000
1604		2500.000000
1605		2500.000000
1606		2500.000000
1607		2500.000000
1608		2578.125000
1609		2500.000000
1610		2578.125000
1611		2578.125000
1612		2578.125000
1613		2500.000000
1614		2500.000000
1615		2578.125000
1616		2578.125000
1617		2500.000000
1618		2500.000000
1619		2578.125000
1620		2578.125000
1621		2578.125000
1622		2578.125000
1623		2578.125000
1624		2578.125000
1625		2578.125000
1626		2578.125000
1627		2578.125000
1628		2578.125000
1629		2578.125000
1630		2578.125000
1631		2578.125000
1632		2578.125000
1633		2578.125000
1634		2578.125000
1635		2578.125000
1636		2578.125000
1637		2578.125000
1638		2578.125000
1639		2578.125000
1640		2578.125000
1641		2578.125000
1642		2578.125000
1643		2578.125000
1644		2578.125000
1645		2578.125000
1646		2578.125000
1647		2578.125000
1648		2578.125000
1649		2578.125000
1650		2578.125000
1651		2578.125000
1652		2578.125000
1653		2578.125000
1654		2578.125000
1655		2578.125000
1656		2578.125000
1657		2578.125000
1658		2578.125000
1659		2578.125000
1660		2578.125000
1661		2578.125000
1662		2578.125000
1663		2578.125000
1664		2578.125000
1665		2578.125000
1666		2578.125000
1667		2578.125000
1668		2578.125000
1669		2578.125000
1670		2578.125000
1671		2578.125000
1672		2578.125000
1673		2578.125000
1674		2578.125000
1675		2578.125000
1676		2656.250000
1677		2656.250000
1678		2656.250000
1679		2578.125000
1680		2578.125000
1681		2656.250000
1682		2656.250000
1683		2656.250000
1684		2578.125000
1685		2656.250000
1686		2656.250000
1687		2656.250000
1688		2656.250000
1689		2656.250000
1690		2656.250000
1691		2578.125000
1692		2656.250000
1693		2656.250000
1694		2656.250000
1695		2656.250000
1696		2656.250000
1697		2656.250000
1698		2656.250000
1699		2656.250000
1700		2656.250000
1701		2656.250000
1702		2656.250000
1703		2656.250000
1704		2656.250000
1705		2656.250000
1706		2656.250000
1707		2656.250000
1708		2656.250000
1709		2656.250000
1710		2656.250000
1711		2656.250000
1712		2656.250000
1713		2656.250000
1714		2656.250000
1715		2656.250000
1716		2656.250000
1717		2656.250000
1718		2656.250000
1719		2656.250000
1720		2656.250000
1721		2656.250000
1722		2656.250000
1723		2656.250000
1724		2656.250000
1725		2734.375000
1726		2734.375000
1727		2734.375000
1728		2734.375000
1729		2734.375000
1730		2734.375000
1731		2734.375000
1732		2734.375000
1733		2734.375000
1734		2734.375000
1735		2734.375000
1736		2734.375000
1737		2734.375000
1738		2734.375000
1739		2734.375000
1740		2734.375000
1741		2734.375000
1742		2734.375000
1743		2734.375000
1744		2734.375000
1745		2734.375000
1746		2734.375000
1747		2734.375000
1748		2734.375000
1749		2734.375000
1750		2734.375000
1751		2734.375000
1752		2734.375000
1753		2734.375000
1754		2734.375000
1755		2734.375000
1756		2812.500000
1757		2734.375000
1758		2734.375000
1759		2812.500000
1760		2734.375000
1761		2812.500000
1762		2812.500000
1763		2812.500000
1764		2812.500000
1765		2812.500000
1766		2812.500000
1767		2812.500000
1768		2812.500000
1769		2812.500000
1770		2812.500000
1771		2812.500000
1772		2812.500000
1773		2812.500000
1774		2812.500000
1775		2812.500000
1776		2812.500000
1777		2812.500000
1778		2812.500000
1779		2812.500000
1780		2812.500000
1781		2812.500000
1782		2812.500000
1783		2812.500000
1784		2812.500000
1785		2890.625000
1786		2890.625000
1787		2812.500000
1788		2890.625000
1789		2890.625000
1790		2890.625000
1791		2890.625000
1792		2890.625000
1793		2890.625000
1794		2890.625000
1795		2890.625000
1796		2890.625000
1797		2890.625000
1798		2890.625000
1799		2890.625000
1800		2890.625000
1801		2890.625000
1802		2890.625000
1803		2890.625000
1804		2890.625000
1805		2890.625000
1806		2890.625000
1807		2890.625000
1808		2890.625000
1809		2890.625000
1810		2968.750000
1811		2890.625000
1812		2968.750000
1813		2968.750000
1814		2968.750000
1815		2968.750000
1816		2968.750000
1817		2968.750000
1818		2968.750000
1819		2968.750000
1820		2968.750000
1821		2968.750000
1822		2968.750000
1823		2968.750000
1824		2968.750000
1825		2968.750000
1826		2968.750000
1827		2968.750000
1828		2968.750000
1829		2968.750000
1830		2968.750000
1831		2968.750000
1832		2968.750000
1833		2968.750000
1834		3046.875000
1835		2968.750000
1836		3046.875000
1837		3046.875000
1838		3046.875000
1839		3046.875000
1840		3046.875000
1841		3046.875000
1842		3046.875000
1843		3046.875000
1844		3046.875000
1845		3046.875000
1846		3046.875000
1847		3046.875000
1848		3046.875000
1849		3046.875000
1850		3046.875000
1851		3046.875000
1852		3046.875000
1853		3046.875000
1854		3046.875000
1855		3046.875000
1856		3125.000000
1857		3125.000000
1858		3125.000000
1859		3125.000000
1860		3125.000000
1861		3125.000000
1862		3125.000000
1863		3125.000000
1864		3125.000000
1865		3125.000000
1866		3125.000000
1867		3125.000000
1868		3125.000000
1869		3125.000000
1870		3125.000000
1871		3125.000000
1872		3125.000000
1873		3203.125000
1874		3203.125000
1875		3203.125000
1876		3203.125000
1877		3203.125000
1878		3203.125000
1879		3203.125000
1880		3203.125000
1881		3203.125000
1882		3203.125000
1883		3203.125000
1884		3203.125000
1885		3203.125000
1886		3203.125000
1887		3203.125000
1888		3203.125000
1889		3203.125000
1890		3203.125000
1891		3203.125000
1892		3203.125000
1893		3203.125000
1894		3281.250000
1895		3281.250000
1896		3281.250000
1897		3281.250000
1898		3281.250000
1899		3281.250000
1900		3281.250000
1901		3281.250000
1902		3281.250000
1903		3281.250000
1904		3281.250000
1905		3281.250000
1906		3281.250000
1907		3281.250000
1908		3281.250000
1909		3281.250000
1910		3359.375000
1911		3359.375000
1912		3359.375000
1913		3359.375000
1914		3359.375000
1915		3359.375000
1916		3359.375000
1917		3359.375000
1918		3359.375000
1919		3359.375000
1920		3359.375000
1921		3359.375000
1922		3359.375000
1923		3359.375000
1924		3359.375000
1925		3359.375000
1926		3359.375000
1927		3437.500000
1928		3437.500000
1929		3437.500000
1930		3437.500000
1931		3437.500000
1932		3437.500000
1933		3437.500000
1934		3437.500000
1935		3437.500000
1936		3437.500000
1937		3437.500000
1938		3437.500000
1939		3437.500000
1940		3437.500000
1941		3437.500000
1942		3437.500000
1943		3437.500000
1944		3515.625000
1945		3515.625000
1946		3515.625000
1947		3515.625000
1948		3515.625000
1949		3515.625000
1950		3515.625000
1951		3515.625000
1952		3515.625000
1953		3515.625000
1954		3515.625000
1955		3515.625000
1956		3515.625000
1957		3515.625000
1958		3515.625000
1959		3593.750000
1960		3593.750000
1961		3593.750000
1962		3593.750000
1963		3593.750000
1964		3593.750000
1965		3593.750000
1966		3593.750000
1967		3593.750000
1968		3593.750000
1969		3593.750000
1970		3593.750000
1971		3593.750000
1972		3593.750000
1973		3671.875000
1974		3593.750000
1975		3671.875000
1976		3671.875000
1977		3671.875000
1978		3671.875000
1979		3671.875000
1980		3671.875000
1981		3671.875000
1982		3671.875000
1983		3671.875000
1984		3671.875000
1985		3671.875000
1986		3750.000000
1987		3750.000000
1988		3750.000000
1989		3750.000000
1990		3750.000000
1991		3750.000000
1992		3750.000000
1993		3750.000000
1994		3750.000000
1995		3750.000000
1996		3750.000000
1997		3750.000000
1998		3750.000000
1999		3750.000000
2000		3750.000000
2001		3828.125000
2002		3828.125000
2003		3828.125000
2004		3828.125000
2005		3828.125000
2006		3828.125000
2007		3828.125000
2008		3828.125000
2009		3828.125000
2010		3828.125000
2011		3828.125000
2012		3828.125000
2013		3828.125000
2014		3906.250000
2015		3906.250000
2016		3906.250000
2017		3906.250000
2018		3906.250000
2019		3906.250000
2020		3906.250000
2021		3906.250000
2022		3906.250000
2023		3906.250000
2024		3906.250000
2025		3906.250000
2026		3906.250000
2027		3984.375000
2028		3984.375000
2029		3984.375000
2030		3984.375000
2031		3984.375000
2032		3984.375000
2033		3984.375000
2034		3984.375000
2035		3984.375000
2036		3984.375000
2037		3984.375000
2038		3984.375000
2039		3984.375000
2040		3984.375000
2041		4062.500000
2042		4062.500000
2043		4062.500000
2044		4062.500000
2045		4062.500000
2046		4062.500000
2047		4062.500000
2048		4062.500000
2049		4062.500000
2050		4062.500000
2051		4062.500000
2052		4062.500000
2053		4140.625000
2054		4140.625000
2055		4140.625000
2056		4140.625000
2057		4140.625000
2058		4140.625000
2059		4140.625000
2060		4140.625000
2061		4140.625000
2062		4140.625000
2063		4140.625000
2064		4140.625000
2065		4140.625000
2066		4140.625000
2067		4218.750000
2068		4218.750000
2069		4218.750000
2070		4218.750000
2071		4218.750000
2072		4218.750000
2073		4218.750000
2074		4218.750000
2075		4218.750000
2076		4218.750000
2077		4218.750000
2078		4218.750000
2079		4218.750000
2080		4296.875000
2081		4296.875000
2082		4296.875000
2083		4296.875000
2084		4296.875000
2085		4296.875000
2086		4296.875000
2087		4296.875000
2088		4296.875000
2089		4296.875000
2090		4296.875000
2091		4296.875000
2092		4375.000000
2093		4375.000000
2094		4375.000000
2095		4375.000000
2096		4375.000000
2097		4375.000000
2098		4375.000000
2099		4375.000000
2100		4375.000000
2101		4375.000000
2102		4375.000000
2103		4375.000000
2104		4375.000000
2105		4375.000000
2106		4375.000000
2107		4453.125000
2108		4453.125000
2109		4453.125000
2110		4453.125000
2111		4453.125000
2112		4453.125000
2113		4453.125000
2114		4453.125000
2115		4453.125000
2116		4453.125000
2117		4453.125000
2118		4453.125000
2119		4453.125000
2120		4453.125000
2121		4531.250000
2122		4531.250000
2123		4453.125000
2124		4531.250000
2125		4531.250000
2126		4531.250000
2127		4531.250000
2128		4531.250000
2129		4531.250000
2130		4531.250000
2131		4531.250000
2132		4531.250000
2133		4609.375000
2134		4609.375000
2135		4609.375000
2136		4609.375000
2137		4609.375000
2138		4609.375000
2139		4609.375000
2140		4609.375000
2141		4609.375000
2142		4609.375000
2143		4609.375000
2144		4609.375000
2145		4609.375000
2146		4609.375000
2147		4687.500000
2148		4687.500000
2149		4687.500000
2150		4687.500000
2151		4687.500000
2152		4687.500000
2153		4687.500000
2154		4687.500000
2155		4687.500000
2156		4687.500000
2157		4687.500000
2158		4687.500000
2159		4687.500000
2160		4687.500000
2161		4687.500000
2162		4687.500000
2163		4765.625000
2164		4765.625000
2165		4765.625000
2166		4765.625000
2167		4765.625000
2168		4765.625000
2169		4765.625000
2170		4765.625000
2171		4765.625000
2172		4765.625000
2173		4765.625000
2174		4765.625000
2175		4765.625000
2176		4765.625000
2177		4765.625000
2178		4765.625000
2179		4843.750000
2180		4843.750000
2181		4843.750000
2182		4843.750000
2183		4843.750000
2184		4843.750000
2185		4843.750000
2186		4843.750000
2187		4843.750000
2188		4843.750000
2189		4843.750000
2190		4843.750000
2191		4843.750000
2192		4843.750000
2193		4843.750000
2194		4843.750000
2195		4843.750000
2196		4921.875000
2197		4843.750000
2198		4843.750000
2199		4921.875000
2200		4921.875000
2201		4921.875000
2202		4921.875000
2203		4921.875000
2204		4921.875000
2205		4921.875000
2206		4921.875000
2207		4921.875000
2208		4921.875000
2209		4921.875000
2210		4921.875000
2211		4921.875000
2212		4921.875000
2213		4921.875000
2214		4921.875000
2215		5000.000000
2216		5000.000000
2217		5000.000000
2218		5000.000000
2219		5000.000000
2220		5000.000000
2221		5000.000000
2222		5000.000000
2223		5000.000000
2224		5000.000000
2225		5000.000000
2226		5000.000000
2227		5000.000000
2228		5000.000000
2229		5000.000000
2230		5000.000000
2231		5000.000000
2232		5000.000000
2233		5000.000000
2234		5000.000000
2235		5078.125000
2236		5078.125000
2237		5078.125000
2238		5078.125000
2239		5000.000000
2240		5078.125000
2241		5078.125000
2242		5078.125000
2243		5078.125000
2244		5078.125000
2245		5078.125000
2246		5078.125000
2247		5078.125000
2248		5078.125000
2249		5078.125000
2250		5078.125000
2251		5078.125000
2252		5078.125000
2253		5078.125000
2254		5078.125000
2255		5078.125000
2256		5078.125000
2257		5078.125000
2258		5078.125000
2259		5078.125000
2260		5078.125000
2261		5078.125000
2262		5078.125000
2263		5078.125000
2264		5078.125000
2265		5156.250000
2266		5156.250000
2267		5156.250000
2268		5156.250000
2269		5156.250000
2270		5156.250000
2271		5156.250000
2272		5156.250000
2273		5156.250000
2274		5156.250000
2275		5156.250000
2276		5156.250000
2277		5156.250000
2278		5156.250000
2279		5156.250000
2280		5156.250000
2281		5156.250000
2282		5156.250000
2283		5156.250000
2284		5156.250000
2285		5156.250000
2286		5156.250000
2287		5156.250000
2288		5156.250000
2289		5156.250000
2290		5156.250000
2291		5156.250000
2292		5156.250000
2293		5156.250000
2294		5156.250000
2295		5156.250000
2296		5156.250000
2297		5156.250000
2298		5156.250000
2299		5156.250000
2300		5156.250000
2301		5156.250000
2302		5156.250000
2303		5156.250000
2304		5156.250000
2305		5156.250000
2306		5156.250000
2307		5156.250000
2308		5234.375000
2309		5234.375000
2310		5234.375000
2311		5234.375000
2312		5234.375000
2313		5234.375000
2314		5234.375000
2315		5234.375000
2316		5234.375000
2317		5234.375000
2318		5234.375000
2319		5234.375000
2320		5234.375000
2321		5234.375000
2322		5234.375000
2323		5234.375000
2324		5234.375000
2325		5234.375000
2326		5234.375000
2327		5234.375000
2328		5234.375000
2329		5234.375000
2330		5234.375000
2331		5234.375000
2332		5234.375000
2333		5234.375000
2334		5234.375000
2335		5234.375000
2336		5234.375000
2337		5234.375000
2338		5234.375000
2339		5234.375000
2340		5234.375000
2341		5234.375000
2342		5234.375000
2343		5234.375000
2344		5234.375000
2345		5234.375000
2346		5234.375000
2347		5234.375000
2348		5234.375000
2349		5234.375000
2350		5234.375000
2351		5234.375000
2352		5234.375000
2353		5234.375000
2354		5234.375000
2355		5156.250000
2356		5156.250000
2357		5156.250000
2358		5156.250000
2359		5156.250000
2360		5156.250000
2361		5156.250000
2362		5156.250000
2363		5156.250000
2364		5156.250000
2365		5156.250000
2366		5156.250000
2367		5156.250000
2368		5234.375000
2369		5156.250000
2370		5156.250000
2371		5156.250000
2372		5156.250000
2373		5156.250000
2374		5156.250000
2375		5156.250000
2376		5156.250000
2377		5156.250000
2378		5156.250000
2379		5156.250000
2380		5156.250000
2381		5156.250000
2382		5156.250000
2383		5156.250000
2384		5156.250000
2385		5156.250000
2386		5156.250000
2387		5156.250000
2388		5156.250000
2389		5156.250000
2390		5156.250000
2391		5156.250000
2392		5156.250000
2393		5156.250000
2394		5156.250000
2395		5156.250000
2396		5156.250000
2397		5156.250000
2398		5156.250000
2399		5156.250000
2400		5156.250000
2401		5156.250000
2402		5156.250000
2403		5156.250000
2404		5156.250000
2405		5156.250000
2406		5156.250000
2407		5156.250000
2408		5078.125000
2409		5078.125000
2410		5078.125000
2411		5078.125000
2412		5078.125000
2413		5078.125000
2414		5078.125000
2415		5078.125000
2416		5078.125000
2417		5078.125000
2418		5078.125000
2419		5078.125000
2420		5078.125000
2421		5078.125000
2422		5078.125000
2423		5078.125000
2424		5078.125000
2425		5078.125000
2426		5078.125000
2427		5078.125000
2428		5078.125000
2429		5078.125000
2430		5078.125000
2431		5078.125000
2432		5078.125000
2433		5078.125000
2434		5078.125000
2435		5000.000000
2436		5078.125000
2437		5000.000000
2438		5000.000000
2439		5000.000000
2440		5000.000000
2441		5000.000000
2442		5000.000000
2443		5000.000000
2444		5000.000000
2445		5000.000000
2446		5000.000000
2447		5000.000000
2448		5000.000000
2449		5000.000000
2450		5000.000000
2451		5000.000000
2452		5000.000000
2453		5000.000000
2454		5000.000000
2455		5000.000000
2456		5000.000000
2457		5000.000000
2458		4921.875000
2459		4921.875000
2460		4921.875000
2461		4921.875000
2462		4921.875000
2463		4921.875000
2464		4921.875000
2465		4921.875000
2466		4921.875000
2467		4921.875000
2468		4921.875000
2469		4921.875000
2470		4921.875000
2471		4921.875000
2472		4921.875000
2473		4921.875000
2474		4921.875000
2475		4921.875000
2476		4921.875000
2477		4843.750000
2478		4843.750000
2479		4843.750000
2480		4843.750000
2481		4843.750000
2482		4843.750000
2483		4843.750000
2484		4843.750000
2485		4843.750000
2486		4843.750000
2487		4843.750000
2488		4843.750000
2489		4843.750000
2490		4843.750000
2491		4843.750000
2492		4843.750000
2493		4843.750000
2494		4843.750000
2495		4765.625000
2496		4765.625000
2497		4765.625000
2498		4765.625000
2499		4765.625000
2500		4765.625000
2501		4765.625000
2502		4765.625000
2503		4765.625000
2504		4765.625000
2505		4765.625000
2506		4765.625000
2507		4765.625000
2508		4765.625000
2509		4765.625000
2510		4765.625000
2511		4765.625000
2512		4687.500000
2513		4687.500000
2514		4687.500000
2515		4687.500000
2516		4687.500000
2517		4687.500000
2518		4687.500000
2519		4687.500000
2520		4687.500000
2521		4687.500000
2522		4687.500000
2523		4687.500000
2524		4687.500000
2525		4687.500000
2526		4687.500000
2527		4609.375000
2528		4609.375000
2529		4609.375000
2530		4609.375000
2531		4609.375000
2532		4609.375000
2533		4609.375000
2534		4609.375000
2535		4609.375000
2536		4609.375000
2537		4609.375000
2538		4609.375000
2539		4531.250000
2540		4609.375000
2541		4531.250000
2542		4531.250000
2543		4531.250000
2544		4531.250000
2545		4531.250000
2546		4531.250000
2547		4531.250000
2548		4531.250000
2549		4531.250000
2550		4531.250000
2551		4531.250000
2552		4531.250000
2553		4531.250000
2554		4453.125000
2555		4453.125000
2556		4453.125000
2557		4453.125000
2558		4453.125000
2559		4453.125000
2560		4453.125000
2561		4453.125000
2562		4453.125000
2563		4453.125000
2564		4453.125000
2565		4453.125000
2566		4453.125000
2567		4453.125000
2568		4453.125000
2569		4453.125000
2570		4375.000000
2571		4375.000000
2572		4375.000000
2573		4375.000000
2574		4375.000000
2575		4375.000000
2576		4375.000000
2577		4375.000000
2578		4375.000000
2579		4375.000000
2580		4375.000000
2581		4375.000000
2582		4375.000000
2583		4375.000000
2584		4296.875000
2585		4296.875000
2586		4296.875000
2587		4296.875000
2588		4296.875000
2589		4296.875000
2590		4296.875000
2591		4296.875000
2592		4296.875000
2593		4296.875000
2594		4296.875000
2595		4296.875000
2596		4296.875000
2597		4218.750000
2598		4218.750000
2599		4218.750000
2600		4218.750000
2601		4218.750000
2602		4218.750000
2603		4218.750000
2604		4218.750000
2605		4218.750000
2606		4218.750000
2607		4218.750000
2608		4218.750000
2609		4218.750000
2610		4140.625000
2611		4140.625000
2612		4140.625000
2613		4140.625000
2614		4140.625000
2615		4140.625000
2616		4140.625000
2617		4140.625000
2618		4140.625000
2619		4140.625000
2620		4140.625000
2621		4140.625000
2622		4140.625000
2623		4140.625000
2624		4062.500000
2625		4062.500000
2626		4062.500000
2627		4062.500000
2628		4062.500000
2629		4062.500000
2630		4062.500000
2631		4062.500000
2632		4062.500000
2633		4062.500000
2634		4062.500000
2635		4062.500000
2636		4062.500000
2637		4062.500000
2638		3984.375000
2639		3984.375000
2640		3984.375000
2641		3984.375000
2642		3984.375000
2643		3984.375000
2644		3984.375000
2645		3984.375000
2646		3984.375000
2647		3984.375000
2648		3984.375000
2649		3984.375000
2650		3984.375000
2651		3984.375000
2652		3984.375000
2653		3906.250000
2654		3906.250000
2655		3906.250000
2656		3906.250000
2657		3906.250000
2658		3906.250000
2659		3906.250000
2660		3906.250000
2661		3906.250000
2662		3906.250000
2663		3906.250000
2664		3906.250000
2665		3906.250000
2666		3828.125000
2667		3828.125000
2668		3828.125000
2669		3828.125000
2670		3828.125000
2671		3828.125000
2672		3828.125000
2673		3828.125000
2674		3828.125000
2675		3828.125000
2676		3828.125000
2677		3828.125000
2678		3828.125000
2679		3750.000000
2680		3750.000000
2681		3750.000000
2682		3750.000000
2683		3750.000000
2684		3750.000000
2685		3750.000000
2686		3750.000000
2687		3750.000000
2688		3750.000000
2689		3750.000000
2690		3750.000000
2691		3750.000000
2692		3750.000000
2693		3750.000000
2694		3750.000000
2695		3671.875000
2696		3671.875000
2697		3671.875000
2698		3671.875000
2699		3671.875000
2700		3671.875000
2701		3671.875000
2702		3671.875000
2703		3671.875000
2704		3671.875000
2705		3671.875000
2706		3671.875000
2707		3671.875000
2708		3671.875000
2709		3671.875000
2710		3671.875000
2711		3593.750000
2712		3593.750000
2713		3593.750000
2714		3593.750000
2715		3593.750000
2716		3593.750000
2717		3593.750000
2718		3593.750000
2719		3593.750000
2720		3593.750000
2721		3593.750000
2722		3593.750000
2723		3593.750000
2724		3593.750000
2725		3593.750000
2726		3593.750000
2727		3515.625000
2728		3515.625000
2729		3515.625000
2730		3515.625000
2731		3515.625000
2732		3515.625000
2733		3515.625000
2734		3515.625000
2735		3515.625000
2736		3515.625000
2737		3515.625000
2738		3515.625000
2739		3515.625000
2740		3515.625000
2741		3515.625000
2742		3515.625000
2743		3437.500000
2744		3437.500000
2745		3437.500000
2746		3437.500000
2747		3437.500000
2748		3437.500000
2749		3437.500000
2750		3437.500000
2751		3437.500000
2752		3437.500000
2753		3437.500000
2754		3437.500000
2755		3437.500000
2756		3437.500000
2757		3437.500000
2758		3359.375000
2759		3359.375000
2760		3359.375000
2761		3359.375000
2762		3359.375000
2763		3359.375000
2764		3359.375000
2765		3359.375000
2766		3359.375000
2767		3359.375000
2768		3359.375000
2769		3359.375000
2770		3359.375000
2771		3359.375000
2772		3359.375000
2773		3359.375000
2774		3359.375000
2775		3359.375000
2776		3359.375000
2777		3281.250000
2778		3281.250000
2779		3281.250000
2780		3281.250000
2781		3281.250000
2782		3281.250000
2783		3281.250000
2784		3281.250000
2785		3281.250000
2786		3281.250000
2787		3281.250000
2788		3281.250000
2789		3281.250000
2790		3281.250000
2791		3281.250000
2792		3281.250000
2793		3281.250000
2794		3281.250000
2795		3281.250000
2796		3203.125000
2797		3203.125000
2798		3203.125000
2799		3203.125000
2800		3203.125000
2801		3203.125000
2802		3203.125000
2803		3203.125000
2804		3203.125000
2805		3203.125000
2806		3203.125000
2807		3203.125000
2808		3203.125000
2809		3203.125000
2810		3203.125000
2811		3203.125000
2812		3203.125000
2813		3203.125000
2814		3203.125000
2815		3203.125000
2816		3125.000000
2817		3203.125000
2818		3125.000000
2819		3125.000000
2820		3125.000000
2821		3125.000000
2822		3125.000000
2823		3125.000000
2824		3125.000000
2825		3125.000000
2826		3125.000000
2827		3125.000000
2828		3125.000000
2829		3125.000000
2830		3125.000000
2831		3125.000000
2832		3125.000000
2833		3125.000000
2834		3125.000000
2835		3125.000000
2836		3125.000000
2837		3046.875000
2838		3125.000000
2839		3046.875000
2840		3046.875000
2841		3046.875000
2842		3046.875000
2843		3046.875000
2844		3046.875000
2845		3046.875000
2846		3046.875000
2847		3046.875000
2848		3046.875000
2849		3046.875000
2850		3046.875000
2851		3046.875000
2852		3046.875000
2853		3046.875000
2854		3046.875000
2855		3046.875000
2856		3046.875000
2857		3046.875000
2858		3046.875000
2859		3046.875000
2860		2968.750000
2861		2968.750000
2862		2968.750000
2863		2968.750000
2864		2968.750000
2865		2968.750000
2866		2968.750000
2867		2968.750000
2868		2968.750000
2869		2968.750000
2870		2968.750000
2871		2968.750000
2872		2968.750000
2873		2968.750000
2874		2968.750000
2875		2968.750000
2876		2968.750000
2877		2968.750000
2878		2968.750000
2879		2968.750000
2880		2968.750000
2881		2968.750000
2882		2968.750000
2883		2968.750000
2884		2968.750000
2885		2890.625000
2886		2968.750000
2887		2968.750000
2888		2968.750000
2889		2968.750000
2890		2890.625000
2891		2890.625000
2892		2890.625000
2893		2890.625000
2894		2890.625000
2895		2890.625000
2896		2890.625000
2897		2890.625000
2898		2890.625000
2899		2890.625000
2900		2890.625000
2901		2890.625000
2902		2890.625000
2903		2890.625000
2904		2890.625000
2905		2890.625000
2906		2890.625000
2907		2890.625000
2908		2890.625000
2909		2890.625000
2910		2890.625000
2911		2890.625000
2912		2890.625000
2913		2890.625000
2914		2812.500000
2915		2890.625000
2916		2812.500000
2917		2812.500000
2918		2812.500000
2919		2812.500000
2920		2812.500000
2921		2812.500000
2922		2812.500000
2923		2812.500000
2924		2812.500000
2925		2812.500000
2926		2812.500000
2927		2812.500000
2928		2812.500000
2929		2812.500000
2930		2812.500000
2931		2812.500000
2932		2812.500000
2933		2812.500000
2934		2812.500000
2935		2812.500000
2936		2812.500000
2937		2812.500000
2938		2812.500000
2939		2812.500000
2940		2812.500000
2941		2812.500000
2942		2812.500000
2943		2812.500000
2944		2812.500000
2945		2812.500000
2946		2812.500000
2947		2812.500000
2948		2812.500000
2949		2812.500000
2950		2812.500000
2951		2812.500000
2952		2734.375000
2953		2734.375000
2954		2734.375000
2955		2734.375000
2956		2734.375000
2957		2734.375000
2958		2734.375000
2959		2734.375000
2960		2734.375000
2961		2734.375000
2962		2734.375000
2963		2734.375000
2964		2734.375000
2965		2734.375000
2966		2734.375000
2967		2734.375000
2968		2734.375000
2969		2734.375000
2970		2734.375000
2971		2734.375000
2972		2734.375000
2973		2734.375000
2974		2734.375000
2975		2734.375000
2976		2734.375000
2977		2734.375000
2978		2734.375000
2979		2734.375000
2980		2734.375000
2981		2734.375000
2982		2734.375000
2983		2734.375000
2984		2734.375000
2985		2734.375000
2986		2734.375000
2987		2734.375000
2988		2734.375000
2989		2734.375000
2990		2734.375000
2991		2734.375000
2992		2734.375000
2993		2734.375000
2994		2656.250000
2995		2734.375000
2996		2656.250000
2997		2656.250000
2998		2656.250000
2999		2656.250000
3000		2656.250000
3001		2656.250000
3002		2656.250000
3003		2656.250000
3004		2656.250000
3005		2656.250000
3006		2656.250000
3007		2656.250000
3008		2656.250000
3009		2656.250000
3010		2656.250000
3011		2656.250000
3012		2656.250000
3013		2656.250000
3014		2656.250000
3015		2656.250000
3016		2656.250000
3017		2656.250000
3018		2656.250000
3019		2656.250000
3020		2656.250000
3021		2656.250000
3022		2656.250000
3023		2656.250000
3024		2656.250000
3025		2656.250000
3026		2656.250000
3027		2656.250000
3028		2656.250000
3029		2656.250000
3030		2656.250000
3031		2656.250000
3032		2656.250000
3033		2656.250000
3034		2656.250000
3035		2656.250000
3036		2656.250000
3037		2656.250000
3038		2656.250000
3039		2656.250000
3040		2656.250000
3041		2578.125000
3042		2656.250000
3043		2656.250000
3044		2578.125000
3045		2656.250000
3046		2656.250000
3047		2578.125000
3048		2656.250000
3049		2656.250000
3050		2656.250000
3051		2656.250000
3052		2656.250000
3053		2656.250000
3054		2578.125000
3055		2578.125000
3056		2578.125000
3057		2578.125000
3058		2578.125000
3059		2578.125000
3060		2578.125000
3061		2578.125000
3062		2578.125000
3063		2578.125000
3064		2578.125000
3065		2578.125000
3066		2578.125000
3067		2578.125000
3068		2578.125000
3069		2578.125000
3070		2578.125000
3071		2578.125000
3072		2578.125000
3073		2578.125000
3074		2578.125000
3075		2578.125000
3076		2578.125000
3077		2578.125000
3078		2578.125000
3079		2578.125000
3080		2578.125000
3081		2578.125000
3082		2578.125000
3083		2578.125000
3084		2578.125000
3085		2578.125000
3086		2578.125000
3087		2578.125000
3088		2578.125000
3089		2578.125000
3090		2578.125000
3091		2578.125000
3092		2578.125000
3093		2578.125000
3094		2578.125000
3095		2578.125000
3096		2578.125000
3097		2578.125000
3098		2578.125000
3099		2578.125000
3100		2578.125000
3101		2578.125000
3102		2578.125000
3103		2578.125000
3104		2578.125000
3105		2578.125000
3106		2578.125000
3107		2578.125000
3108		2578.125000
3109		2578.125000
3110		2578.125000
3111		2578.125000
3112		2578.125000
3113		2578.125000
3114		2578.125000
3115		2578.125000
3116		2578.125000
3117		2578.125000
3118		2578.125000
3119		2578.125000
3120		2500.000000
3121		2578.125000
3122		2578.125000
3123		2578.125000
3124		2578.125000
3125		2578.125000
3126		2578.125000
3127		2578.125000
3128		2578.125000
3129		2578.125000
3130		2578.125000
3131		2578.125000
3132		2578.125000
3133		2578.125000
3134		2578.125000
3135		2578.125000
3136		2578.125000
3137		2578.125000
3138		2578.125000
3139		2578.125000
3140		2578.125000
3141		2578.125000
3142		2578.125000
3143		2578.125000
3144		2578.125000
3145		2578.125000
3146		2578.125000
3147		2578.125000
3148		2578.125000
3149		2578.125000
3150		2578.125000
3151		2578.125000
3152		2578.125000
3153		2578.125000
3154		2578.125000
3155		2578.125000
3156		2578.125000
3157		2578.125000
3158		2578.125000
3159		2578.125000
3160		2578.125000
3161		2578.125000
3162		2578.125000
3163		2578.125000
3164		2578.125000
3165		2578.125000
3166		2578.125000
3167		2578.125000
3168		2578.125000
3169		2578.125000
3170		2578.125000
3171		2578.125000
3172		2578.125000
3173		2578.125000
3174		2578.125000
3175		2578.125000
3176		2578.125000
3177		2578.125000
3178		2578.125000
3179		2578.125000
3180		2578.125000
3181		2578.125000
3182		2578.125000
3183		2578.125000
3184		2578.125000
3185		2578.125000
3186		2578.125000
3187		2578.125000
3188		2578.125000
3189		2578.125000
3190		2578.125000
3191		2578.125000
3192		2578.125000
3193		2578.125000
3194		2578.125000
3195		2578.125000
3196		2578.125000
3197		2578.125000
3198		2578.125000
3199		2578.125000
3200		2578.125000
3201		2578.125000
3202		2578.125000
3203		2578.125000
3204		2578.125000
3205		2578.125000
3206		2578.125000
3207		2578.125000
3208		2578.125000
3209		2578.125000
3210		2578.125000
3211		2578.125000
3212		2578.125000
3213		2578.125000
3214		2578.125000
3215		2578.125000
3216		2578.125000
3217		2578.125000
3218		2578.125000
3219		2578.125000
3220		2578.125000
3221		2578.125000
3222		2578.125000
3223		2578.125000
3224		2578.125000
3225		2578.125000
3226		2578.125000
3227		2578.125000
3228		2578.125000
3229		2578.125000
3230		2578.125000
3231		2578.125000
3232		2578.125000
3233		2578.125000
3234		2578.125000
3235		2578.125000
3236		2578.125000
3237		2578.125000
3238		2578.125000
3239		2578.125000
3240		2578.125000
3241		2578.125000
3242		2578.125000
3243		2578.125000
3244		2578.125000
3245		2578.125000
3246		2578.125000
3247		2578.125000
3248		2578.125000
3249		2578.125000
3250		2578.125000
3251		2578.125000
3252		2578.125000
3253		2578.125000
3254		2578.125000
3255		2578.125000
3256		2578.125000
3257		2578.125000
3258		2578.125000
3259		2578.125000
3260		2578.125000
3261		2578.125000
3262		2578.125000
3263		2578.125000
3264		2578.125000
3265		2578.125000
3266		2578.125000
3267		2578.125000
3268		2578.125000
3269		2578.125000
3270		2578.125000
3271		2656.250000
3272		2578.125000
3273		2578.125000
3274		2578.125000
3275		2578.125000
3276		2578.125000
3277		2578.125000
3278		2578.125000
3279		2578.125000
3280		2578.125000
3281		2656.250000
3282		2578.125000
3283		2578.125000
3284		2656.250000
3285		2578.125000
3286		2656.250000
3287		2656.250000
3288		2656.250000
3289		2656.250000
3290		2656.250000
3291		2656.250000
3292		2656.250000
3293		2656.250000
3294		2656.250000
3295		2656.250000
3296		2656.250000
3297		2656.250000
3298		2656.250000
3299		2656.250000
3300		2656.250000
3301		2656.250000
3302		2656.250000
3303		2656.250000
3304		2656.250000
3305		2656.250000
3306		2656.250000
3307		2656.250000
3308		2656.250000
3309		2656.250000
3310		2656.250000
3311		2656.250000
3312		2656.250000
3313		2656.250000
3314		2656.250000
3315		2656.250000
3316		2656.250000
3317		2656.250000
3318		2656.250000
3319		2656.250000
3320		2656.250000
3321		2656.250000
3322		2656.250000
3323		2656.250000
3324		2656.250000
3325		2656.250000
3326		2656.250000
3327		2656.250000
3328		2656.250000
3329		2656.250000
3330		2656.250000
3331		2656.250000
3332		2656.250000
3333		2656.250000
3334		2656.250000
3335		2656.250000
3336		2656.250000
3337		2656.250000
3338		2656.250000
3339		2656.250000
3340		2656.250000
3341		2656.250000
3342		2656.250000
3343		2734.375000
3344		2734.375000
3345		2734.375000
3346		2734.375000
3347		2734.375000
3348		2734.375000
3349		2734.375000
3350		2734.375000
3351		2734.375000
3352		2734.375000
3353		2734.375000
3354		2734.375000
3355		2734.375000
3356		2734.375000
3357		2734.375000
3358		2734.375000
3359		2734.375000
3360		2734.375000
3361		2734.375000
3362		2734.375000
3363		2734.375000
3364		2734.375000
3365		2734.375000
3366		2734.375000
3367		2734.375000
3368		2734.375000
3369		2734.375000
3370		2734.375000
3371		2734.375000
3372		2734.375000
3373		2734.375000
3374		2734.375000
3375		2734.375000
3376		2734.375000
3377		2734.375000
3378		2734.375000
3379		2734.375000
3380		2734.375000
3381		2734.375000
3382		2734.375000
3383		2812.500000
3384		2734.375000
3385		2812.500000
3386		2812.500000
3387		2812.500000
3388		2812.500000
3389		2812.500000
3390		2812.500000
3391		2812.500000
3392		2812.500000
3393		2812.500000
3394		2812.500000
3395		2812.500000
3396		2812.500000
3397		2812.500000
3398		2812.500000
3399		2812.500000
3400		2812.500000
3401		2812.500000
3402		2812.500000
3403		2812.500000
3404		2812.500000
3405		2812.500000
3406		2812.500000
3407		2812.500000
3408		2812.500000
3409		2812.500000
3410		2812.500000
3411		2890.625000
3412		2890.625000
3413		2812.500000
3414		2890.625000
3415		2890.625000
3416		2890.625000
3417		2890.625000
3418		2890.625000
3419		2890.625000
3420		2812.500000
3421		2890.625000
3422		2890.625000
3423		2890.625000
3424		2890.625000
3425		2890.625000
3426		2890.625000
3427		2890.625000
3428		2890.625000
3429		2890.625000
3430		2890.625000
3431		2890.625000
3432		2890.625000
3433		2890.625000
3434		2890.625000
3435		2890.625000
3436		2890.625000
3437		2890.625000
3438		2890.625000
3439		2890.625000
3440		2890.625000
3441		2890.625000
3442		2890.625000
3443		2968.750000
3444		2968.750000
3445		2968.750000
3446		2968.750000
3447		2968.750000
3448		2968.750000
3449		2968.750000
3450		2968.750000
3451		2968.750000
3452		2968.750000
3453		2968.750000
3454		2968.750000
3455		2968.750000
3456		2968.750000
3457		2968.750000
3458		2968.750000
3459		2968.750000
3460		2968.750000
3461		2968.750000
3462		2968.750000
3463		2968.750000
3464		2968.750000
3465		2968.750000
3466		2968.750000
3467		3046.875000
3468		3046.875000
3469		3046.875000
3470		3046.875000
3471		3046.875000
3472		3046.875000
3473		3046.875000
3474		3046.875000
3475		3046.875000
3476		3046.875000
3477		3046.875000
3478		3046.875000
3479		3046.875000
3480		3046.875000
3481		3046.875000
3482		3046.875000
3483		3046.875000
3484		3046.875000
3485		3046.875000
3486		3046.875000
3487		3046.875000
3488		3046.875000
3489		3125.000000
3490		3125.000000
3491		3125.000000
3492		3125.000000
3493		3125.000000
3494		3125.000000
3495		3125.000000
3496		3125.000000
3497		3125.000000
3498		3125.000000
3499		3125.000000
3500		3125.000000
3501		3125.000000
3502		3125.000000
3503		3125.000000
3504		3125.000000
3505		3125.000000
3506		3125.000000
3507		3125.000000
3508		3125.000000
3509		3203.125000
3510		3203.125000
3511		3203.125000
3512		3203.125000
3513		3203.125000
3514		3203.125000
3515		3203.125000
3516		3203.125000
3517		3203.125000
3518		3203.125000
3519		3203.125000
3520		3203.125000
3521		3203.125000
3522		3203.125000
3523		3203.125000
3524		3203.125000
3525		3203.125000
3526		3203.125000
3527		3203.125000
3528		3281.250000
3529		3203.125000
3530		3281.250000
3531		3281.250000
3532		3281.250000
3533		3281.250000
3534		3281.250000
3535		3281.250000
3536		3281.250000
3537		3281.250000
3538		3281.250000
3539		3281.250000
3540		3281.250000
3541		3281.250000
3542		3281.250000
3543		3281.250000
3544		3281.250000
3545		3281.250000
3546		3281.250000
3547		3281.250000
3548		3359.375000
3549		3359.375000
3550		3359.375000
3551		3359.375000
3552		3359.375000
3553		3359.375000
3554		3359.375000
3555		3359.375000
3556		3359.375000
3557		3359.375000
3558		3359.375000
3559		3359.375000
3560		3359.375000
3561		3359.375000
3562		3359.375000
3563		3359.375000
3564		3437.500000
3565		3437.500000
3566		3437.500000
3567		3437.500000
3568		3437.500000
3569		3437.500000
3570		3437.500000
3571		3437.500000
3572		3437.500000
3573		3437.500000
3574		3437.500000
3575		3437.500000
3576		3437.500000
3577		3437.500000
3578		3437.500000
3579		3437.500000
3580		3437.500000
3581		3515.625000
3582		3515.625000
3583		3515.625000
3584		3515.625000
3585		3515.625000
3586		3515.625000
3587		3515.625000
3588		3515.625000
3589		3515.625000
3590		3515.625000
3591		3515.625000
3592		3515.625000
3593		3515.625000
3594		3515.625000
3595		3515.625000
3596		3593.750000
3597		3593.750000
3598		3593.750000
3599		3593.750000
3600		3593.750000
3601		3593.750000
3602		3593.750000
3603		3593.750000
3604		3593.750000
3605		3593.750000
3606		3593.750000
3607		3593.750000
3608		3593.750000
3609		3593.750000
3610		3671.875000
3611		3671.875000
3612		3671.875000
3613		3671.875000
3614		3671.875000
3615		3671.875000
3616		3671.875000
3617		3671.875000
3618		3671.875000
3619		3671.875000
3620		3671.875000
3621		3671.875000
3622		3671.875000
3623		3671.875000
3624		3750.000000
3625		3750.000000
3626		3750.000000
3627		3750.000000
3628		3750.000000
3629		3750.000000
3630		3750.000000
3631		3750.000000
3632		3750.000000
3633		3750.000000
3634		3750.000000
3635		3750.000000
3636		3750.000000
3637		3750.000000
3638		3750.000000
3639		3750.000000
3640		3828.125000
3641		3750.000000
3642		3828.125000
3643		3828.125000
3644		3828.125000
3645		3828.125000
3646		3828.125000
3647		3828.125000
3648		3828.125000
3649		3828.125000
3650		3828.125000
3651		3828.125000
3652		3906.250000
3653		3906.250000
3654		3906.250000
3655		3906.250000
3656		3906.250000
3657		3906.250000
3658		3906.250000
3659		3906.250000
3660		3906.250000
3661		3906.250000
3662		3906.250000
3663		3906.250000
3664		3906.250000
3665		3984.375000
3666		3984.375000
3667		3984.375000
3668		3984.375000
3669		3984.375000
3670		3984.375000
3671		3984.375000
3672		3984.375000
3673		3984.375000
3674		3984.375000
3675		3984.375000
3676		3984.375000
3677		3984.375000
3678		3984.375000
3679		4062.500000
3680		4062.500000
3681		4062.500000
3682		4062.500000
3683		4062.500000
3684		4062.500000
3685		4062.500000
3686		4062.500000
3687		4062.500000
3688		4062.500000
3689		4062.500000
3690		4062.500000
3691		4140.625000
3692		4062.500000
3693		4140.625000
3694		4140.625000
3695		4140.625000
3696		4140.625000
3697		4140.625000
3698		4140.625000
3699		4140.625000
3700		4140.625000
3701		4140.625000
3702		4140.625000
3703		4140.625000
3704		4140.625000
3705		4218.750000
3706		4218.750000
3707		4218.750000
3708		4218.750000
3709		4218.750000
3710		4218.750000
3711		4218.750000
3712		4218.750000
3713		4218.750000
3714		4218.750000
3715		4218.750000
3716		4218.750000
3717		4218.750000
3718		4218.750000
3719		4296.875000
3720		4218.750000
3721		4296.875000
3722		4296.875000
3723		4296.875000
3724		4296.875000
3725		4296.875000
3726		4296.875000
3727		4296.875000
3728		4296.875000
3729		4296.875000
3730		4296.875000
3731		4296.875000
3732		4375.000000
3733		4375.000000
3734		4375.000000
3735		4375.000000
3736		4375.000000
3737		4375.000000
3738		4375.000000
3739		4375.000000
3740		4375.000000
3741		4375.000000
3742		4375.000000
3743		4375.000000
3744		4453.125000
3745		4453.125000
3746		4453.125000
3747		4453.125000
3748		4453.125000
3749		4453.125000
3750		4453.125000
3751		4453.125000
3752		4453.125000
3753		4453.125000
3754		4453.125000
3755		4453.125000
3756		4453.125000
3757		4531.250000
3758		4531.250000
3759		4531.250000
3760		4531.250000
3761		4531.250000
3762		4531.250000
3763		4531.250000
3764		4531.250000
3765		4531.250000
3766		4531.250000
3767		4531.250000
3768		4531.250000
3769		4531.250000
3770		4531.250000
3771		4609.375000
3772		4609.375000
3773		4609.375000
3774		4609.375000
3775		4609.375000
3776		4609.375000
3777		4609.375000
3778		4609.375000
3779		4609.375000
3780		4609.375000
3781		4609.375000
3782		4609.375000
3783		4609.375000
3784		4609.375000
3785		4609.375000
3786		4687.500000
3787		4687.500000
3788		4687.500000
3789		4687.500000
3790		4687.500000
3791		4687.500000
3792		4687.500000
3793		4687.500000
3794		4687.500000
3795		4687.500000
3796		4687.500000
3797		4687.500000
3798		4687.500000
3799		4687.500000
3800		4687.500000
3801		4687.500000
3802		4765.625000
3803		4765.625000
3804		4765.625000
3805		4765.625000
3806		4765.625000
3807		4765.625000
3808		4765.625000
3809		4765.625000
3810		4765.625000
3811		4765.625000
3812		4765.625000
3813		4765.625000
3814		4765.625000
3815		4765.625000
3816		4765.625000
3817		4765.625000
3818		4765.625000
3819		4843.750000
3820		4843.750000
3821		4843.750000
3822		4843.750000
3823		4843.750000
3824		4843.750000
3825		4843.750000
3826		4843.750000
3827		4843.750000
3828		4843.750000
3829		4843.750000
3830		4843.750000
3831		4843.750000
3832		4843.750000
3833		4843.750000
3834		4921.875000
3835		4843.750000
3836		4921.875000
3837		4843.750000
3838		4921.875000
3839		4921.875000
3840		4921.875000
3841		4921.875000
3842		4921.875000
3843		4921.875000
3844		4921.875000
3845		4921.875000
3846		4921.875000
3847		4921.875000
3848		4921.875000
3849		4921.875000
3850		4921.875000
3851		4921.875000
3852		4921.875000
3853		5000.000000
3854		5000.000000
3855		5000.000000
3856		5000.000000
3857		5000.000000
3858		5000.000000
3859		5000.000000
3860		5000.000000
3861		5000.000000
3862		5000.000000
3863		5000.000000
3864		5000.000000
3865		5000.000000
3866		5000.000000
3867		5000.000000
3868		5000.000000
3869		5000.000000
3870		5078.125000
3871		5000.000000
3872		5078.125000
3873		5078.125000
3874		5078.125000
3875		5078.125000
3876		5078.125000
3877		5078.125000
3878		5078.125000
3879		5078.125000
3880		5078.125000
3881		5078.125000
3882		5078.125000
3883		5078.125000
3884		5078.125000
3885		5078.125000
3886		5078.125000
3887		5078.125000
3888		5078.125000
3889		5078.125000
3890		5078.125000
3891		5078.125000
3892		5078.125000
3893		5078.125000
3894		5078.125000
3895		5078.125000
3896		5078.125000
3897		5078.125000
3898		5078.125000
3899		5156.250000
3900		5156.250000
3901		5156.250000
3902		5156.250000
3903		5156.250000
3904		5156.250000
3905		5156.250000
3906		5156.250000
3907		5156.250000
3908		5156.250000
3909		5156.250000
3910		5156.250000
3911		5156.250000
3912		5156.250000
3913		5156.250000
3914		5156.250000
3915		5156.250000
3916		5156.250000
3917		5156.250000
3918		5156.250000
3919		5156.250000
3920		5156.250000
3921		5156.250000
3922		5156.250000
3923		5156.250000
3924		5156.250000
3925		5156.250000
3926		5234.375000
3927		5156.250000
3928		5234.375000
3929		5156.250000
3930		5156.250000
3931		5234.375000
3932		5234.375000
3933		5234.375000
3934		5234.375000
3935		5234.375000
3936		5234.375000
3937		5234.375000
3938		5234.375000
3939		5234.375000
3940		5234.375000
3941		5156.250000
3942		5234.375000
3943		5234.375000
3944		5234.375000
3945		5234.375000
3946		5234.375000
3947		5234.375000
3948		5234.375000
3949		5234.375000
3950		5234.375000
3951		5234.375000
3952		5234.375000
3953		5234.375000
3954		5234.375000
3955		5234.375000
3956		5234.375000
3957		5234.375000
3958		5234.375000
3959		5234.375000
3960		5234.375000
3961		5234.375000
3962		5234.375000
3963		5234.375000
3964		5234.375000
3965		5234.375000
3966		5234.375000
3967		5234.375000
3968		5234.375000
3969		5234.375000
3970		5234.375000
3971		5234.375000
3972		5234.375000
3973		5234.375000
3974		5234.375000
3975		5234.375000
3976		5234.375000
3977		5234.375000
3978		5234.375000
3979		5234.375000
3980		5234.375000
3981		5234.375000
3982		5234.375000
3983		5234.375000
3984		5234.375000
3985		5234.375000
3986		5234.375000
3987		5234.375000
3988		5234.375000
3989		5234.375000
3990		5234.375000
3991		5234.375000
3992		5234.375000
3993		5234.375000
3994		5234.375000
3995		5234.375000
3996		5234.375000
3997		5234.375000
3998		5234.375000
3999		5234.375000
4000		5234.375000
4001		5234.375000
4002		5234.375000
4003		5234.375000
4004		5234.375000
4005		5234.375000
4006		5234.375000
4007		5234.375000
4008		5234.375000
4009		5234.375000
4010		5234.375000
4011		5234.375000
4012		5234.375000
4013		5234.375000
4014		5234.375000
4015		5234.375000
4016		5234.375000
4017		5234.375000
4018		5234.375000
4019		5234.375000
4020		5234.375000
4021		5234.375000
4022		5234.375000
4023		5234.375000
4024		5234.375000
4025		5234.375000
4026		5234.375000
4027		5234.375000
4028		5234.375000
4029		5234.375000
4030		5234.375000
4031		5234.375000
4032		5234.375000
4033		5234.375000
4034		5156.250000
4035		5156.250000
4036		5156.250000
4037		5156.250000
4038		5156.250000
4039		5156.250000
4040		5156.250000
4041		5156.250000
4042		5156.250000
4043		5156.250000
4044		5156.250000
4045		5156.250000
4046		5156.250000
4047		5156.250000
4048		5156.250000
4049		5156.250000
4050		5156.250000
4051		5156.250000
4052		5156.250000
4053		5156.250000
4054		5156.250000
4055		5156.250000
4056		5156.250000
4057		5156.250000
4058		5156.250000
4059		5156.250000
4060		5156.250000
4061		5156.250000
4062		5156.250000
4063		5156.250000
4064		5156.250000
4065		5156.250000
4066		5156.250000
4067		5156.250000
4068		5156.250000
4069		5156.250000
4070		5156.250000
4071		5078.125000
4072		5078.125000
4073		5078.125000
4074		5078.125000
4075		5078.125000
4076		5078.125000
4077		5078.125000
4078		5078.125000
4079		5078.125000
4080		5078.125000
4081		5078.125000
4082		5078.125000
4083		5078.125000
4084		5078.125000
4085		5078.125000
4086		5078.125000
4087		5078.125000
4088		5078.125000
4089		5078.125000
4090		5078.125000
4091		5078.125000
4092		5078.125000
4093		5000.000000
4094		5000.000000
4095		5000.000000
4096		5000.000000
4097		5000.000000
4098		5000.000000
4099		5000.000000
4100		5000.000000
4101		5000.000000
4102		5000.000000
4103		5000.000000
4104		5000.000000
4105		5000.000000
4106		5000.000000
4107		5000.000000
4108		5000.000000
4109		5000.000000
4110		5000.000000
4111		5000.000000
4112		5000.000000
4113		5000.000000
4114		5000.000000
4115		4921.875000
4116		4921.875000
4117		4921.875000
4118		4921.875000
4119		4921.875000
4120		4921.875000
4121		4921.875000
4122		4921.875000
4123		4921.875000
4124		4921.875000
4125		4921.875000
4126		4921.875000
4127		4921.875000
4128		4921.875000
4129		4921.875000
4130		4921.875000
4131		4921.875000
4132		4921.875000
4133		4921.875000
4134		4843.750000
4135		4843.750000
4136		4843.750000
4137		4843.750000
4138		4843.750000
4139		4843.750000
4140		4843.750000
4141		4843.750000
4142		4843.750000
4143		4843.750000
4144		4843.750000
4145		4843.750000
4146		4843.750000
4147		4843.750000
4148		4843.750000
4149		4843.750000
4150		4765.625000
4151		4765.625000
4152		4765.625000
4153		4765.625000
4154		4765.625000
4155		4765.625000
4156		4765.625000
4157		4765.625000
4158		4765.625000
4159		4765.625000
4160		4765.625000
4161		4765.625000
4162		4765.625000
4163		4765.625000
4164		4765.625000
4165		4765.625000
4166		4765.625000
4167		4687.500000
4168		4687.500000
4169		4765.625000
4170		4687.500000
4171		4687.500000
4172		4687.500000
4173		4687.500000
4174		4687.500000
4175		4687.500000
4176		4687.500000
4177		4687.500000
4178		4687.500000
4179		4687.500000
4180		4609.375000
4181		4687.500000
4182		4609.375000
4183		4609.375000
4184		4609.375000
4185		4609.375000
4186		4609.375000
4187		4609.375000
4188		4609.375000
4189		4609.375000
4190		4609.375000
4191		4609.375000
4192		4609.375000
4193		4609.375000
4194		4609.375000
4195		4609.375000
4196		4531.250000
4197		4531.250000
4198		4531.250000
4199		4531.250000
4200		4531.250000
4201		4531.250000
4202		4531.250000
4203		4531.250000
4204		4531.250000
4205		4531.250000
4206		4531.250000
4207		4531.250000
4208		4531.250000
4209		4531.250000
4210		4453.125000
4211		4453.125000
4212		4453.125000
4213		4453.125000
4214		4453.125000
4215		4453.125000
4216		4453.125000
4217		4453.125000
4218		4453.125000
4219		4453.125000
4220		4453.125000
4221		4453.125000
4222		4453.125000
4223		4453.125000
4224		4453.125000
4225		4375.000000
4226		4375.000000
4227		4375.000000
4228		4375.000000
4229		4375.000000
4230		4375.000000
4231		4375.000000
4232		4375.000000
4233		4375.000000
4234		4375.000000
4235		4375.000000
4236		4375.000000
4237		4375.000000
4238		4296.875000
4239		4375.000000
4240		4296.875000
4241		4296.875000
4242		4296.875000
4243		4296.875000
4244		4296.875000
4245		4296.875000
4246		4296.875000
4247		4296.875000
4248		4296.875000
4249		4296.875000
4250		4296.875000
4251		4296.875000
4252		4218.750000
4253		4218.750000
4254		4218.750000
4255		4218.750000
4256		4218.750000
4257		4218.750000
4258		4218.750000
4259		4218.750000
4260		4218.750000
4261		4218.750000
4262		4218.750000
4263		4218.750000
4264		4218.750000
4265		4218.750000
4266		4218.750000
4267		4140.625000
4268		4140.625000
4269		4140.625000
4270		4140.625000
4271		4140.625000
4272		4140.625000
4273		4140.625000
4274		4140.625000
4275		4140.625000
4276		4140.625000
4277		4140.625000
4278		4140.625000
4279		4140.625000
4280		4140.625000
4281		4062.500000
4282		4062.500000
4283		4062.500000
4284		4062.500000
4285		4062.500000
4286		4062.500000
4287		4062.500000
4288		4062.500000
4289		4062.500000
4290		4062.500000
4291		4062.500000
4292		4062.500000
4293		3984.375000
4294		3984.375000
4295		3984.375000
4296		3984.375000
4297		3984.375000
4298		3984.375000
4299		3984.375000
4300		3984.375000
4301		3984.375000
4302		3984.375000
4303		3984.375000
4304		3984.375000
4305		3984.375000
4306		3984.375000
4307		3984.375000
4308		3984.375000
4309		3906.250000
4310		3906.250000
4311		3906.250000
4312		3906.250000
4313		3906.250000
4314		3906.250000
4315		3906.250000
4316		3906.250000
4317		3906.250000
4318		3906.250000
4319		3906.250000
4320		3906.250000
4321		3906.250000
4322		3828.125000
4323		3828.125000
4324		3828.125000
4325		3828.125000
4326		3828.125000
4327		3828.125000
4328		3828.125000
4329		3828.125000
4330		3828.125000
4331		3828.125000
4332		3828.125000
4333		3828.125000
4334		3828.125000
4335		3828.125000
4336		3828.125000
4337		3750.000000
4338		3750.000000
4339		3750.000000
4340		3750.000000
4341		3750.000000
4342		3750.000000
4343		3750.000000
4344		3750.000000
4345		3750.000000
4346		3750.000000
4347		3750.000000
4348		3750.000000
4349		3750.000000
4350		3750.000000
4351		3750.000000
4352		3750.000000
4353		3750.000000
4354		3671.875000
4355		3671.875000
4356		3671.875000
4357		3671.875000
4358		3671.875000
4359		3671.875000
4360		3671.875000
4361		3671.875000
4362		3671.875000
4363		3671.875000
4364		3671.875000
4365		3671.875000
4366		3671.875000
4367		3671.875000
4368		3671.875000
4369		3671.875000
4370		3593.750000
4371		3593.750000
4372		3593.750000
4373		3593.750000
4374		3593.750000
4375		3593.750000
4376		3593.750000
4377		3593.750000
4378		3593.750000
4379		3593.750000
4380		3593.750000
4381		3593.750000
4382		3593.750000
4383		3515.625000
4384		3593.750000
4385		3515.625000
4386		3515.625000
4387		3515.625000
4388		3515.625000
4389		3515.625000
4390		3515.625000
4391		3515.625000
4392		3515.625000
4393		3515.625000
4394		3515.625000
4395		3515.625000
4396		3515.625000
4397		3515.625000
4398		3515.625000
4399		3515.625000
4400		3437.500000
4401		3437.500000
4402		3437.500000
4403		3437.500000
4404		3437.500000
4405		3437.500000
4406		3437.500000
4407		3437.500000
4408		3437.500000
4409		3437.500000
4410		3437.500000
4411		3437.500000
4412		3437.500000
4413		3437.500000
4414		3437.500000
4415		3437.500000
4416		3437.500000
4417		3437.500000
4418		3359.375000
4419		3359.375000
4420		3359.375000
4421		3359.375000
4422		3359.375000
4423		3359.375000
4424		3359.375000
4425		3359.375000
4426		3359.375000
4427		3359.375000
4428		3359.375000
4429		3359.375000
4430		3359.375000
4431		3359.375000
4432		3359.375000
4433		3359.375000
4434		3359.375000
4435		3359.375000
4436		3281.250000
4437		3359.375000
4438		3281.250000
4439		3281.250000
4440		3281.250000
4441		3281.250000
4442		3281.250000
4443		3281.250000
4444		3281.250000
4445		3281.250000
4446		3281.250000
4447		3281.250000
4448		3281.250000
4449		3281.250000
4450		3281.250000
4451		3281.250000
4452		3281.250000
4453		3281.250000
4454		3281.250000
4455		3281.250000
4456		3203.125000
4457		3203.125000
4458		3203.125000
4459		3203.125000
4460		3203.125000
4461		3203.125000
4462		3203.125000
4463		3203.125000
4464		3203.125000
4465		3203.125000
4466		3203.125000
4467		3203.125000
4468		3203.125000
4469		3203.125000
4470		3203.125000
4471		3203.125000
4472		3203.125000
4473		3203.125000
4474		3203.125000
4475		3203.125000
4476		3203.125000
4477		3203.125000
4478		3203.125000
4479		3203.125000
4480		3125.000000
4481		3125.000000
4482		3125.000000
4483		3125.000000
4484		3125.000000
4485		3125.000000
4486		3125.000000
4487		3125.000000
4488		3125.000000
4489		3125.000000
4490		3125.000000
4491		3125.000000
4492		3125.000000
4493		3125.000000
4494		3125.000000
4495		3125.000000
4496		3125.000000
4497		3125.000000
4498		3125.000000
4499		3125.000000
4500		3125.000000
4501		3125.000000
4502		3125.000000
4503		3046.875000
4504		3046.875000
4505		3046.875000
4506		3046.875000
4507		3046.875000
4508		3046.875000
4509		3046.875000
4510		3046.875000
4511		3046.875000
4512		3046.875000
4513		3046.875000
4514		3046.875000
4515		3046.875000
4516		3046.875000
4517		3046.875000
4518		3046.875000
4519		3046.875000
4520		3046.875000
4521		3046.875000
4522		3046.875000
4523		3046.875000
4524		3046.875000
4525		3046.875000
4526		3046.875000
4527		3046.875000
4528		3046.875000
4529		2968.750000
4530		2968.750000
4531		3046.875000
4532		2968.750000
4533		2968.750000
4534		2968.750000
4535		2968.750000
4536		2968.750000
4537		2968.750000
4538		2968.750000
4539		2968.750000
4540		2968.750000
4541		2968.750000
4542		2968.750000
4543		2968.750000
4544		2968.750000
4545		2968.750000
4546		2968.750000
4547		2968.750000
4548		2890.625000
4549		2968.750000
4550		2968.750000
4551		2968.750000
4552		2968.750000
4553		2968.750000
4554		2968.750000
4555		2968.750000
4556		2890.625000
4557		2890.625000
4558		2890.625000
4559		2890.625000
4560		2890.625000
4561		2890.625000
4562		2890.625000
4563		2890.625000
4564		2890.625000
4565		2890.625000
4566		2890.625000
4567		2890.625000
4568		2890.625000
4569		2890.625000
4570		2890.625000
4571		2890.625000
4572		2890.625000
4573		2890.625000
4574		2890.625000
4575		2890.625000
4576		2890.625000
4577		2890.625000
4578		2890.625000
4579		2890.625000
4580		2890.625000
4581		2890.625000
4582		2890.625000
4583		2890.625000
4584		2890.625000
4585		2890.625000
4586		2890.625000
4587		2890.625000
4588		2890.625000
4589		2890.625000
4590		2890.625000
4591		2812.500000
4592		2812.500000
4593		2812.500000
4594		2812.500000
4595		2812.500000
4596		2812.500000
4597		2812.500000
4598		2812.500000
4599		2812.500000
4600		2812.500000
4601		2812.500000
4602		2812.500000
4603		2812.500000
4604		2812.500000
4605		2812.500000
4606		2812.500000
4607		2812.500000
4608		2812.500000
4609		2812.500000
4610		2812.500000
4611		2812.500000
4612		2812.500000
4613		2812.500000
4614		2812.500000
4615		2812.500000
4616		2812.500000
4617		2812.500000
4618		2812.500000
4619		2812.500000
4620		2812.500000
4621		2812.500000
4622		2812.500000
4623		2812.500000
4624		2812.500000
4625		2812.500000
4626		2812.500000
4627		2812.500000
4628		2812.500000
4629		2812.500000
4630		2734.375000
4631		2734.375000
4632		2734.375000
4633		2734.375000
4634		2734.375000
4635		2734.375000
4636		2734.375000
4637		2734.375000
4638		2734.375000
4639		2734.375000
4640		2734.375000
4641		2734.375000
4642		2734.375000
4643		2734.375000
4644		2734.375000
4645		2734.375000
4646		2734.375000
4647		2734.375000
4648		2734.375000
4649		2734.375000
4650		2734.375000
4651		2734.375000
4652		2734.375000
4653		2734.375000
4654		2734.375000
4655		2734.375000
4656		2734.375000
4657		2734.375000
4658		2734.375000
4659		2734.375000
4660		2734.375000
4661		2734.375000
4662		2734.375000
4663		2734.375000
4664		2734.375000
4665		2734.375000
4666		2734.375000
4667		2734.375000
4668		2734.375000
4669		2734.375000
4670		2734.375000
4671		2734.375000
4672		2734.375000
4673		2734.375000
4674		2734.375000
4675		2734.375000
4676		2734.375000
4677		2656.250000
4678		2734.375000
4679		2656.250000
4680		2734.375000
4681		2656.250000
4682		2656.250000
4683		2656.250000
4684		2656.250000
4685		2656.250000
4686		2656.250000
4687		2656.250000
4688		2656.250000
4689		2656.250000
4690		2656.250000
4691		2656.250000
4692		2656.250000
4693		2656.250000
4694		2656.250000
4695		2656.250000
4696		2656.250000
4697		2656.250000
4698		2656.250000
4699		2656.250000
4700		2656.250000
4701		2656.250000
4702		2656.250000
4703		2656.250000
4704		2656.250000
4705		2656.250000
4706		2656.250000
4707		2656.250000
4708		2656.250000
4709		2656.250000
4710		2656.250000
4711		2656.250000
4712		2656.250000
4713		2656.250000
4714		2656.250000
4715		2656.250000
4716		2656.250000
4717		2656.250000
4718		2656.250000
4719		2656.250000
4720		2656.250000
4721		2656.250000
4722		2656.250000
4723		2656.250000
4724		2656.250000
4725		2656.250000
4726		2656.250000
4727		2656.250000
4728		2656.250000
4729		2656.250000
4730		2656.250000
4731		2656.250000
4732		2656.250000
4733		2656.250000
4734		2656.250000
4735		2656.250000
4736		2656.250000
4737		2656.250000
4738		2656.250000
4739		2656.250000
4740		2656.250000
4741		2656.250000
4742		2656.250000
4743		2656.250000
4744		2656.250000
4745		2656.250000
4746		2656.250000
4747		2656.250000
4748		2656.250000
4749		2656.250000
4750		2656.250000
4751		2656.250000
4752		2656.250000
4753		2656.250000
4754		2656.250000
4755		2656.250000
4756		2656.250000
4757		2656.250000
4758		2656.250000
4759		2656.250000
4760		2656.250000
4761		2578.125000
4762		2656.250000
4763		2656.250000
4764		2656.250000
4765		2656.250000
4766		2656.250000
4767		2656.250000
4768		2656.250000
4769		2656.250000
4770		2656.250000
4771		2656.250000
4772		2656.250000
4773		2656.250000
4774		2578.125000
4775		2656.250000
4776		2578.125000
4777		2578.125000
4778		2578.125000
4779		2578.125000
4780		2578.125000
4781		2578.125000
4782		2578.125000
4783		2578.125000
4784		2656.250000
4785		2656.250000
4786		2656.250000
4787		2656.250000
4788		2656.250000
4789		2656.250000
4790		2656.250000
4791		2656.250000
4792		2578.125000
4793		2578.125000
4794		2578.125000
4795		2578.125000
4796		2578.125000
4797		2578.125000
4798		2578.125000
4799		2578.125000
4800		2578.125000
4801		2578.125000
4802		2656.250000
4803		2656.250000
4804		2578.125000
4805		2656.250000
4806		2656.250000
4807		2656.250000
4808		2656.250000
4809		2578.125000
4810		2578.125000
4811		2578.125000
4812		2578.125000
4813		2578.125000
4814		2578.125000
4815		2578.125000
4816		2578.125000
4817		2578.125000
4818		2578.125000
4819		2578.125000
4820		2578.125000
4821		2578.125000
4822		2578.125000
4823		2656.250000
4824		2578.125000
4825		2578.125000
4826		2656.250000
4827		2656.250000
4828		2656.250000
4829		2578.125000
4830		2656.250000
4831		2656.250000
4832		2656.250000
4833		2578.125000
4834		2578.125000
4835		2578.125000
4836		2578.125000
4837		2578.125000
4838		2578.125000
4839		2578.125000
4840		2578.125000
4841		2656.250000
4842		2578.125000
4843		2656.250000
4844		2656.250000
4845		2578.125000
4846		2656.250000
4847		2656.250000
4848		2578.125000
4849		2656.250000
4850		2578.125000
4851		2578.125000
4852		2578.125000
4853		2656.250000
4854		2578.125000
4855		2578.125000
4856		2578.125000
4857		2578.125000
4858		2656.250000
4859		2656.250000
4860		2656.250000
4861		2656.250000
4862		2656.250000
4863		2656.250000
4864		2656.250000
4865		2656.250000
4866		2656.250000
4867		2656.250000
4868		2656.250000
4869		2656.250000
4870		2656.250000
4871		2656.250000
4872		2656.250000
4873		2656.250000
4874		2656.250000
4875		2656.250000
4876		2656.250000
4877		2656.250000
4878		2656.250000
4879		2656.250000
4880		2656.250000
4881		2656.250000
4882		2656.250000
4883		2656.250000
4884		2656.250000
4885		2656.250000
4886		2656.250000
4887		2656.250000
4888		2656.250000
4889		2656.250000
4890		2656.250000
4891		2656.250000
4892		2656.250000
4893		2656.250000
4894		2656.250000
4895		2656.250000
4896		2656.250000
4897		2656.250000
4898		2656.250000
4899		2656.250000
4900		2656.250000
4901		2656.250000
4902		2656.250000
4903		2656.250000
4904		2656.250000
4905		2656.250000
4906		2656.250000
4907		2656.250000
4908		2656.250000
4909		2656.250000
4910		2656.250000
4911		2656.250000
4912		2656.250000
4913		2656.250000
4914		2656.250000
4915		2656.250000
4916		2656.250000
4917		2656.250000
4918		2656.250000
4919		2656.250000
4920		2656.250000
4921		2656.250000
4922		2656.250000
4923		2656.250000
4924		2656.250000
4925		2656.250000
4926		2656.250000
4927		2656.250000
4928		2656.250000
4929		2656.250000
4930		2656.250000
4931		2656.250000
4932		2656.250000
4933		2656.250000
4934		2656.250000
4935		2656.250000
4936		2656.250000
4937		2656.250000
4938		2656.250000
4939		2656.250000
4940		2656.250000
4941		2656.250000
4942		2656.250000
4943		2656.250000
4944		2656.250000
4945		2734.375000
4946		2656.250000
4947		2734.375000
4948		2734.375000
4949		2734.375000
4950		2734.375000
4951		2734.375000
4952		2734.375000
4953		2734.375000
4954		2656.250000
4955		2734.375000
4956		2656.250000
4957		2734.375000
4958		2734.375000
4959		2734.375000
4960		2734.375000
4961		2734.375000
4962		2734.375000
4963		2734.375000
4964		2734.375000
4965		2734.375000
4966		2734.375000
4967		2734.375000
4968		2734.375000
4969		2734.375000
4970		2734.375000
4971		2734.375000
4972		2734.375000
4973		2734.375000
4974		2734.375000
4975		2734.375000
4976		2734.375000
4977		2734.375000
4978		2734.375000
4979		2734.375000
4980		2734.375000
4981		2734.375000
4982		2734.375000
4983		2734.375000
4984		2734.375000
4985		2734.375000
4986		2734.375000
4987		2734.375000
4988		2734.375000
4989		2734.375000
4990		2734.375000
4991		2734.375000
4992		2734.375000
4993		2734.375000
4994		2734.375000
4995		2812.500000
4996		2734.375000
4997		2734.375000
4998		2812.500000
4999		2812.500000
5000		2812.500000
5001		2812.500000
5002		2812.500000
5003		2812.500000
5004		2812.500000
5005		2812.500000
5006		2812.500000
5007		2812.500000
5008		2812.500000
5009		2812.500000
5010		2812.500000
5011		2812.500000
5012		2812.500000
5013		2812.500000
5014		2812.500000
5015		2812.500000
5016		2812.500000
5017		2812.500000
5018		2812.500000
5019		2812.500000
5020		2812.500000
5021		2812.500000
5022		2812.500000
5023		2812.500000
5024		2812.500000
5025		2812.500000
5026		2812.500000
5027		2812.500000
5028		2812.500000
5029		2812.500000
5030		2812.500000
5031		2812.500000
5032		2812.500000
5033		2812.500000
5034		2812.500000
5035		2890.625000
5036		2812.500000
5037		2890.625000
5038		2890.625000
5039		2890.625000
5040		2890.625000
5041		2890.625000
5042		2890.625000
5043		2890.625000
5044		2890.625000
5045		2890.625000
5046		2890.625000
5047		2890.625000
5048		2890.625000
5049		2890.625000
5050		2890.625000
5051		2890.625000
5052		2890.625000
5053		2890.625000
5054		2890.625000
5055		2890.625000
5056		2890.625000
5057		2890.625000
5058		2890.625000
5059		2890.625000
5060		2890.625000
5061		2890.625000
5062		2890.625000
5063		2890.625000
5064		2890.625000
5065		2890.625000
5066		2890.625000
5067		2890.625000
5068		2968.750000
5069		2968.750000
5070		2968.750000
5071		2968.750000
5072		2968.750000
5073		2968.750000
5074		2968.750000
5075		2968.750000
5076		2968.750000
5077		2968.750000
5078		2968.750000
5079		2968.750000
5080		2968.750000
5081		2968.750000
5082		2968.750000
5083		2968.750000
5084		2968.750000
5085		2968.750000
5086		2968.750000
5087		2968.750000
5088		2968.750000
5089		2968.750000
5090		2968.750000
5091		2968.750000
5092		2968.750000
5093		3046.875000
5094		2968.750000
5095		3046.875000
5096		3046.875000
5097		3046.875000
5098		3046.875000
5099		2968.750000
5100		3046.875000
5101		3046.875000
5102		3046.875000
5103		3046.875000
5104		3046.875000
5105		3046.875000
5106		3046.875000
5107		3046.875000
5108		3046.875000
5109		3046.875000
5110		3046.875000
5111		3046.875000
5112		3046.875000
5113		3046.875000
5114		3046.875000
5115		3046.875000
5116		3046.875000
5117		3046.875000
5118		3125.000000
5119		3046.875000
5120		3046.875000
5121		3125.000000
5122		3125.000000
5123		3125.000000
5124		3125.000000
5125		3125.000000
5126		3125.000000
5127		3125.000000
5128		3125.000000
5129		3125.000000
5130		3125.000000
5131		3125.000000
5132		3125.000000
5133		3125.000000
5134		3125.000000
5135		3125.000000
5136		3125.000000
5137		3125.000000
5138		3125.000000
5139		3125.000000
5140		3125.000000
5141		3203.125000
5142		3203.125000
5143		3203.125000
5144		3203.125000
5145		3203.125000
5146		3203.125000
5147		3203.125000
5148		3203.125000
5149		3203.125000
5150		3203.125000
5151		3203.125000
5152		3203.125000
5153		3203.125000
5154		3203.125000
5155		3203.125000
5156		3203.125000
5157		3203.125000
5158		3203.125000
5159		3203.125000
5160		3203.125000
5161		3203.125000
5162		3281.250000
5163		3281.250000
5164		3281.250000
5165		3281.250000
5166		3281.250000
5167		3281.250000
5168		3281.250000
5169		3281.250000
5170		3281.250000
5171		3281.250000
5172		3281.250000
5173		3281.250000
5174		3281.250000
5175		3281.250000
5176		3281.250000
5177		3281.250000
5178		3281.250000
5179		3281.250000
5180		3359.375000
5181		3359.375000
5182		3359.375000
5183		3359.375000
5184		3359.375000
5185		3359.375000
5186		3359.375000
5187		3359.375000
5188		3359.375000
5189		3359.375000
5190		3359.375000
5191		3359.375000
5192		3359.375000
5193		3359.375000
5194		3359.375000
5195		3359.375000
5196		3359.375000
5197		3359.375000
5198		3359.375000
5199		3437.500000
5200		3437.500000
5201		3437.500000
5202		3437.500000
5203		3437.500000
5204		3437.500000
5205		3437.500000
5206		3437.500000
5207		3437.500000
5208		3437.500000
5209		3437.500000
5210		3437.500000
5211		3437.500000
5212		3437.500000
5213		3437.500000
5214		3437.500000
5215		3437.500000
5216		3515.625000
5217		3515.625000
5218		3515.625000
5219		3515.625000
5220		3515.625000
5221		3515.625000
5222		3515.625000
5223		3515.625000
5224		3515.625000
5225		3515.625000
5226		3515.625000
5227		3515.625000
5228		3515.625000
5229		3515.625000
5230		3515.625000
5231		3593.750000
5232		3593.750000
5233		3593.750000
5234		3593.750000
5235		3593.750000
5236		3593.750000
5237		3593.750000
5238		3593.750000
5239		3593.750000
5240		3593.750000
5241		3593.750000
5242		3593.750000
5243		3593.750000
5244		3593.750000
5245		3671.875000
5246		3671.875000
5247		3671.875000
5248		3671.875000
5249		3671.875000
5250		3671.875000
5251		3671.875000
5252		3671.875000
5253		3671.875000
5254		3671.875000
5255		3671.875000
5256		3671.875000
5257		3671.875000
5258		3671.875000
5259		3671.875000
5260		3750.000000
5261		3750.000000
5262		3750.000000
5263		3750.000000
5264		3750.000000
5265		3750.000000
5266		3750.000000
5267		3750.000000
5268		3750.000000
5269		3750.000000
5270		3750.000000
5271		3750.000000
5272		3750.000000
5273		3750.000000
5274		3750.000000
5275		3828.125000
5276		3828.125000
5277		3828.125000
5278		3828.125000
5279		3828.125000
5280		3828.125000
5281		3828.125000
5282		3828.125000
5283		3828.125000
5284		3828.125000
5285		3828.125000
5286		3828.125000
5287		3828.125000
5288		3828.125000
5289		3828.125000
5290		3906.250000
5291		3906.250000
5292		3906.250000
5293		3906.250000
5294		3906.250000
5295		3906.250000
5296		3906.250000
5297		3906.250000
5298		3906.250000
5299		3906.250000
5300		3906.250000
5301		3906.250000
5302		3984.375000
5303		3984.375000
5304		3984.375000
5305		3984.375000
5306		3984.375000
5307		3984.375000
5308		3984.375000
5309		3984.375000
5310		3984.375000
5311		3984.375000
5312		3984.375000
5313		3984.375000
5314		3984.375000
5315		4062.500000
5316		3984.375000
5317		4062.500000
5318		4062.500000
5319		4062.500000
5320		4062.500000
5321		4062.500000
5322		4062.500000
5323		4062.500000
5324		4062.500000
5325		4062.500000
5326		4062.500000
5327		4140.625000
5328		4140.625000
5329		4140.625000
5330		4140.625000
5331		4140.625000
5332		4140.625000
5333		4140.625000
5334		4140.625000
5335		4140.625000
5336		4140.625000
5337		4140.625000
5338		4140.625000
5339		4140.625000
5340		4140.625000
5341		4140.625000
5342		4218.750000
5343		4218.750000
5344		4218.750000
5345		4218.750000
5346		4218.750000
5347		4218.750000
5348		4218.750000
5349		4218.750000
5350		4218.750000
5351		4218.750000
5352		4218.750000
5353		4218.750000
5354		4218.750000
5355		4296.875000
5356		4218.750000
5357		4296.875000
5358		4296.875000
5359		4296.875000
5360		4296.875000
5361		4296.875000
5362		4296.875000
5363		4296.875000
5364		4296.875000
5365		4296.875000
5366		4296.875000
5367		4375.000000
5368		4375.000000
5369		4375.000000
5370		4375.000000
5371		4375.000000
5372		4375.000000
5373		4375.000000
5374		4375.000000
5375		4375.000000
5376		4375.000000
5377		4375.000000
5378		4375.000000
5379		4375.000000
5380		4375.000000
5381		4453.125000
5382		4453.125000
5383		4453.125000
5384		4453.125000
5385		4453.125000
5386		4453.125000
5387		4453.125000
5388		4453.125000
5389		4453.125000
5390		4453.125000
5391		4453.125000
5392		4453.125000
5393		4453.125000
5394		4453.125000
5395		4531.250000
5396		4531.250000
5397		4531.250000
5398		4531.250000
5399		4531.250000
5400		4531.250000
5401		4531.250000
5402		4531.250000
5403		4531.250000
5404		4531.250000
5405		4531.250000
5406		4531.250000
5407		4531.250000
5408		4609.375000
5409		4609.375000
5410		4609.375000
5411		4609.375000
5412		4609.375000
5413		4609.375000
5414		4609.375000
5415		4609.375000
5416		4609.375000
5417		4609.375000
5418		4687.500000
5419		4609.375000
5420		4609.375000
5421		4687.500000
5422		4687.500000
5423		4687.500000
5424		4687.500000
5425		4687.500000
5426		4687.500000
5427		4687.500000
5428		4687.500000
5429		4687.500000
5430		4687.500000
5431		4687.500000
5432		4687.500000
5433		4687.500000
5434		4687.500000
5435		4687.500000
5436		4765.625000
5437		4765.625000
5438		4765.625000
5439		4765.625000
5440		4765.625000
5441		4765.625000
5442		4765.625000
5443		4765.625000
5444		4765.625000
5445		4765.625000
5446		4765.625000
5447		4765.625000
5448		4765.625000
5449		4765.625000
5450		4765.625000
5451		4765.625000
5452		4765.625000
5453		4843.750000
5454		4843.750000
5455		4843.750000
5456		4843.750000
5457		4843.750000
5458		4843.750000
5459		4843.750000
5460		4843.750000
5461		4843.750000
5462		4843.750000
5463		4843.750000
5464		4843.750000
5465		4843.750000
5466		4843.750000
5467		4843.750000
5468		4921.875000
5469		4921.875000
5470		4921.875000
5471		4921.875000
5472		4921.875000
5473		4921.875000
5474		4921.875000
5475		4921.875000
5476		4921.875000
5477		4921.875000
5478		4921.875000
5479		4921.875000
5480		4921.875000
5481		4921.875000
5482		4921.875000
5483		4921.875000
5484		5000.000000
5485		5000.000000
5486		5000.000000
5487		5000.000000
5488		5000.000000
5489		5000.000000
5490		5000.000000
5491		5000.000000
5492		5000.000000
5493		5000.000000
5494		5000.000000
5495		5000.000000
5496		5000.000000
5497		5000.000000
5498		5000.000000
5499		5000.000000
5500		5000.000000
5501		5000.000000
5502		5000.000000
5503		5000.000000
5504		5000.000000
5505		5078.125000
5506		5078.125000
5507		5078.125000
5508		5078.125000
5509		5078.125000
5510		5078.125000
5511		5078.125000
5512		5078.125000
5513		5078.125000
5514		5078.125000
5515		5078.125000
5516		5078.125000
5517		5078.125000
5518		5078.125000
5519		5078.125000
5520		5078.125000
5521		5078.125000
5522		5078.125000
5523		5078.125000
5524		5078.125000
5525		5156.250000
5526		5156.250000
5527		5156.250000
5528		5156.250000
5529		5156.250000
5530		5156.250000
5531		5156.250000
5532		5156.250000
5533		5156.250000
5534		5156.250000
5535		5156.250000
5536		5156.250000
5537		5156.250000
5538		5156.250000
5539		5156.250000
5540		5156.250000
5541		5156.250000
5542		5156.250000
5543		5156.250000
5544		5156.250000
5545		5156.250000
5546		5234.375000
5547		5156.250000
5548		5234.375000
5549		5234.375000
5550		5234.375000
5551		5234.375000
5552		5234.375000
5553		5234.375000
5554		5234.375000
5555		5234.375000
5556		5234.375000
5557		5156.250000
5558		5234.375000
5559		5234.375000
5560		5234.375000
5561		5234.375000
5562		5234.375000
5563		5234.375000
5564		5234.375000
5565		5234.375000
5566		5234.375000
5567		5234.375000
5568		5234.375000
5569		5234.375000
5570		5234.375000
5571		5234.375000
5572		5234.375000
5573		5234.375000
5574		5234.375000
5575		5234.375000
5576		5234.375000
5577		5234.375000
5578		5234.375000
5579		5234.375000
5580		5234.375000
5581		5234.375000
5582		5234.375000
5583		5312.500000
5584		5312.500000
5585		5312.500000
5586		5312.500000
5587		5312.500000
5588		5312.500000
5589		5312.500000
5590		5312.500000
5591		5234.375000
5592		5312.500000
5593		5234.375000
5594		5312.500000
5595		5234.375000
5596		5312.500000
5597		5312.500000
5598		5312.500000
5599		5312.500000
5600		5312.500000
5601		5312.500000
5602		5312.500000
5603		5312.500000
5604		5312.500000
5605		5312.500000
5606		5312.500000
5607		5312.500000
5608		5312.500000
5609		5312.500000
5610		5312.500000
5611		5312.500000
5612		5312.500000
5613		5312.500000
5614		5312.500000
5615		5312.500000
5616		5312.500000
5617		5312.500000
5618		5312.500000
5619		5312.500000
5620		5312.500000
5621		5312.500000
5622		5312.500000
5623		5312.500000
5624		5312.500000
5625		5312.500000
5626		5312.500000
5627		5312.500000
5628		5312.500000
5629		5312.500000
5630		5312.500000
5631		5312.500000
5632		5312.500000
5633		5312.500000
5634		5312.500000
5635		5312.500000
5636		5312.500000
5637		5312.500000
5638		5312.500000
5639		5312.500000
5640		5312.500000
5641		5312.500000
5642		5312.500000
5643		5312.500000
5644		5312.500000
5645		5312.500000
5646		5312.500000
5647		5312.500000
5648		5312.500000
5649		5312.500000
5650		5312.500000
5651		5312.500000
5652		5312.500000
5653		5312.500000
5654		5312.500000
5655		5312.500000
5656		5312.500000
5657		5312.500000
5658		5312.500000
5659		5312.500000
5660		5312.500000
5661		5312.500000
5662		5312.500000
5663		5312.500000
5664		5312.500000
5665		5312.500000
5666		5312.500000
5667		5312.500000
5668		5312.500000
5669		5312.500000
5670		5312.500000
5671		5312.500000
5672		5312.500000
5673		5312.500000
5674		5312.500000
5675		5234.375000
5676		5234.375000
5677		5234.375000
5678		5234.375000
5679		5234.375000
5680		5234.375000
5681		5234.375000
5682		5234.375000
5683		5234.375000
5684		5234.375000
5685		5234.375000
5686		5234.375000
5687		5234.375000
5688		5234.375000
5689		5234.375000
5690		5234.375000
5691		5234.375000
5692		5234.375000
5693		5234.375000
5694		5234.375000
5695		5234.375000
5696		5234.375000
5697		5234.375000
5698		5234.375000
5699		5234.375000
5700		5234.375000
5701		5234.375000
5702		5234.375000
5703		5234.375000
5704		5234.375000
5705		5234.375000
5706		5234.375000
5707		5234.375000
5708		5234.375000
5709		5234.375000
5710		5234.375000
5711		5234.375000
5712		5234.375000
5713		5234.375000
5714		5156.250000
5715		5156.250000
5716		5156.250000
5717		5156.250000
5718		5156.250000
5719		5156.250000
5720		5156.250000
5721		5156.250000
5722		5156.250000
5723		5156.250000
5724		5156.250000
5725		5156.250000
5726		5156.250000
5727		5156.250000
5728		5156.250000
5729		5156.250000
5730		5156.250000
5731		5156.250000
5732		5156.250000
5733		5156.250000
5734		5156.250000
5735		5078.125000
5736		5078.125000
5737		5156.250000
5738		5078.125000
5739		5078.125000
5740		5078.125000
5741		5078.125000
5742		5078.125000
5743		5078.125000
5744		5078.125000
5745		5078.125000
5746		5078.125000
5747		5078.125000
5748		5078.125000
5749		5078.125000
5750		5078.125000
5751		5078.125000
5752		5078.125000
5753		5078.125000
5754		5078.125000
5755		5078.125000
5756		5078.125000
5757		5078.125000
5758		5000.000000
5759		5000.000000
5760		5000.000000
5761		5078.125000
5762		5000.000000
5763		5000.000000
5764		5000.000000
5765		5000.000000
5766		5000.000000
5767		5000.000000
5768		5000.000000
5769		5000.000000
5770		5000.000000
5771		5000.000000
5772		5000.000000
5773		5000.000000
5774		5000.000000
5775		5000.000000
5776		4921.875000
5777		4921.875000
5778		4921.875000
5779		4921.875000
5780		4921.875000
5781		4921.875000
5782		4921.875000
5783		4921.875000
5784		4921.875000
5785		4921.875000
5786		4921.875000
5787		4921.875000
5788		4921.875000
5789		4921.875000
5790		4921.875000
5791		4921.875000
5792		4843.750000
5793		4921.875000
5794		4843.750000
5795		4843.750000
5796		4843.750000
5797		4843.750000
5798		4843.750000
5799		4843.750000
5800		4843.750000
5801		4843.750000
5802		4843.750000
5803		4843.750000
5804		4843.750000
5805		4843.750000
5806		4843.750000
5807		4843.750000
5808		4843.750000
5809		4843.750000
5810		4765.625000
5811		4765.625000
5812		4765.625000
5813		4765.625000
5814		4765.625000
5815		4765.625000
5816		4765.625000
5817		4765.625000
5818		4765.625000
5819		4765.625000
5820		4765.625000
5821		4765.625000
5822		4765.625000
5823		4765.625000
5824		4765.625000
5825		4765.625000
5826		4687.500000
5827		4687.500000
5828		4687.500000
5829		4687.500000
5830		4687.500000
5831		4687.500000
5832		4687.500000
5833		4687.500000
5834		4687.500000
5835		4687.500000
5836		4687.500000
5837		4687.500000
5838		4687.500000
5839		4687.500000
5840		4687.500000
5841		4687.500000
5842		4609.375000
5843		4609.375000
5844		4609.375000
5845		4609.375000
5846		4609.375000
5847		4609.375000
5848		4609.375000
5849		4609.375000
5850		4609.375000
5851		4609.375000
5852		4609.375000
5853		4609.375000
5854		4609.375000
5855		4531.250000
5856		4531.250000
5857		4531.250000
5858		4531.250000
5859		4531.250000
5860		4531.250000
5861		4531.250000
5862		4531.250000
5863		4531.250000
5864		4531.250000
5865		4531.250000
5866		4531.250000
5867		4531.250000
5868		4531.250000
5869		4531.250000
5870		4531.250000
5871		4453.125000
5872		4453.125000
5873		4453.125000
5874		4453.125000
5875		4453.125000
5876		4453.125000
5877		4453.125000
5878		4453.125000
5879		4453.125000
5880		4453.125000
5881		4453.125000
5882		4453.125000
5883		4375.000000
5884		4453.125000
5885		4375.000000
5886		4375.000000
5887		4375.000000
5888		4375.000000
5889		4375.000000
5890		4375.000000
5891		4375.000000
5892		4375.000000
5893		4375.000000
5894		4375.000000
5895		4375.000000
5896		4375.000000
5897		4296.875000
5898		4296.875000
5899		4296.875000
5900		4296.875000
5901		4296.875000
5902		4296.875000
5903		4375.000000
5904		4296.875000
5905		4296.875000
5906		4296.875000
5907		4296.875000
5908		4296.875000
5909		4296.875000
5910		4296.875000
5911		4296.875000
5912		4296.875000
5913		4218.750000
5914		4218.750000
5915		4218.750000
5916		4218.750000
5917		4218.750000
5918		4218.750000
5919		4218.750000
5920		4218.750000
5921		4218.750000
5922		4218.750000
5923		4218.750000
5924		4218.750000
5925		4218.750000
5926		4218.750000
5927		4140.625000
5928		4140.625000
5929		4140.625000
5930		4140.625000
5931		4140.625000
5932		4140.625000
5933		4140.625000
5934		4140.625000
5935		4140.625000
5936		4140.625000
5937		4140.625000
5938		4140.625000
5939		4140.625000
5940		4062.500000
5941		4062.500000
5942		4062.500000
5943		4062.500000
5944		4062.500000
5945		4062.500000
5946		4062.500000
5947		4062.500000
5948		4062.500000
5949		4062.500000
5950		4062.500000
5951		4062.500000
5952		4062.500000
5953		3984.375000
5954		3984.375000
5955		3984.375000
5956		3984.375000
5957		3984.375000
5958		3984.375000
5959		3984.375000
5960		3984.375000
5961		3984.375000
5962		3984.375000
5963		3984.375000
5964		3984.375000
5965		3984.375000
5966		3984.375000
5967		3984.375000
5968		3984.375000
5969		3906.250000
5970		3906.250000
5971		3906.250000
5972		3906.250000
5973		3906.250000
5974		3906.250000
5975		3906.250000
5976		3906.250000
5977		3906.250000
5978		3906.250000
5979		3906.250000
5980		3906.250000
5981		3906.250000
5982		3906.250000
5983		3906.250000
5984		3906.250000
5985		3828.125000
5986		3828.125000
5987		3828.125000
5988		3828.125000
5989		3828.125000
5990		3828.125000
5991		3828.125000
5992		3828.125000
5993		3828.125000
5994		3828.125000
5995		3828.125000
5996		3828.125000
5997		3828.125000
5998		3828.125000
5999		3750.000000
6000		3750.000000
6001		3750.000000
6002		3750.000000
6003		3750.000000
6004		3750.000000
6005		3750.000000
6006		3750.000000
6007		3750.000000
6008		3750.000000
6009		3750.000000
6010		3750.000000
6011		3750.000000
6012		3750.000000
6013		3671.875000
6014		3671.875000
6015		3671.875000
6016		3671.875000
6017		3671.875000
6018		3671.875000
6019		3671.875000
6020		3671.875000
6021		3671.875000
6022		3671.875000
6023		3671.875000
6024		3671.875000
6025		3671.875000
6026		3671.875000
6027		3671.875000
6028		3671.875000
6029		3593.750000
6030		3593.750000
6031		3593.750000
6032		3593.750000
6033		3593.750000
6034		3593.750000
6035		3593.750000
6036		3593.750000
6037		3593.750000
6038		3593.750000
6039		3593.750000
6040		3593.750000
6041		3593.750000
6042		3593.750000
6043		3593.750000
6044		3515.625000
6045		3593.750000
6046		3593.750000
6047		3515.625000
6048		3515.625000
6049		3515.625000
6050		3515.625000
6051		3515.625000
6052		3515.625000
6053		3515.625000
6054		3515.625000
6055		3515.625000
6056		3515.625000
6057		3515.625000
6058		3515.625000
6059		3515.625000
6060		3515.625000
6061		3515.625000
6062		3515.625000
6063		3515.625000
6064		3437.500000
6065		3437.500000
6066		3437.500000
6067		3437.500000
6068		3437.500000
6069		3437.500000
6070		3437.500000
6071		3437.500000
6072		3437.500000
6073		3437.500000
6074		3437.500000
6075		3437.500000
6076		3437.500000
6077		3437.500000
6078		3437.500000
6079		3437.500000
6080		3359.375000
6081		3437.500000
6082		3359.375000
6083		3359.375000
6084		3359.375000
6085		3359.375000
6086		3359.375000
6087		3359.375000
6088		3359.375000
6089		3359.375000
6090		3359.375000
6091		3359.375000
6092		3359.375000
6093		3359.375000
6094		3359.375000
6095		3359.375000
6096		3359.375000
6097		3359.375000
6098		3359.375000
6099		3359.375000
6100		3281.250000
6101		3281.250000
6102		3281.250000
6103		3281.250000
6104		3281.250000
6105		3281.250000
6106		3281.250000
6107		3281.250000
6108		3281.250000
6109		3281.250000
6110		3281.250000
6111		3281.250000
6112		3281.250000
6113		3281.250000
6114		3281.250000
6115		3281.250000
6116		3281.250000
6117		3281.250000
6118		3203.125000
6119		3281.250000
6120		3281.250000
6121		3203.125000
6122		3203.125000
6123		3203.125000
6124		3203.125000
6125		3203.125000
6126		3203.125000
6127		3203.125000
6128		3203.125000
6129		3203.125000
6130		3203.125000
6131		3203.125000
6132		3203.125000
6133		3203.125000
6134		3203.125000
6135		3203.125000
6136		3203.125000
6137		3203.125000
6138		3203.125000
6139		3203.125000
6140		3203.125000
6141		3203.125000
6142		3203.125000
6143		3203.125000
6144		3203.125000
6145		3203.125000
6146		3203.125000
6147		3125.000000
6148		3125.000000
6149		3125.000000
6150		3125.000000
6151		3125.000000
6152		3125.000000
6153		3125.000000
6154		3125.000000
6155		3125.000000
6156		3125.000000
6157		3125.000000
6158		3125.000000
6159		3125.000000
6160		3125.000000
6161		3125.000000
6162		3125.000000
6163		3125.000000
6164		3125.000000
6165		3125.000000
6166		3125.000000
6167		3125.000000
6168		3046.875000
6169		3046.875000
6170		3046.875000
6171		3046.875000
6172		3046.875000
6173		3046.875000
6174		3046.875000
6175		3046.875000
6176		3046.875000
6177		3046.875000
6178		3046.875000
6179		3046.875000
6180		3046.875000
6181		3046.875000
6182		3046.875000
6183		3046.875000
6184		3046.875000
6185		3046.875000
6186		3046.875000
6187		3046.875000
6188		3046.875000
6189		3046.875000
6190		2968.750000
6191		3046.875000
6192		3046.875000
6193		3046.875000
6194		2968.750000
6195		2968.750000
6196		2968.750000
6197		2968.750000
6198		2968.750000
6199		2968.750000
6200		2968.750000
6201		2968.750000
6202		2968.750000
6203		2968.750000
6204		2968.750000
6205		2968.750000
6206		2968.750000
6207		2968.750000
6208		2968.750000
6209		2968.750000
6210		2968.750000
6211		2968.750000
6212		2968.750000
6213		2968.750000
6214		2968.750000
6215		2968.750000
6216		2968.750000
6217		2968.750000
6218		2968.750000
6219		2968.750000
6220		2968.750000
6221		2968.750000
6222		2968.750000
6223		2968.750000
6224		2968.750000
6225		2968.750000
6226		2890.625000
6227		2890.625000
6228		2890.625000
6229		2890.625000
6230		2890.625000
6231		2890.625000
6232		2890.625000
6233		2890.625000
6234		2890.625000
6235		2890.625000
6236		2890.625000
6237		2890.625000
6238		2890.625000
6239		2890.625000
6240		2890.625000
6241		2890.625000
6242		2890.625000
6243		2890.625000
6244		2890.625000
6245		2890.625000
6246		2890.625000
6247		2890.625000
6248		2890.625000
6249		2890.625000
6250		2890.625000
6251		2890.625000
6252		2890.625000
6253		2890.625000
6254		2890.625000
6255		2890.625000
6256		2890.625000
6257		2890.625000
6258		2890.625000
6259		2812.500000
6260		2812.500000
6261		2812.500000
6262		2812.500000
6263		2812.500000
6264		2812.500000
6265		2812.500000
6266		2812.500000
6267		2812.500000
6268		2812.500000
6269		2812.500000
6270		2812.500000
6271		2812.500000
6272		2812.500000
6273		2812.500000
6274		2812.500000
6275		2812.500000
6276		2812.500000
6277		2812.500000
6278		2812.500000
6279		2812.500000
6280		2812.500000
6281		2812.500000
6282		2812.500000
6283		2812.500000
6284		2812.500000
6285		2812.500000
6286		2812.500000
6287		2812.500000
6288		2812.500000
6289		2812.500000
6290		2812.500000
6291		2812.500000
6292		2812.500000
6293		2812.500000
6294		2812.500000
6295		2812.500000
6296		2812.500000
6297		2812.500000
6298		2812.500000
6299		2812.500000
6300		2812.500000
6301		2812.500000
6302		2812.500000
6303		2812.500000
6304		2812.500000
6305		2812.500000
6306		2812.500000
6307		2812.500000
6308		2734.375000
6309		2812.500000
6310		2734.375000
6311		2734.375000
6312		2812.500000
6313		2734.375000
6314		2734.375000
6315		2734.375000
6316		2734.375000
6317		2734.375000
6318		2734.375000
6319		2734.375000
6320		2734.375000
6321		2734.375000
6322		2734.375000
6323		2734.375000
6324		2734.375000
6325		2734.375000
6326		2734.375000
6327		2734.375000
6328		2734.375000
6329		2734.375000
6330		2734.375000
6331		2734.375000
6332		2734.375000
6333		2734.375000
6334		2734.375000
6335		2734.375000
6336		2734.375000
6337		2734.375000
6338		2734.375000
6339		2734.375000
6340		2734.375000
6341		2734.375000
6342		2734.375000
6343		2734.375000
6344		2734.375000
6345		2734.375000
6346		2734.375000
6347		2734.375000
6348		2734.375000
6349		2734.375000
6350		2734.375000
6351		2734.375000
6352		2734.375000
6353		2734.375000
6354		2734.375000
6355		2734.375000
6356		2734.375000
6357		2734.375000
6358		2734.375000
6359		2734.375000
6360		2734.375000
6361		2734.375000
6362		2734.375000
6363		2734.375000
6364		2734.375000
6365		2734.375000
6366		2734.375000
6367		2734.375000
6368		2656.250000
6369		2734.375000
6370		2656.250000
6371		2656.250000
6372		2734.375000
6373		2656.250000
6374		2656.250000
6375		2734.375000
6376		2656.250000
6377		2656.250000
6378		2734.375000
6379		2656.250000
6380		2656.250000
6381		2656.250000
6382		2734.375000
6383		2734.375000
6384		2656.250000
6385		2656.250000
6386		2656.250000
6387		2656.250000
6388		2656.250000
6389		2656.250000
6390		2656.250000
6391		2656.250000
6392		2656.250000
6393		2656.250000
6394		2656.250000
6395		2656.250000
6396		2656.250000
6397		2656.250000
6398		2656.250000
6399		2656.250000
6400		2656.250000
6401		2656.250000
6402		2656.250000
6403		2656.250000
6404		2656.250000
6405		2656.250000
6406		2656.250000
6407		2656.250000
6408		2656.250000
6409		2656.250000
6410		2656.250000
6411		2656.250000
6412		2656.250000
6413		2656.250000
6414		2656.250000
6415		2656.250000
6416		2656.250000
6417		2656.250000
6418		2656.250000
6419		2656.250000
6420		2656.250000
6421		2656.250000
6422		2656.250000
6423		2656.250000
6424		2656.250000
6425		2656.250000
6426		2656.250000
6427		2656.250000
6428		2656.250000
6429		2656.250000
6430		2656.250000
6431		2656.250000
6432		2656.250000
6433		2656.250000
6434		2656.250000
6435		2656.250000
6436		2656.250000
6437		2656.250000
6438		2656.250000
6439		2656.250000
6440		2656.250000
6441		2656.250000
6442		2656.250000
6443		2656.250000
6444		2656.250000
6445		2656.250000
6446		2656.250000
6447		2656.250000
6448		2656.250000
6449		2656.250000
6450		2656.250000
6451		2656.250000
6452		2656.250000
6453		2656.250000
6454		2656.250000
6455		2656.250000
6456		2656.250000
6457		2656.250000
6458		2656.250000
6459		2656.250000
6460		2656.250000
6461		2656.250000
6462		2656.250000
6463		2656.250000
6464		2656.250000
6465		2656.250000
6466		2656.250000
6467		2656.250000
6468		2656.250000
6469		2656.250000
6470		2656.250000
6471		2656.250000
6472		2656.250000
6473		2656.250000
6474		2656.250000
6475		2656.250000
6476		2656.250000
6477		2656.250000
6478		2656.250000
6479		2656.250000
6480		2656.250000
6481		2656.250000
6482		2656.250000
6483		2656.250000
6484		2656.250000
6485		2656.250000
6486		2656.250000
6487		2656.250000
6488		2656.250000
6489		2656.250000
6490		2656.250000
6491		2656.250000
6492		2656.250000
6493		2656.250000
6494		2656.250000
6495		2656.250000
6496		2656.250000
6497		2656.250000
6498		2656.250000
6499		2656.250000
6500		2656.250000
6501		2656.250000
6502		2656.250000
6503		2656.250000
6504		2656.250000
6505		2656.250000
6506		2656.250000
6507		2656.250000
6508		2656.250000
6509		2656.250000
6510		2656.250000
6511		2656.250000
6512		2656.250000
6513		2656.250000
6514		2656.250000
6515		2656.250000
6516		2656.250000
6517		2656.250000
6518		2656.250000
6519		2656.250000
6520		2656.250000
6521		2656.250000
6522		2656.250000
6523		2656.250000
6524		2656.250000
6525		2656.250000
6526		2656.250000
6527		2656.250000
6528		2656.250000
6529		2656.250000
6530		2656.250000
6531		2656.250000
6532		2656.250000
6533		2656.250000
6534		2656.250000
6535		2656.250000
6536		2656.250000
6537		2656.250000
6538		2656.250000
6539		2656.250000
6540		2656.250000
6541		2734.375000
6542		2656.250000
6543		2734.375000
6544		2734.375000
6545		2734.375000
6546		2656.250000
6547		2734.375000
6548		2734.375000
6549		2656.250000
6550		2734.375000
6551		2734.375000
6552		2656.250000
6553		2734.375000
6554		2734.375000
6555		2734.375000
6556		2734.375000
6557		2734.375000
6558		2734.375000
6559		2734.375000
6560		2734.375000
6561		2734.375000
6562		2734.375000
6563		2734.375000
6564		2734.375000
6565		2734.375000
6566		2734.375000
6567		2734.375000
6568		2734.375000
6569		2734.375000
6570		2734.375000
6571		2734.375000
6572		2734.375000
6573		2734.375000
6574		2734.375000
6575		2734.375000
6576		2734.375000
6577		2734.375000
6578		2734.375000
6579		2734.375000
6580		2734.375000
6581		2734.375000
6582		2734.375000
6583		2734.375000
6584		2734.375000
6585		2734.375000
6586		2734.375000
6587		2734.375000
6588		2734.375000
6589		2734.375000
6590		2734.375000
6591		2734.375000
6592		2734.375000
6593		2734.375000
6594		2734.375000
6595		2734.375000
6596		2734.375000
6597		2734.375000
6598		2734.375000
6599		2734.375000
6600		2734.375000
6601		2734.375000
6602		2734.375000
6603		2734.375000
6604		2734.375000
6605		2734.375000
6606		2734.375000
6607		2734.375000
6608		2734.375000
6609		2734.375000
6610		2734.375000
6611		2734.375000
6612		2734.375000
6613		2734.375000
6614		2734.375000
6615		2734.375000
6616		2734.375000
6617		2734.375000
6618		2812.500000
6619		2812.500000
6620		2734.375000
6621		2812.500000
6622		2812.500000
6623		2812.500000
6624		2812.500000
6625		2812.500000
6626		2812.500000
6627		2812.500000
6628		2812.500000
6629		2812.500000
6630		2812.500000
6631		2812.500000
6632		2812.500000
6633		2812.500000
6634		2812.500000
6635		2812.500000
6636		2812.500000
6637		2812.500000
6638		2812.500000
6639		2812.500000
6640		2812.500000
6641		2812.500000
6642		2812.500000
6643		2812.500000
6644		2812.500000
6645		2812.500000
6646		2812.500000
6647		2812.500000
6648		2812.500000
6649		2812.500000
6650		2812.500000
6651		2812.500000
6652		2812.500000
6653		2812.500000
6654		2812.500000
6655		2812.500000
6656		2812.500000
6657		2812.500000
6658		2812.500000
6659		2812.500000
6660		2812.500000
6661		2812.500000
6662		2890.625000
6663		2890.625000
6664		2890.625000
6665		2890.625000
6666		2890.625000
6667		2890.625000
6668		2890.625000
6669		2890.625000
6670		2890.625000
6671		2890.625000
6672		2890.625000
6673		2890.625000
6674		2890.625000
6675		2890.625000
6676		2890.625000
6677		2890.625000
6678		2890.625000
6679		2890.625000
6680		2890.625000
6681		2890.625000
6682		2890.625000
6683		2890.625000
6684		2890.625000
6685		2890.625000
6686		2890.625000
6687		2890.625000
6688		2890.625000
6689		2890.625000
6690		2890.625000
6691		2890.625000
6692		2890.625000
6693		2890.625000
6694		2890.625000
6695		2890.625000
6696		2890.625000
6697		2890.625000
6698		2890.625000
6699		2890.625000
6700		2890.625000
6701		2890.625000
6702		2968.750000
6703		2968.750000
6704		2968.750000
6705		2968.750000
6706		2968.750000
6707		2968.750000
6708		2968.750000
6709		2968.750000
6710		2968.750000
6711		2968.750000
6712		2968.750000
6713		2968.750000
6714		2968.750000
6715		2968.750000
6716		2968.750000
6717		2968.750000
6718		2968.750000
6719		2968.750000
6720		2968.750000
6721		2968.750000
6722		2968.750000
6723		2968.750000
6724		2968.750000
6725		2968.750000
6726		2968.750000
6727		2968.750000
6728		2968.750000
6729		3046.875000
6730		2968.750000
6731		2968.750000
6732		3046.875000
6733		3046.875000
6734		3046.875000
6735		3046.875000
6736		3046.875000
6737		3046.875000
6738		3046.875000
6739		3046.875000
6740		3046.875000
6741		3046.875000
6742		3046.875000
6743		3046.875000
6744		3046.875000
6745		3046.875000
6746		3046.875000
6747		3046.875000
6748		3046.875000
6749		3046.875000
6750		3046.875000
6751		3046.875000
6752		3046.875000
6753		3046.875000
6754		3046.875000
6755		3125.000000
6756		3125.000000
6757		3125.000000
6758		3125.000000
6759		3125.000000
6760		3125.000000
6761		3125.000000
6762		3125.000000
6763		3125.000000
6764		3125.000000
6765		3125.000000
6766		3125.000000
6767		3125.000000
6768		3125.000000
6769		3125.000000
6770		3125.000000
6771		3125.000000
6772		3125.000000
6773		3125.000000
6774		3125.000000
6775		3125.000000
6776		3125.000000
6777		3125.000000
6778		3125.000000
6779		3203.125000
6780		3203.125000
6781		3203.125000
6782		3203.125000
6783		3203.125000
6784		3203.125000
6785		3203.125000
6786		3203.125000
6787		3203.125000
6788		3203.125000
6789		3203.125000
6790		3203.125000
6791		3203.125000
6792		3203.125000
6793		3203.125000
6794		3203.125000
6795		3203.125000
6796		3203.125000
6797		3203.125000
6798		3203.125000
6799		3203.125000
6800		3203.125000
6801		3281.250000
6802		3281.250000
6803		3281.250000
6804		3281.250000
6805		3281.250000
6806		3281.250000
6807		3281.250000
6808		3281.250000
6809		3281.250000
6810		3281.250000
6811		3281.250000
6812		3281.250000
6813		3281.250000
6814		3281.250000
6815		3281.250000
6816		3281.250000
6817		3281.250000
6818		3281.250000
6819		3359.375000
6820		3281.250000
6821		3359.375000
6822		3359.375000
6823		3359.375000
6824		3359.375000
6825		3359.375000
6826		3359.375000
6827		3359.375000
6828		3359.375000
6829		3359.375000
6830		3359.375000
6831		3359.375000
6832		3359.375000
6833		3359.375000
6834		3359.375000
6835		3359.375000
6836		3359.375000
6837		3359.375000
6838		3359.375000
6839		3359.375000
6840		3437.500000
6841		3437.500000
6842		3437.500000
6843		3437.500000
6844		3437.500000
6845		3437.500000
6846		3437.500000
6847		3437.500000
6848		3437.500000
6849		3437.500000
6850		3437.500000
6851		3437.500000
6852		3437.500000
6853		3437.500000
6854		3437.500000
6855		3515.625000
6856		3515.625000
6857		3515.625000
6858		3515.625000
6859		3515.625000
6860		3515.625000
6861		3515.625000
6862		3515.625000
6863		3515.625000
6864		3515.625000
6865		3515.625000
6866		3515.625000
6867		3515.625000
6868		3515.625000
6869		3515.625000
6870		3515.625000
6871		3515.625000
6872		3593.750000
6873		3515.625000
6874		3593.750000
6875		3593.750000
6876		3593.750000
6877		3593.750000
6878		3593.750000
6879		3593.750000
6880		3593.750000
6881		3593.750000
6882		3593.750000
6883		3593.750000
6884		3593.750000
6885		3593.750000
6886		3671.875000
6887		3671.875000
6888		3671.875000
6889		3671.875000
6890		3671.875000
6891		3671.875000
6892		3671.875000
6893		3671.875000
6894		3671.875000
6895		3671.875000
6896		3671.875000
6897		3671.875000
6898		3671.875000
6899		3671.875000
6900		3671.875000
6901		3750.000000
6902		3750.000000
6903		3750.000000
6904		3750.000000
6905		3750.000000
6906		3750.000000
6907		3750.000000
6908		3750.000000
6909		3750.000000
6910		3750.000000
6911		3750.000000
6912		3750.000000
6913		3750.000000
6914		3750.000000
6915		3750.000000
6916		3750.000000
6917		3750.000000
6918		3828.125000
6919		3828.125000
6920		3828.125000
6921		3828.125000
6922		3828.125000
6923		3828.125000
6924		3828.125000
6925		3828.125000
6926		3828.125000
6927		3828.125000
6928		3828.125000
6929		3828.125000
6930		3828.125000
6931		3906.250000
6932		3906.250000
6933		3906.250000
6934		3906.250000
6935		3906.250000
6936		3906.250000
6937		3906.250000
6938		3906.250000
6939		3906.250000
6940		3906.250000
6941		3906.250000
6942		3906.250000
6943		3984.375000
6944		3984.375000
6945		3984.375000
6946		3984.375000
6947		3984.375000
6948		3984.375000
6949		3984.375000
6950		3984.375000
6951		3984.375000
6952		3984.375000
6953		3984.375000
6954		3984.375000
6955		3984.375000
6956		3984.375000
6957		4062.500000
6958		4062.500000
6959		4062.500000
6960		4062.500000
6961		4062.500000
6962		4062.500000
6963		4062.500000
6964		4062.500000
6965		4062.500000
6966		4062.500000
6967		4062.500000
6968		4062.500000
6969		4062.500000
6970		4062.500000
6971		4062.500000
6972		4140.625000
6973		4140.625000
6974		4140.625000
6975		4140.625000
6976		4140.625000
6977		4140.625000
6978		4140.625000
6979		4140.625000
6980		4140.625000
6981		4140.625000
6982		4140.625000
6983		4140.625000
6984		4140.625000
6985		4140.625000
6986		4218.750000
6987		4218.750000
6988		4218.750000
6989		4218.750000
6990		4218.750000
6991		4218.750000
6992		4218.750000
6993		4218.750000
6994		4218.750000
6995		4218.750000
6996		4218.750000
6997		4218.750000
6998		4218.750000
6999		4296.875000
7000		4296.875000
7001		4296.875000
7002		4296.875000
7003		4296.875000
7004		4296.875000
7005		4296.875000
7006		4296.875000
7007		4296.875000
7008		4296.875000
7009		4296.875000
7010		4296.875000
7011		4375.000000
7012		4375.000000
7013		4375.000000
7014		4375.000000
7015		4375.000000
7016		4375.000000
7017		4375.000000
7018		4375.000000
7019		4375.000000
7020		4375.000000
7021		4375.000000
7022		4375.000000
7023		4375.000000
7024		4453.125000
7025		4453.125000
7026		4453.125000
7027		4453.125000
7028		4453.125000
7029		4453.125000
7030		4453.125000
7031		4453.125000
7032		4453.125000
7033		4453.125000
7034		4453.125000
7035		4453.125000
7036		4453.125000
7037		4453.125000
7038		4453.125000
7039		4531.250000
7040		4531.250000
7041		4531.250000
7042		4531.250000
7043		4531.250000
7044		4531.250000
7045		4531.250000
7046		4531.250000
7047		4531.250000
7048		4531.250000
7049		4531.250000
7050		4609.375000
7051		4531.250000
7052		4609.375000
7053		4609.375000
7054		4609.375000
7055		4609.375000
7056		4609.375000
7057		4609.375000
7058		4609.375000
7059		4609.375000
7060		4609.375000
7061		4609.375000
7062		4609.375000
7063		4609.375000
7064		4609.375000
7065		4687.500000
7066		4687.500000
7067		4687.500000
7068		4687.500000
7069		4687.500000
7070		4687.500000
7071		4687.500000
7072		4687.500000
7073		4687.500000
7074		4687.500000
7075		4687.500000
7076		4687.500000
7077		4687.500000
7078		4687.500000
7079		4687.500000
7080		4765.625000
7081		4765.625000
7082		4765.625000
7083		4765.625000
7084		4765.625000
7085		4765.625000
7086		4765.625000
7087		4765.625000
7088		4765.625000
7089		4765.625000
7090		4765.625000
7091		4765.625000
7092		4765.625000
7093		4765.625000
7094		4765.625000
7095		4765.625000
7096		4843.750000
7097		4843.750000
7098		4843.750000
7099		4843.750000
7100		4843.750000
7101		4843.750000
7102		4843.750000
7103		4843.750000
7104		4843.750000
7105		4843.750000
7106		4843.750000
7107		4843.750000
7108		4843.750000
7109		4843.750000
7110		4843.750000
7111		4843.750000
7112		4921.875000
7113		4921.875000
7114		4921.875000
7115		4921.875000
7116		4921.875000
7117		4921.875000
7118		4921.875000
7119		4921.875000
7120		4921.875000
7121		4921.875000
7122		4921.875000
7123		4921.875000
7124		4921.875000
7125		4921.875000
7126		4921.875000
7127		4921.875000
7128		4921.875000
7129		5000.000000
7130		5000.000000
7131		5000.000000
7132		5000.000000
7133		5000.000000
7134		5000.000000
7135		5000.000000
7136		5000.000000
7137		5000.000000
7138		5000.000000
7139		5000.000000
7140		5000.000000
7141		5000.000000
7142		5000.000000
7143		5000.000000
7144		5000.000000
7145		5078.125000
7146		5078.125000
7147		5078.125000
7148		5078.125000
7149		5078.125000
7150		5078.125000
7151		5078.125000
7152		5078.125000
7153		5078.125000
7154		5078.125000
7155		5078.125000
7156		5078.125000
7157		5078.125000
7158		5078.125000
7159		5078.125000
7160		5078.125000
7161		5078.125000
7162		5078.125000
7163		5078.125000
7164		5078.125000
7165		5156.250000
7166		5078.125000
7167		5156.250000
7168		5156.250000
7169		5156.250000
7170		5156.250000
7171		5156.250000
7172		5156.250000
7173		5156.250000
7174		5156.250000
7175		5156.250000
7176		5156.250000
7177		5156.250000
7178		5156.250000
7179		5156.250000
7180		5156.250000
7181		5156.250000
7182		5156.250000
7183		5156.250000
7184		5156.250000
7185		5156.250000
7186		5156.250000
7187		5234.375000
7188		5156.250000
7189		5234.375000
7190		5234.375000
7191		5234.375000
7192		5234.375000
7193		5234.375000
7194		5234.375000
7195		5234.375000
7196		5234.375000
7197		5234.375000
7198		5234.375000
7199		5234.375000
7200		5234.375000
7201		5234.375000
7202		5234.375000
7203		5234.375000
7204		5234.375000
7205		5234.375000
7206		5234.375000
7207		5234.375000
7208		5234.375000
7209		5234.375000
7210		5234.375000
7211		5234.375000
7212		5234.375000
7213		5234.375000
7214		5234.375000
7215		5234.375000
7216		5234.375000
7217		5234.375000
7218		5234.375000
7219		5234.375000
7220		5234.375000
7221		5234.375000
7222		5234.375000
7223		5312.500000
7224		5312.500000
7225		5312.500000
7226		5312.500000
7227		5312.500000
7228		5312.500000
7229		5312.500000
7230		5312.500000
7231		5312.500000
7232		5312.500000
7233		5312.500000
7234		5312.500000
7235		5312.500000
7236		5312.500000
7237		5312.500000
7238		5312.500000
7239		5312.500000
7240		5312.500000
7241		5312.500000
7242		5312.500000
7243		5312.500000
7244		5312.500000
7245		5312.500000
7246		5312.500000
7247		5312.500000
7248		5312.500000
7249		5312.500000
7250		5312.500000
7251		5312.500000
7252		5312.500000
7253		5312.500000
7254		5312.500000
7255		5312.500000
7256		5312.500000
7257		5312.500000
7258		5312.500000
7259		5312.500000
7260		5312.500000
7261		5312.500000
7262		5312.500000
7263		5312.500000
7264		5312.500000
7265		5312.500000
7266		5312.500000
7267		5312.500000
7268		5312.500000
7269		5312.500000
7270		5312.500000
7271		5312.500000
7272		5312.500000
7273		5312.500000
7274		5312.500000
7275		5312.500000
7276		5312.500000
7277		5312.500000
7278		5312.500000
7279		5312.500000
7280		5312.500000
7281		5312.500000
7282		5312.500000
7283		5312.500000
7284		5312.500000
7285		5312.500000
7286		5312.500000
7287		5312.500000
7288		5312.500000
7289		5312.500000
7290		5312.500000
7291		5312.500000
7292		5312.500000
7293		5312.500000
7294		5312.500000
7295		5312.500000
7296		5312.500000
7297		5312.500000
7298		5312.500000
7299		5312.500000
7300		5312.500000
7301		5312.500000
7302		5312.500000
7303		5312.500000
7304		5312.500000
7305		5312.500000
7306		5312.500000
7307		5312.500000
7308		5312.500000
7309		5312.500000
7310		5312.500000
7311		5312.500000
7312		5312.500000
7313		5312.500000
7314		5312.500000
7315		5312.500000
7316		5312.500000
7317		5312.500000
7318		5312.500000
7319		5312.500000
7320		5312.500000
7321		5312.500000
7322		5312.500000
7323		5312.500000
7324		5312.500000
7325		5312.500000
7326		5312.500000
7327		5234.375000
7328		5312.500000
7329		5234.375000
7330		5312.500000
7331		5234.375000
7332		5234.375000
7333		5234.375000
7334		5234.375000
7335		5234.375000
7336		5234.375000
7337		5234.375000
7338		5234.375000
7339		5312.500000
7340		5234.375000
7341		5234.375000
7342		5234.375000
7343		5234.375000
7344		5234.375000
7345		5234.375000
7346		5234.375000
7347		5234.375000
7348		5234.375000
7349		5234.375000
7350		5234.375000
7351		5234.375000
7352		5234.375000
7353		5234.375000
7354		5234.375000
7355		5234.375000
7356		5234.375000
7357		5234.375000
7358		5234.375000
7359		5234.375000
7360		5234.375000
7361		5234.375000
7362		5234.375000
7363		5234.375000
7364		5234.375000
7365		5234.375000
7366		5234.375000
7367		5156.250000
7368		5156.250000
7369		5156.250000
7370		5156.250000
7371		5156.250000
7372		5156.250000
7373		5156.250000
7374		5156.250000
7375		5156.250000
7376		5156.250000
7377		5156.250000
7378		5156.250000
7379		5156.250000
7380		5156.250000
7381		5156.250000
7382		5156.250000
7383		5156.250000
7384		5156.250000
7385		5156.250000
7386		5156.250000
7387		5156.250000
7388		5156.250000
7389		5156.250000
7390		5156.250000
7391		5078.125000
7392		5156.250000
7393		5078.125000
7394		5078.125000
7395		5078.125000
7396		5078.125000
7397		5078.125000
7398		5078.125000
7399		5078.125000
7400		5078.125000
7401		5078.125000
7402		5078.125000
7403		5078.125000
7404		5078.125000
7405		5078.125000
7406		5078.125000
7407		5078.125000
7408		5078.125000
7409		5078.125000
7410		5078.125000
7411		5000.000000
7412		5078.125000
7413		5078.125000
7414		5000.000000
7415		5000.000000
7416		5000.000000
7417		5000.000000
7418		5000.000000
7419		5000.000000
7420		5000.000000
7421		5000.000000
7422		5000.000000
7423		5000.000000
7424		5000.000000
7425		5000.000000
7426		5000.000000
7427		5000.000000
7428		5000.000000
7429		5000.000000
7430		5000.000000
7431		5000.000000
7432		4921.875000
7433		4921.875000
7434		4921.875000
7435		4921.875000
7436		4921.875000
7437		4921.875000
7438		4921.875000
7439		4921.875000
7440		4921.875000
7441		4921.875000
7442		4921.875000
7443		4921.875000
7444		4921.875000
7445		4921.875000
7446		4921.875000
7447		4921.875000
7448		4921.875000
7449		4843.750000
7450		4843.750000
7451		4843.750000
7452		4843.750000
7453		4843.750000
7454		4843.750000
7455		4843.750000
7456		4843.750000
7457		4843.750000
7458		4843.750000
7459		4843.750000
7460		4843.750000
7461		4843.750000
7462		4843.750000
7463		4843.750000
7464		4843.750000
7465		4765.625000
7466		4843.750000
7467		4765.625000
7468		4765.625000
7469		4765.625000
7470		4765.625000
7471		4765.625000
7472		4765.625000
7473		4765.625000
7474		4765.625000
7475		4765.625000
7476		4765.625000
7477		4765.625000
7478		4765.625000
7479		4765.625000
7480		4687.500000
7481		4687.500000
7482		4687.500000
7483		4687.500000
7484		4687.500000
7485		4687.500000
7486		4687.500000
7487		4687.500000
7488		4687.500000
7489		4687.500000
7490		4687.500000
7491		4687.500000
7492		4687.500000
7493		4609.375000
7494		4609.375000
7495		4609.375000
7496		4609.375000
7497		4609.375000
7498		4609.375000
7499		4609.375000
7500		4609.375000
7501		4609.375000
7502		4609.375000
7503		4609.375000
7504		4609.375000
7505		4609.375000
7506		4609.375000
7507		4609.375000
7508		4609.375000
7509		4531.250000
7510		4531.250000
7511		4531.250000
7512		4531.250000
7513		4531.250000
7514		4531.250000
7515		4531.250000
7516		4531.250000
7517		4531.250000
7518		4531.250000
7519		4531.250000
7520		4531.250000
7521		4531.250000
7522		4531.250000
7523		4453.125000
7524		4531.250000
7525		4453.125000
7526		4453.125000
7527		4453.125000
7528		4453.125000
7529		4453.125000
7530		4453.125000
7531		4453.125000
7532		4453.125000
7533		4453.125000
7534		4453.125000
7535		4375.000000
7536		4375.000000
7537		4375.000000
7538		4375.000000
7539		4375.000000
7540		4375.000000
7541		4375.000000
7542		4375.000000
7543		4375.000000
7544		4375.000000
7545		4375.000000
7546		4375.000000
7547		4375.000000
7548		4375.000000
7549		4375.000000
7550		4375.000000
7551		4296.875000
7552		4296.875000
7553		4296.875000
7554		4296.875000
7555		4296.875000
7556		4296.875000
7557		4296.875000
7558		4296.875000
7559		4296.875000
7560		4296.875000
7561		4296.875000
7562		4296.875000
7563		4296.875000
7564		4218.750000
7565		4218.750000
7566		4218.750000
7567		4218.750000
7568		4218.750000
7569		4218.750000
7570		4218.750000
7571		4218.750000
7572		4218.750000
7573		4218.750000
7574		4218.750000
7575		4218.750000
7576		4218.750000
7577		4140.625000
7578		4140.625000
7579		4140.625000
7580		4140.625000
7581		4140.625000
7582		4140.625000
7583		4140.625000
7584		4140.625000
7585		4140.625000
7586		4140.625000
7587		4140.625000
7588		4140.625000
7589		4140.625000
7590		4140.625000
7591		4140.625000
7592		4062.500000
7593		4062.500000
7594		4062.500000
7595		4062.500000
7596		4062.500000
7597		4062.500000
7598		4062.500000
7599		4062.500000
7600		4062.500000
7601		4062.500000
7602		4062.500000
7603		4062.500000
7604		4062.500000
7605		4062.500000
7606		3984.375000
7607		3984.375000
7608		3984.375000
7609		3984.375000
7610		3984.375000
7611		3984.375000
7612		3984.375000
7613		3984.375000
7614		3984.375000
7615		3984.375000
7616		3984.375000
7617		3984.375000
7618		3984.375000
7619		3984.375000
7620		3906.250000
7621		3906.250000
7622		3906.250000
7623		3906.250000
7624		3906.250000
7625		3906.250000
7626		3906.250000
7627		3906.250000
7628		3906.250000
7629		3906.250000
7630		3906.250000
7631		3906.250000
7632		3906.250000
7633		3906.250000
7634		3828.125000
7635		3906.250000
7636		3828.125000
7637		3828.125000
7638		3828.125000
7639		3828.125000
7640		3828.125000
7641		3828.125000
7642		3828.125000
7643		3828.125000
7644		3828.125000
7645		3828.125000
7646		3828.125000
7647		3828.125000
7648		3828.125000
7649		3828.125000
7650		3828.125000
7651		3750.000000
7652		3750.000000
7653		3750.000000
7654		3750.000000
7655		3750.000000
7656		3750.000000
7657		3750.000000
7658		3750.000000
7659		3750.000000
7660		3750.000000
7661		3750.000000
7662		3750.000000
7663		3750.000000
7664		3750.000000
7665		3750.000000
7666		3750.000000
7667		3671.875000
7668		3671.875000
7669		3671.875000
7670		3671.875000
7671		3671.875000
7672		3671.875000
7673		3671.875000
7674		3671.875000
7675		3671.875000
7676		3671.875000
7677		3671.875000
7678		3671.875000
7679		3671.875000
7680		3671.875000
7681		3671.875000
7682		3671.875000
7683		3671.875000
7684		3671.875000
7685		3593.750000
7686		3593.750000
7687		3593.750000
7688		3593.750000
7689		3593.750000
7690		3593.750000
7691		3593.750000
7692		3593.750000
7693		3593.750000
7694		3593.750000
7695		3593.750000
7696		3593.750000
7697		3593.750000
7698		3593.750000
7699		3593.750000
7700		3515.625000
7701		3515.625000
7702		3515.625000
7703		3515.625000
7704		3515.625000
7705		3515.625000
7706		3515.625000
7707		3515.625000
7708		3515.625000
7709		3515.625000
7710		3515.625000
7711		3515.625000
7712		3515.625000
7713		3515.625000
7714		3515.625000
7715		3515.625000
7716		3515.625000
7717		3515.625000
7718		3515.625000
7719		3515.625000
7720		3437.500000
7721		3437.500000
7722		3437.500000
7723		3437.500000
7724		3437.500000
7725		3437.500000
7726		3437.500000
7727		3437.500000
7728		3437.500000
7729		3437.500000
7730		3437.500000
7731		3437.500000
7732		3437.500000
7733		3437.500000
7734		3437.500000
7735		3437.500000
7736		3359.375000
7737		3437.500000
7738		3359.375000
7739		3359.375000
7740		3359.375000
7741		3359.375000
7742		3359.375000
7743		3359.375000
7744		3359.375000
7745		3359.375000
7746		3359.375000
7747		3359.375000
7748		3359.375000
7749		3359.375000
7750		3359.375000
7751		3359.375000
7752		3359.375000
7753		3359.375000
7754		3359.375000
7755		3359.375000
7756		3359.375000
7757		3359.375000
7758		3281.250000
7759		3281.250000
7760		3281.250000
7761		3281.250000
7762		3281.250000
7763		3281.250000
7764		3281.250000
7765		3281.250000
7766		3281.250000
7767		3281.250000
7768		3281.250000
7769		3281.250000
7770		3281.250000
7771		3281.250000
7772		3281.250000
7773		3281.250000
7774		3281.250000
7775		3281.250000
7776		3281.250000
7777		3203.125000
7778		3203.125000
7779		3203.125000
7780		3203.125000
7781		3203.125000
7782		3203.125000
7783		3203.125000
7784		3203.125000
7785		3203.125000
7786		3203.125000
7787		3203.125000
7788		3203.125000
7789		3203.125000
7790		3203.125000
7791		3203.125000
7792		3203.125000
7793		3203.125000
7794		3203.125000
7795		3203.125000
7796		3203.125000
7797		3203.125000
7798		3125.000000
7799		3203.125000
7800		3125.000000
7801		3125.000000
7802		3125.000000
7803		3125.000000
7804		3125.000000
7805		3125.000000
7806		3125.000000
7807		3125.000000
7808		3125.000000
7809		3125.000000
7810		3125.000000
7811		3125.000000
7812		3125.000000
7813		3125.000000
7814		3125.000000
7815		3125.000000
7816		3125.000000
7817		3125.000000
7818		3125.000000
7819		3125.000000
7820		3125.000000
7821		3125.000000
7822		3125.000000
7823		3125.000000
7824		3125.000000
7825		3125.000000
7826		3046.875000
7827		3046.875000
7828		3046.875000
7829		3046.875000
7830		3046.875000
7831		3046.875000
7832		3046.875000
7833		3046.875000
7834		3046.875000
7835		3046.875000
7836		3046.875000
7837		3046.875000
7838		3046.875000
7839		3046.875000
7840		3046.875000
7841		3046.875000
7842		3046.875000
7843		3046.875000
7844		3046.875000
7845		3046.875000
7846		3046.875000
7847		3046.875000
7848		3046.875000
7849		3046.875000
7850		3046.875000
7851		2968.750000
7852		2968.750000
7853		2968.750000
7854		2968.750000
7855		2968.750000
7856		2968.750000
7857		2968.750000
7858		2968.750000
7859		2968.750000
7860		2968.750000
7861		2968.750000
7862		2968.750000
7863		2968.750000
7864		2968.750000
7865		2968.750000
7866		2968.750000
7867		2968.750000
7868		2968.750000
7869		2968.750000
7870		2968.750000
7871		2968.750000
7872		2968.750000
7873		2968.750000
7874		2968.750000
7875		2968.750000
7876		2968.750000
7877		2968.750000
7878		2968.750000
7879		2968.750000
7880		2968.750000
7881		2968.750000
7882		2968.750000
7883		2968.750000
7884		2968.750000
7885		2968.750000
7886		2968.750000
7887		2890.625000
7888		2968.750000
7889		2890.625000
7890		2890.625000
7891		2890.625000
7892		2890.625000
7893		2890.625000
7894		2890.625000
7895		2890.625000
7896		2890.625000
7897		2890.625000
7898		2890.625000
7899		2890.625000
7900		2890.625000
7901		2890.625000
7902		2890.625000
7903		2890.625000
7904		2890.625000
7905		2890.625000
7906		2890.625000
7907		2890.625000
7908		2890.625000
7909		2890.625000
7910		2890.625000
7911		2890.625000
7912		2890.625000
7913		2890.625000
7914		2890.625000
7915		2890.625000
7916		2890.625000
7917		2890.625000
7918		2890.625000
7919		2890.625000
7920		2890.625000
7921		2890.625000
7922		2812.500000
7923		2890.625000
7924		2890.625000
7925		2812.500000
7926		2812.500000
7927		2812.500000
7928		2812.500000
7929		2812.500000
7930		2812.500000
7931		2812.500000
7932		2812.500000
7933		2812.500000
7934		2812.500000
7935		2812.500000
7936		2812.500000
7937		2812.500000
7938		2812.500000
7939		2812.500000
7940		2812.500000
7941		2812.500000
7942		2812.500000
7943		2812.500000
7944		2812.500000
7945		2812.500000
7946		2812.500000
7947		2812.500000
7948		2812.500000
7949		2812.500000
7950		2812.500000
7951		2812.500000
7952		2812.500000
7953		2812.500000
7954		2812.500000
7955		2812.500000
7956		2812.500000
7957		2812.500000
7958		2812.500000
7959		2812.500000
7960		2812.500000
7961		2812.500000
7962		2812.500000
7963		2812.500000
7964		2812.500000
7965		2812.500000
7966		2812.500000
7967		2812.500000
7968		2812.500000
7969		2812.500000
7970		2812.500000
7971		2812.500000
7972		2734.375000
7973		2734.375000
7974		2734.375000
7975		2734.375000
7976		2734.375000
7977		2734.375000
7978		2734.375000
7979		2734.375000
7980		2734.375000
7981		2734.375000
7982		2734.375000
7983		2734.375000
7984		2734.375000
7985		2734.375000
7986		2734.375000
7987		2734.375000
7988		2734.375000
7989		2734.375000
7990		2734.375000
7991		2734.375000
7992		2734.375000
7993		2734.375000
7994		2734.375000
7995		2734.375000
7996		2734.375000
7997		2734.375000
7998		2734.375000
7999		2734.375000
8000		2734.375000
8001		2734.375000
8002		2734.375000
8003		2734.375000
8004		2734.375000
8005		2734.375000
8006		2734.375000
8007		2734.375000
8008		2734.375000
8009		2734.375000
8010		2734.375000
8011		2734.375000
8012		2734.375000
8013		2734.375000
8014		2734.375000
8015		2734.375000
8016		2734.375000
8017		2734.375000
8018		2734.375000
8019		2734.375000
8020		2734.375000
8021		2734.375000
8022		2734.375000
8023		2734.375000
8024		2734.375000
8025		2734.375000
8026		2734.375000
8027		2734.375000
8028		2734.375000
8029		2734.375000
8030		2734.375000
8031		2734.375000
8032		2734.375000
8033		2734.375000
8034		2734.375000
8035		2734.375000
8036		2734.375000
8037		2734.375000
8038		2656.250000
8039		2734.375000
8040		2734.375000
8041		2734.375000
8042		2734.375000
8043		2734.375000
8044		2734.375000
8045		2734.375000
8046		2734.375000
8047		2734.375000
8048		2734.375000
8049		2734.375000
8050		2734.375000
8051		2734.375000
8052		2656.250000
8053		2656.250000
8054		2734.375000
8055		2734.375000
8056		2734.375000
8057		2734.375000
8058		2734.375000
8059		2656.250000
8060		2734.375000
8061		2734.375000
8062		2734.375000
8063		2734.375000
8064		2734.375000
8065		2734.375000
8066		2734.375000
8067		2734.375000
8068		2656.250000
8069		2656.250000
8070		2656.250000
8071		2656.250000
8072		2656.250000
8073		2656.250000
8074		2656.250000
8075		2656.250000
8076		2656.250000
8077		2656.250000
8078		2656.250000
8079		2734.375000
8080		2656.250000
8081		2734.375000
8082		2734.375000
8083		2656.250000
8084		2656.250000
8085		2656.250000
8086		2656.250000
8087		2656.250000
8088		2734.375000
8089		2656.250000
8090		2656.250000
8091		2656.250000
8092		2656.250000
8093		2656.250000
8094		2656.250000
8095		2656.250000
8096		2656.250000
8097		2656.250000
8098		2656.250000
8099		2656.250000
8100		2656.250000
8101		2656.250000
8102		2656.250000
8103		2656.250000
8104		2656.250000
8105		2656.250000
8106		2656.250000
8107		2656.250000
8108		2656.250000
8109		2656.250000
8110		2656.250000
8111		2656.250000
8112		2656.250000
8113		2656.250000
8114		2656.250000
8115		2656.250000
8116		2656.250000
8117		2734.375000
8118		2656.250000
8119		2656.250000
8120		2656.250000
8121		2656.250000
8122		2656.250000
8123		2656.250000
8124		2656.250000
8125		2656.250000
8126		2656.250000
8127		2656.250000
8128		2656.250000
8129		2656.250000
8130		2656.250000
8131		2734.375000
8132		2656.250000
8133		2734.375000
8134		2656.250000
8135		2734.375000
8136		2656.250000
8137		2656.250000
8138		2734.375000
8139		2734.375000
8140		2656.250000
8141		2656.250000
8142		2734.375000
8143		2656.250000
8144		2734.375000
8145		2734.375000
8146		2656.250000
8147		2734.375000
8148		2734.375000
8149		2734.375000
8150		2656.250000
8151		2734.375000
8152		2734.375000
8153		2656.250000
8154		2656.250000
8155		2734.375000
8156		2734.375000
8157		2734.375000
8158		2656.250000
8159		2656.250000
8160		2734.375000
8161		2734.375000
8162		2734.375000
8163		2734.375000
8164		2734.375000
8165		2734.375000
8166		2734.375000
8167		2734.375000
8168		2734.375000
8169		2734.375000
8170		2734.375000
8171		2734.375000
8172		2734.375000
8173		2734.375000
8174		2734.375000
8175		2734.375000
8176		2734.375000
8177		2734.375000
8178		2734.375000
8179		2734.375000
8180		2734.375000
8181		2734.375000
8182		2734.375000
8183		2734.375000
8184		2734.375000
8185		2734.375000
8186		2734.375000
8187		2734.375000
8188		2734.375000
8189		2734.375000
8190		2734.375000
8191		2734.375000
8192		2734.375000
8193		2734.375000
8194		2734.375000
8195		2734.375000
8196		2734.375000
8197		2734.375000
8198		2734.375000
8199		2734.375000
8200		2734.375000
8201		2734.375000
8202		2734.375000
8203		2734.375000
8204		2734.375000
8205		2734.375000
8206		2734.375000
8207		2734.375000
8208		2734.375000
8209		2734.375000
8210		2734.375000
8211		2734.375000
8212		2734.375000
8213		2734.375000
8214		2734.375000
8215		2734.375000
8216		2734.375000
8217		2734.375000
8218		2734.375000
8219		2734.375000
8220		2734.375000
8221		2734.375000
8222		2734.375000
8223		2734.375000
8224		2734.375000
8225		2734.375000
8226		2734.375000
8227		2734.375000
8228		2734.375000
8229		2734.375000
8230		2734.375000
8231		2734.375000
8232		2734.375000
8233		2734.375000
8234		2734.375000
8235		2734.375000
8236		2734.375000
8237		2734.375000
8238		2734.375000
8239		2812.500000
8240		2812.500000
8241		2812.500000
8242		2812.500000
8243		2812.500000
8244		2812.500000
8245		2812.500000
8246		2812.500000
8247		2812.500000
8248		2812.500000
8249		2812.500000
8250		2812.500000
8251		2812.500000
8252		2812.500000
8253		2812.500000
8254		2812.500000
8255		2812.500000
8256		2812.500000
8257		2812.500000
8258		2812.500000
8259		2812.500000
8260		2812.500000
8261		2812.500000
8262		2812.500000
8263		2812.500000
8264		2812.500000
8265		2812.500000
8266		2812.500000
8267		2812.500000
8268		2812.500000
8269		2812.500000
8270		2812.500000
8271		2812.500000
8272		2812.500000
8273		2812.500000
8274		2812.500000
8275		2812.500000
8276		2812.500000
8277		2812.500000
8278		2812.500000
8279		2812.500000
8280		2812.500000
8281		2812.500000
8282		2812.500000
8283		2812.500000
8284		2812.500000
8285		2812.500000
8286		2812.500000
8287		2812.500000
8288		2812.500000
8289		2812.500000
8290		2812.500000
8291		2812.500000
8292		2812.500000
8293		2812.500000
8294		2812.500000
8295		2812.500000
8296		2890.625000
8297		2890.625000
8298		2890.625000
8299		2890.625000
8300		2890.625000
8301		2890.625000
8302		2890.625000
8303		2890.625000
8304		2890.625000
8305		2890.625000
8306		2890.625000
8307		2890.625000
8308		2890.625000
8309		2890.625000
8310		2890.625000
8311		2890.625000
8312		2890.625000
8313		2890.625000
8314		2890.625000
8315		2890.625000
8316		2890.625000
8317		2890.625000
8318		2890.625000
8319		2890.625000
8320		2890.625000
8321		2890.625000
8322		2890.625000
8323		2890.625000
8324		2890.625000
8325		2890.625000
8326		2890.625000
8327		2890.625000
8328		2890.625000
8329		2890.625000
8330		2890.625000
8331		2968.750000
8332		2968.750000
8333		2968.750000
8334		2968.750000
8335		2968.750000
8336		2968.750000
8337		2968.750000
8338		2968.750000
8339		2968.750000
8340		2968.750000
8341		2968.750000
8342		2968.750000
8343		2968.750000
8344		2968.750000
8345		2968.750000
8346		2968.750000
8347		2968.750000
8348		2968.750000
8349		2968.750000
8350		2968.750000
8351		2968.750000
8352		2968.750000
8353		2968.750000
8354		2968.750000
8355		2968.750000
8356		2968.750000
8357		2968.750000
8358		2968.750000
8359		2968.750000
8360		2968.750000
8361		2968.750000
8362		2968.750000
8363		2968.750000
8364		2968.750000
8365		3046.875000
8366		3046.875000
8367		3046.875000
8368		3046.875000
8369		3046.875000
8370		3046.875000
8371		3046.875000
8372		3046.875000
8373		3046.875000
8374		3046.875000
8375		3046.875000
8376		3046.875000
8377		3046.875000
8378		3046.875000
8379		3046.875000
8380		3046.875000
8381		3046.875000
8382		3046.875000
8383		3046.875000
8384		3046.875000
8385		3046.875000
8386		3046.875000
8387		3046.875000
8388		3046.875000
8389		3046.875000
8390		3046.875000
8391		3046.875000
8392		3046.875000
8393		3046.875000
8394		3046.875000
8395		3046.875000
8396		3125.000000
8397		3125.000000
8398		3125.000000
8399		3125.000000
8400		3125.000000
8401		3125.000000
8402		3125.000000
8403		3125.000000
8404		3125.000000
8405		3125.000000
8406		3125.000000
8407		3125.000000
8408		3125.000000
8409		3125.000000
8410		3125.000000
8411		3125.000000
8412		3125.000000
8413		3125.000000
8414		3125.000000
8415		3125.000000
8416		3125.000000
8417		3125.000000
8418		3125.000000
8419		3203.125000
8420		3203.125000
8421		3203.125000
8422		3203.125000
8423		3203.125000
8424		3203.125000
8425		3203.125000
8426		3203.125000
8427		3203.125000
8428		3203.125000
8429		3203.125000
8430		3203.125000
8431		3203.125000
8432		3203.125000
8433		3203.125000
8434		3203.125000
8435		3203.125000
8436		3203.125000
8437		3203.125000
8438		3203.125000
8439		3203.125000
8440		3281.250000
8441		3281.250000
8442		3281.250000
8443		3281.250000
8444		3281.250000
8445		3281.250000
8446		3281.250000
8447		3281.250000
8448		3281.250000
8449		3281.250000
8450		3281.250000
8451		3281.250000
8452		3281.250000
8453		3281.250000
8454		3281.250000
8455		3281.250000
8456		3281.250000
8457		3281.250000
8458		3281.250000
8459		3281.250000
8460		3359.375000
8461		3359.375000
8462		3359.375000
8463		3359.375000
8464		3359.375000
8465		3359.375000
8466		3359.375000
8467		3359.375000
8468		3359.375000
8469		3359.375000
8470		3359.375000
8471		3359.375000
8472		3359.375000
8473		3359.375000
8474		3359.375000
8475		3359.375000
8476		3359.375000
8477		3359.375000
8478		3359.375000
8479		3437.500000
8480		3437.500000
8481		3437.500000
8482		3437.500000
8483		3437.500000
8484		3437.500000
8485		3437.500000
8486		3437.500000
8487		3437.500000
8488		3437.500000
8489		3437.500000
8490		3437.500000
8491		3437.500000
8492		3437.500000
8493		3437.500000
8494		3437.500000
8495		3437.500000
8496		3437.500000
8497		3515.625000
8498		3515.625000
8499		3515.625000
8500		3515.625000
8501		3515.625000
8502		3515.625000
8503		3515.625000
8504		3515.625000
8505		3515.625000
8506		3515.625000
8507		3515.625000
8508		3515.625000
8509		3515.625000
8510		3515.625000
8511		3515.625000
8512		3515.625000
8513		3515.625000
8514		3593.750000
8515		3593.750000
8516		3593.750000
8517		3593.750000
8518		3593.750000
8519		3593.750000
8520		3593.750000
8521		3593.750000
8522		3593.750000
8523		3593.750000
8524		3593.750000
8525		3593.750000
8526		3593.750000
8527		3593.750000
8528		3593.750000
8529		3671.875000
8530		3671.875000
8531		3671.875000
8532		3671.875000
8533		3671.875000
8534		3671.875000
8535		3671.875000
8536		3671.875000
8537		3671.875000
8538		3671.875000
8539		3671.875000
8540		3671.875000
8541		3671.875000
8542		3671.875000
8543		3671.875000
8544		3750.000000
8545		3750.000000
8546		3750.000000
8547		3750.000000
8548		3750.000000
8549		3750.000000
8550		3750.000000
8551		3750.000000
8552		3750.000000
8553		3750.000000
8554		3750.000000
8555		3750.000000
8556		3750.000000
8557		3750.000000
8558		3750.000000
8559		3750.000000
8560		3828.125000
8561		3828.125000
8562		3828.125000
8563		3828.125000
8564		3828.125000
8565		3828.125000
8566		3828.125000
8567		3828.125000
8568		3828.125000
8569		3828.125000
8570		3828.125000
8571		3828.125000
8572		3828.125000
8573		3828.125000
8574		3828.125000
8575		3828.125000
8576		3906.250000
8577		3906.250000
8578		3906.250000
8579		3906.250000
8580		3906.250000
8581		3906.250000
8582		3906.250000
8583		3906.250000
8584		3906.250000
8585		3906.250000
8586		3906.250000
8587		3984.375000
8588		3984.375000
8589		3984.375000
8590		3906.250000
8591		3984.375000
8592		3984.375000
8593		3984.375000
8594		3984.375000
8595		3984.375000
8596		3984.375000
8597		3984.375000
8598		3984.375000
8599		3984.375000
8600		3984.375000
8601		4062.500000
8602		4062.500000
8603		4062.500000
8604		4062.500000
8605		4062.500000
8606		4062.500000
8607		4062.500000
8608		4062.500000
8609		4062.500000
8610		4062.500000
8611		4062.500000
8612		4062.500000
8613		4062.500000
8614		4062.500000
8615		4062.500000
8616		4140.625000
8617		4140.625000
8618		4140.625000
8619		4140.625000
8620		4140.625000
8621		4140.625000
8622		4140.625000
8623		4140.625000
8624		4140.625000
8625		4140.625000
8626		4140.625000
8627		4140.625000
8628		4140.625000
8629		4218.750000
8630		4218.750000
8631		4218.750000
8632		4218.750000
8633		4218.750000
8634		4218.750000
8635		4218.750000
8636		4218.750000
8637		4218.750000
8638		4218.750000
8639		4218.750000
8640		4218.750000
8641		4296.875000
8642		4296.875000
8643		4296.875000
8644		4296.875000
8645		4296.875000
8646		4296.875000
8647		4296.875000
8648		4296.875000
8649		4296.875000
8650		4296.875000
8651		4296.875000
8652		4296.875000
8653		4296.875000
8654		4296.875000
8655		4296.875000
8656		4375.000000
8657		4375.000000
8658		4375.000000
8659		4375.000000
8660		4375.000000
8661		4375.000000
8662		4375.000000
8663		4375.000000
8664		4375.000000
8665		4375.000000
8666		4375.000000
8667		4375.000000
8668		4375.000000
8669		4375.000000
8670		4453.125000
8671		4453.125000
8672		4453.125000
8673		4453.125000
8674		4453.125000
8675		4453.125000
8676		4453.125000
8677		4453.125000
8678		4453.125000
8679		4453.125000
8680		4453.125000
8681		4453.125000
8682		4453.125000
8683		4531.250000
8684		4531.250000
8685		4531.250000
8686		4531.250000
8687		4531.250000
8688		4531.250000
8689		4531.250000
8690		4531.250000
8691		4531.250000
8692		4531.250000
8693		4531.250000
8694		4531.250000
8695		4531.250000
8696		4609.375000
8697		4609.375000
8698		4609.375000
8699		4609.375000
8700		4609.375000
8701		4609.375000
8702		4609.375000
8703		4609.375000
8704		4609.375000
8705		4609.375000
8706		4609.375000
8707		4609.375000
8708		4609.375000
8709		4687.500000
8710		4687.500000
8711		4687.500000
8712		4687.500000
8713		4687.500000
8714		4687.500000
8715		4687.500000
8716		4687.500000
8717		4687.500000
8718		4687.500000
8719		4687.500000
8720		4687.500000
8721		4687.500000
8722		4687.500000
8723		4687.500000
8724		4765.625000
8725		4765.625000
8726		4765.625000
8727		4765.625000
8728		4765.625000
8729		4765.625000
8730		4765.625000
8731		4765.625000
8732		4765.625000
8733		4765.625000
8734		4765.625000
8735		4765.625000
8736		4765.625000
8737		4765.625000
8738		4765.625000
8739		4843.750000
8740		4843.750000
8741		4843.750000
8742		4843.750000
8743		4843.750000
8744		4843.750000
8745		4843.750000
8746		4843.750000
8747		4843.750000
8748		4843.750000
8749		4843.750000
8750		4843.750000
8751		4843.750000
8752		4843.750000
8753		4843.750000
8754		4843.750000
8755		4843.750000
8756		4921.875000
8757		4921.875000
8758		4921.875000
8759		4921.875000
8760		4921.875000
8761		4921.875000
8762		4921.875000
8763		4921.875000
8764		4921.875000
8765		4921.875000
8766		4921.875000
8767		4921.875000
8768		4921.875000
8769		4921.875000
8770		4921.875000
8771		5000.000000
8772		5000.000000
8773		5000.000000
8774		5000.000000
8775		5000.000000
8776		5000.000000
8777		5000.000000
8778		5000.000000
8779		5000.000000
8780		5000.000000
8781		5000.000000
8782		5000.000000
8783		5000.000000
8784		5000.000000
8785		5000.000000
8786		5078.125000
8787		5000.000000
8788		5000.000000
8789		5078.125000
8790		5078.125000
8791		5078.125000
8792		5078.125000
8793		5078.125000
8794		5078.125000
8795		5078.125000
8796		5078.125000
8797		5078.125000
8798		5078.125000
8799		5078.125000
8800		5078.125000
8801		5078.125000
8802		5078.125000
8803		5078.125000
8804		5078.125000
8805		5078.125000
8806		5156.250000
8807		5156.250000
8808		5078.125000
8809		5078.125000
8810		5078.125000
8811		5156.250000
8812		5078.125000
8813		5156.250000
8814		5156.250000
8815		5156.250000
8816		5156.250000
8817		5156.250000
8818		5156.250000
8819		5156.250000
8820		5156.250000
8821		5156.250000
8822		5156.250000
8823		5156.250000
8824		5156.250000
8825		5156.250000
8826		5156.250000
8827		5156.250000
8828		5156.250000
8829		5156.250000
8830		5156.250000
8831		5156.250000
8832		5156.250000
8833		5156.250000
8834		5234.375000
8835		5234.375000
8836		5234.375000
8837		5234.375000
8838		5234.375000
8839		5234.375000
8840		5234.375000
8841		5234.375000
8842		5234.375000
8843		5234.375000
8844		5234.375000
8845		5234.375000
8846		5234.375000
8847		5234.375000
8848		5234.375000
8849		5234.375000
8850		5234.375000
8851		5234.375000
8852		5234.375000
8853		5234.375000
8854		5234.375000
8855		5234.375000
8856		5234.375000
8857		5234.375000
8858		5234.375000
8859		5312.500000
8860		5312.500000
8861		5312.500000
8862		5312.500000
8863		5312.500000
8864		5234.375000
8865		5312.500000
8866		5312.500000
8867		5312.500000
8868		5312.500000
8869		5312.500000
8870		5312.500000
8871		5312.500000
8872		5312.500000
8873		5312.500000
8874		5312.500000
8875		5312.500000
8876		5312.500000
8877		5312.500000
8878		5312.500000
8879		5312.500000
8880		5312.500000
8881		5312.500000
8882		5312.500000
8883		5312.500000
8884		5312.500000
8885		5312.500000
8886		5312.500000
8887		5312.500000
8888		5312.500000
8889		5312.500000
8890		5312.500000
8891		5312.500000
8892		5312.500000
8893		5312.500000
8894		5312.500000
8895		5312.500000
8896		5312.500000
8897		5312.500000
8898		5312.500000
8899		5312.500000
8900		5312.500000
8901		5312.500000
8902		5312.500000
8903		5312.500000
8904		5312.500000
8905		5312.500000
8906		5312.500000
8907		5390.625000
8908		5312.500000
8909		5312.500000
8910		5312.500000
8911		5312.500000
8912		5312.500000
8913		5312.500000
8914		5312.500000
8915		5312.500000
8916		5312.500000
8917		5312.500000
8918		5312.500000
8919		5312.500000
8920		5312.500000
8921		5312.500000
8922		5312.500000
8923		5312.500000
8924		5390.625000
8925		5390.625000
8926		5312.500000
8927		5312.500000
8928		5390.625000
8929		5312.500000
8930		5312.500000
8931		5390.625000
8932		5312.500000
8933		5312.500000
8934		5312.500000
8935		5312.500000
8936		5312.500000
8937		5390.625000
8938		5312.500000
8939		5312.500000
8940		5390.625000
8941		5312.500000
8942		5312.500000
8943		5390.625000
8944		5390.625000
8945		5390.625000
8946		5390.625000
8947		5312.500000
8948		5312.500000
8949		5312.500000
8950		5312.500000
8951		5312.500000
8952		5312.500000
8953		5312.500000
8954		5312.500000
8955		5312.500000
8956		5312.500000
8957		5312.500000
8958		5312.500000
8959		5312.500000
8960		5312.500000
8961		5312.500000
8962		5312.500000
8963		5312.500000
8964		5312.500000
8965		5312.500000
8966		5312.500000
8967		5312.500000
8968		5312.500000
8969		5312.500000
8970		5312.500000
8971		5312.500000
8972		5312.500000
8973		5312.500000
8974		5312.500000
8975		5312.500000
8976		5312.500000
8977		5312.500000
8978		5312.500000
8979		5312.500000
8980		5312.500000
8981		5312.500000
8982		5312.500000
8983		5312.500000
8984		5312.500000
8985		5312.500000
8986		5312.500000
8987		5312.500000
8988		5312.500000
8989		5312.500000
8990		5234.375000
8991		5234.375000
8992		5234.375000
8993		5234.375000
8994		5234.375000
8995		5234.375000
8996		5234.375000
8997		5234.375000
8998		5234.375000
8999		5234.375000
9000		5234.375000
9001		5234.375000
9002		5234.375000
9003		5234.375000
9004		5234.375000
9005		5234.375000
9006		5234.375000
9007		5234.375000
9008		5234.375000
9009		5234.375000
9010		5234.375000
9011		5234.375000
9012		5234.375000
9013		5234.375000
9014		5234.375000
9015		5234.375000
9016		5234.375000
9017		5234.375000
9018		5234.375000
9019		5234.375000
9020		5234.375000
9021		5234.375000
9022		5156.250000
9023		5156.250000
9024		5156.250000
9025		5156.250000
9026		5156.250000
9027		5156.250000
9028		5156.250000
9029		5156.250000
9030		5156.250000
9031		5156.250000
9032		5156.250000
9033		5156.250000
9034		5156.250000
9035		5156.250000
9036		5156.250000
9037		5156.250000
9038		5156.250000
9039		5156.250000
9040		5156.250000
9041		5156.250000
9042		5156.250000
9043		5156.250000
9044		5156.250000
9045		5078.125000
9046		5078.125000
9047		5078.125000
9048		5078.125000
9049		5078.125000
9050		5078.125000
9051		5078.125000
9052		5078.125000
9053		5078.125000
9054		5078.125000
9055		5078.125000
9056		5078.125000
9057		5078.125000
9058		5078.125000
9059		5078.125000
9060		5078.125000
9061		5078.125000
9062		5078.125000
9063		5078.125000
9064		5000.000000
9065		5078.125000
9066		5000.000000
9067		5000.000000
9068		5000.000000
9069		5000.000000
9070		5000.000000
9071		5000.000000
9072		5000.000000
9073		5000.000000
9074		5000.000000
9075		5000.000000
9076		5000.000000
9077		5000.000000
9078		5000.000000
9079		5000.000000
9080		5000.000000
9081		5000.000000
9082		5000.000000
9083		4921.875000
9084		4921.875000
9085		4921.875000
9086		4921.875000
9087		4921.875000
9088		4921.875000
9089		4921.875000
9090		4921.875000
9091		4921.875000
9092		4921.875000
9093		4921.875000
9094		4921.875000
9095		4921.875000
9096		4921.875000
9097		4921.875000
9098		4843.750000
9099		4921.875000
9100		4921.875000
9101		4843.750000
9102		4843.750000
9103		4843.750000
9104		4843.750000
9105		4843.750000
9106		4843.750000
9107		4843.750000
9108		4843.750000
9109		4843.750000
9110		4843.750000
9111		4843.750000
9112		4843.750000
9113		4843.750000
9114		4843.750000
9115		4765.625000
9116		4765.625000
9117		4765.625000
9118		4765.625000
9119		4765.625000
9120		4765.625000
9121		4765.625000
9122		4765.625000
9123		4765.625000
9124		4765.625000
9125		4765.625000
9126		4765.625000
9127		4765.625000
9128		4765.625000
9129		4765.625000
9130		4765.625000
9131		4687.500000
9132		4687.500000
9133		4687.500000
9134		4687.500000
9135		4687.500000
9136		4687.500000
9137		4687.500000
9138		4687.500000
9139		4687.500000
9140		4687.500000
9141		4687.500000
9142		4687.500000
9143		4687.500000
9144		4687.500000
9145		4687.500000
9146		4609.375000
9147		4609.375000
9148		4609.375000
9149		4609.375000
9150		4609.375000
9151		4609.375000
9152		4609.375000
9153		4609.375000
9154		4609.375000
9155		4609.375000
9156		4609.375000
9157		4609.375000
9158		4531.250000
9159		4531.250000
9160		4609.375000
9161		4531.250000
9162		4531.250000
9163		4531.250000
9164		4531.250000
9165		4531.250000
9166		4531.250000
9167		4531.250000
9168		4531.250000
9169		4531.250000
9170		4531.250000
9171		4531.250000
9172		4453.125000
9173		4453.125000
9174		4453.125000
9175		4453.125000
9176		4453.125000
9177		4453.125000
9178		4453.125000
9179		4453.125000
9180		4453.125000
9181		4453.125000
9182		4453.125000
9183		4453.125000
9184		4453.125000
9185		4453.125000
9186		4453.125000
9187		4453.125000
9188		4375.000000
9189		4375.000000
9190		4375.000000
9191		4375.000000
9192		4375.000000
9193		4375.000000
9194		4375.000000
9195		4375.000000
9196		4375.000000
9197		4375.000000
9198		4375.000000
9199		4375.000000
9200		4375.000000
9201		4375.000000
9202		4296.875000
9203		4296.875000
9204		4296.875000
9205		4296.875000
9206		4296.875000
9207		4296.875000
9208		4296.875000
9209		4296.875000
9210		4296.875000
9211		4296.875000
9212		4296.875000
9213		4218.750000
9214		4296.875000
9215		4296.875000
9216		4218.750000
9217		4218.750000
9218		4218.750000
9219		4218.750000
9220		4218.750000
9221		4218.750000
9222		4218.750000
9223		4218.750000
9224		4218.750000
9225		4218.750000
9226		4218.750000
9227		4218.750000
9228		4140.625000
9229		4140.625000
9230		4140.625000
9231		4140.625000
9232		4140.625000
9233		4140.625000
9234		4140.625000
9235		4140.625000
9236		4140.625000
9237		4140.625000
9238		4140.625000
9239		4140.625000
9240		4140.625000
9241		4140.625000
9242		4062.500000
9243		4062.500000
9244		4062.500000
9245		4062.500000
9246		4062.500000
9247		4062.500000
9248		4062.500000
9249		4062.500000
9250		4062.500000
9251		4062.500000
9252		4062.500000
9253		4062.500000
9254		4062.500000
9255		4062.500000
9256		4062.500000
9257		4062.500000
9258		3984.375000
9259		3984.375000
9260		3984.375000
9261		3984.375000
9262		3984.375000
9263		3984.375000
9264		3984.375000
9265		3984.375000
9266		3984.375000
9267		3984.375000
9268		3984.375000
9269		3984.375000
9270		3984.375000
9271		3984.375000
9272		3984.375000
9273		3906.250000
9274		3906.250000
9275		3906.250000
9276		3906.250000
9277		3906.250000
9278		3906.250000
9279		3906.250000
9280		3906.250000
9281		3906.250000
9282		3906.250000
9283		3906.250000
9284		3906.250000
9285		3906.250000
9286		3906.250000
9287		3828.125000
9288		3906.250000
9289		3828.125000
9290		3828.125000
9291		3828.125000
9292		3828.125000
9293		3828.125000
9294		3828.125000
9295		3828.125000
9296		3828.125000
9297		3828.125000
9298		3828.125000
9299		3828.125000
9300		3828.125000
9301		3828.125000
9302		3828.125000
9303		3828.125000
9304		3828.125000
9305		3750.000000
9306		3750.000000
9307		3750.000000
9308		3750.000000
9309		3750.000000
9310		3750.000000
9311		3750.000000
9312		3750.000000
9313		3750.000000
9314		3750.000000
9315		3750.000000
9316		3671.875000
9317		3750.000000
9318		3750.000000
9319		3671.875000
9320		3671.875000
9321		3671.875000
9322		3671.875000
9323		3671.875000
9324		3671.875000
9325		3671.875000
9326		3671.875000
9327		3671.875000
9328		3671.875000
9329		3671.875000
9330		3671.875000
9331		3671.875000
9332		3671.875000
9333		3671.875000
9334		3593.750000
9335		3593.750000
9336		3593.750000
9337		3593.750000
9338		3593.750000
9339		3593.750000
9340		3593.750000
9341		3593.750000
9342		3593.750000
9343		3593.750000
9344		3593.750000
9345		3593.750000
9346		3593.750000
9347		3593.750000
9348		3593.750000
9349		3593.750000
9350		3593.750000
9351		3593.750000
9352		3515.625000
9353		3515.625000
9354		3515.625000
9355		3515.625000
9356		3515.625000
9357		3515.625000
9358		3515.625000
9359		3515.625000
9360		3515.625000
9361		3515.625000
9362		3515.625000
9363		3515.625000
9364		3515.625000
9365		3515.625000
9366		3515.625000
9367		3515.625000
9368		3515.625000
9369		3515.625000
9370		3437.500000
9371		3437.500000
9372		3437.500000
9373		3437.500000
9374		3437.500000
9375		3437.500000
9376		3437.500000
9377		3437.500000
9378		3437.500000
9379		3437.500000
9380		3437.500000
9381		3437.500000
9382		3437.500000
9383		3437.500000
9384		3437.500000
9385		3437.500000
9386		3437.500000
9387		3437.500000
9388		3359.375000
9389		3437.500000
9390		3359.375000
9391		3359.375000
9392		3359.375000
9393		3359.375000
9394		3359.375000
9395		3359.375000
9396		3359.375000
9397		3359.375000
9398		3359.375000
9399		3359.375000
9400		3359.375000
9401		3359.375000
9402		3359.375000
9403		3359.375000
9404		3359.375000
9405		3359.375000
9406		3359.375000
9407		3359.375000
9408		3359.375000
9409		3359.375000
9410		3281.250000
9411		3281.250000
9412		3281.250000
9413		3281.250000
9414		3281.250000
9415		3281.250000
9416		3281.250000
9417		3281.250000
9418		3281.250000
9419		3281.250000
9420		3281.250000
9421		3281.250000
9422		3281.250000
9423		3281.250000
9424		3281.250000
9425		3281.250000
9426		3281.250000
9427		3281.250000
9428		3281.250000
9429		3281.250000
9430		3281.250000
9431		3281.250000
9432		3281.250000
9433		3203.125000
9434		3203.125000
9435		3203.125000
9436		3203.125000
9437		3203.125000
9438		3203.125000
9439		3203.125000
9440		3203.125000
9441		3203.125000
9442		3203.125000
9443		3203.125000
9444		3203.125000
9445		3203.125000
9446		3203.125000
9447		3203.125000
9448		3203.125000
9449		3203.125000
9450		3203.125000
9451		3203.125000
9452		3203.125000
9453		3203.125000
9454		3203.125000
9455		3203.125000
9456		3203.125000
9457		3125.000000
9458		3125.000000
9459		3125.000000
9460		3125.000000
9461		3125.000000
9462		3125.000000
9463		3125.000000
9464		3125.000000
9465		3125.000000
9466		3125.000000
9467		3125.000000
9468		3125.000000
9469		3125.000000
9470		3125.000000
9471		3125.000000
9472		3125.000000
9473		3125.000000
9474		3125.000000
9475		3125.000000
9476		3125.000000
9477		3125.000000
9478		3125.000000
9479		3125.000000
9480		3125.000000
9481		3125.000000
9482		3125.000000
9483		3125.000000
9484		3046.875000
9485		3046.875000
9486		3046.875000
9487		3046.875000
9488		3046.875000
9489		3046.875000
9490		3046.875000
9491		3046.875000
9492		3046.875000
9493		3046.875000
9494		3046.875000
9495		3046.875000
9496		3046.875000
9497		3046.875000
9498		3046.875000
9499		3046.875000
9500		3046.875000
9501		3046.875000
9502		3046.875000
9503		3046.875000
9504		3046.875000
9505		3046.875000
9506		3046.875000
9507		3046.875000
9508		3046.875000
9509		3046.875000
9510		2968.750000
9511		3046.875000
9512		2968.750000
9513		2968.750000
9514		2968.750000
9515		2968.750000
9516		2968.750000
9517		2968.750000
9518		2968.750000
9519		2968.750000
9520		2968.750000
9521		2968.750000
9522		2968.750000
9523		2968.750000
9524		2968.750000
9525		2968.750000
9526		2968.750000
9527		2968.750000
9528		2968.750000
9529		2968.750000
9530		2968.750000
9531		2968.750000
9532		2968.750000
9533		2968.750000
9534		2968.750000
9535		2968.750000
9536		2968.750000
9537		2968.750000
9538		2968.750000
9539		2968.750000
9540		2968.750000
9541		2968.750000
9542		2968.750000
9543		2968.750000
9544		2968.750000
9545		2968.750000
9546		2968.750000
9547		2890.625000
9548		2890.625000
9549		2890.625000
9550		2890.625000
9551		2890.625000
9552		2890.625000
9553		2890.625000
9554		2890.625000
9555		2890.625000
9556		2890.625000
9557		2890.625000
9558		2890.625000
9559		2890.625000
9560		2890.625000
9561		2890.625000
9562		2890.625000
9563		2890.625000
9564		2890.625000
9565		2890.625000
9566		2890.625000
9567		2890.625000
9568		2890.625000
9569		2890.625000
9570		2890.625000
9571		2890.625000
9572		2890.625000
9573		2890.625000
9574		2890.625000
9575		2890.625000
9576		2890.625000
9577		2890.625000
9578		2890.625000
9579		2890.625000
9580		2890.625000
9581		2890.625000
9582		2890.625000
9583		2890.625000
9584		2890.625000
9585		2890.625000
9586		2812.500000
9587		2812.500000
9588		2812.500000
9589		2890.625000
9590		2812.500000
9591		2812.500000
9592		2812.500000
9593		2812.500000
9594		2812.500000
9595		2812.500000
9596		2812.500000
9597		2812.500000
9598		2812.500000
9599		2812.500000
9600		2812.500000
9601		2812.500000
9602		2812.500000
9603		2812.500000
9604		2812.500000
9605		2812.500000
9606		2812.500000
9607		2812.500000
9608		2812.500000
9609		2812.500000
9610		2812.500000
9611		2812.500000
9612		2812.500000
9613		2812.500000
9614		2812.500000
9615		2812.500000
9616		2812.500000
9617		2812.500000
9618		2812.500000
9619		2812.500000
9620		2812.500000
9621		2812.500000
9622		2812.500000
9623		2812.500000
9624		2812.500000
9625		2812.500000
9626		2812.500000
9627		2812.500000
9628		2812.500000
9629		2812.500000
9630		2812.500000
9631		2812.500000
9632		2812.500000
9633		2812.500000
9634		2812.500000
9635		2812.500000
9636		2812.500000
9637		2812.500000
9638		2812.500000
9639		2812.500000
9640		2812.500000
9641		2812.500000
9642		2812.500000
9643		2812.500000
9644		2734.375000
9645		2812.500000
9646		2812.500000
9647		2734.375000
9648		2734.375000
9649		2812.500000
9650		2734.375000
9651		2734.375000
9652		2734.375000
9653		2734.375000
9654		2734.375000
9655		2734.375000
9656		2734.375000
9657		2734.375000
9658		2734.375000
9659		2734.375000
9660		2812.500000
9661		2734.375000
9662		2734.375000
9663		2734.375000
9664		2734.375000
9665		2734.375000
9666		2734.375000
9667		2734.375000
9668		2734.375000
9669		2734.375000
9670		2734.375000
9671		2734.375000
9672		2734.375000
9673		2734.375000
9674		2734.375000
9675		2734.375000
9676		2734.375000
9677		2734.375000
9678		2734.375000
9679		2734.375000
9680		2734.375000
9681		2734.375000
9682		2734.375000
9683		2734.375000
9684		2734.375000
9685		2734.375000
9686		2734.375000
9687		2734.375000
9688		2734.375000
9689		2734.375000
9690		2734.375000
9691		2734.375000
9692		2734.375000
9693		2734.375000
9694		2734.375000
9695		2734.375000
9696		2734.375000
9697		2734.375000
9698		2734.375000
9699		2734.375000
9700		2734.375000
9701		2734.375000
9702		2734.375000
9703		2734.375000
9704		2734.375000
9705		2734.375000
9706		2734.375000
9707		2734.375000
9708		2734.375000
9709		2734.375000
9710		2734.375000
9711		2734.375000
9712		2734.375000
9713		2734.375000
9714		2734.375000
9715		2734.375000
9716		2734.375000
9717		2734.375000
9718		2734.375000
9719		2734.375000
9720		2734.375000
9721		2734.375000
9722		2734.375000
9723		2734.375000
9724		2734.375000
9725		2734.375000
9726		2734.375000
9727		2734.375000
9728		2734.375000
9729		2734.375000
9730		2734.375000
9731		2734.375000
9732		2734.375000
9733		2734.375000
9734		2734.375000
9735		2734.375000
9736		2734.375000
9737		2734.375000
9738		2734.375000
9739		2734.375000
9740		2734.375000
9741		2734.375000
9742		2734.375000
9743		2734.375000
9744		2734.375000
9745		2734.375000
9746		2734.375000
9747		2734.375000
9748		2734.375000
9749		2734.375000
9750		2734.375000
9751		2734.375000
9752		2734.375000
9753		2734.375000
9754		2734.375000
9755		2734.375000
9756		2734.375000
9757		2734.375000
9758		2734.375000
9759		2734.375000
9760		2734.375000
9761		2734.375000
9762		2734.375000
9763		2734.375000
9764		2734.375000
9765		2734.375000
9766		2734.375000
9767		2734.375000
9768		2734.375000
9769		2734.375000
9770		2734.375000
9771		2734.375000
9772		2734.375000
9773		2734.375000
9774		2734.375000
9775		2734.375000
9776		2734.375000
9777		2734.375000
9778		2734.375000
9779		2734.375000
9780		2734.375000
9781		2734.375000
9782		2734.375000
9783		2734.375000
9784		2734.375000
9785		2734.375000
9786		2734.375000
9787		2734.375000
9788		2734.375000
9789		2734.375000
9790		2734.375000
9791		2734.375000
9792		2734.375000
9793		2734.375000
9794		2734.375000
9795		2734.375000
9796		2734.375000
9797		2734.375000
9798		2734.375000
9799		2734.375000
9800		2734.375000
9801		2734.375000
9802		2734.375000
9803		2734.375000
9804		2734.375000
9805		2734.375000
9806		2734.375000
9807		2734.375000
9808		2734.375000
9809		2734.375000
9810		2734.375000
9811		2734.375000
9812		2734.375000
9813		2734.375000
9814		2734.375000
9815		2734.375000
9816		2734.375000
9817		2812.500000
9818		2734.375000
9819		2734.375000
9820		2734.375000
9821		2734.375000
9822		2734.375000
9823		2734.375000
9824		2734.375000
9825		2734.375000
9826		2734.375000
9827		2734.375000
9828		2734.375000
9829		2734.375000
9830		2734.375000
9831		2734.375000
9832		2734.375000
9833		2734.375000
9834		2734.375000
9835		2734.375000
9836		2734.375000
9837		2734.375000
9838		2734.375000
9839		2734.375000
9840		2734.375000
9841		2734.375000
9842		2734.375000
9843		2734.375000
9844		2734.375000
9845		2734.375000
9846		2734.375000
9847		2734.375000
9848		2734.375000
9849		2734.375000
9850		2734.375000
9851		2734.375000
9852		2734.375000
9853		2734.375000
9854		2734.375000
9855		2734.375000
9856		2734.375000
9857		2734.375000
9858		2734.375000
9859		2734.375000
9860		2734.375000
9861		2734.375000
9862		2734.375000
9863		2812.500000
9864		2734.375000
9865		2812.500000
9866		2734.375000
9867		2812.500000
9868		2734.375000
9869		2734.375000
9870		2812.500000
9871		2812.500000
9872		2734.375000
9873		2812.500000
9874		2812.500000
9875		2812.500000
9876		2812.500000
9877		2812.500000
9878		2812.500000
9879		2812.500000
9880		2812.500000
9881		2812.500000
9882		2812.500000
9883		2812.500000
9884		2812.500000
9885		2812.500000
9886		2812.500000
9887		2812.500000
9888		2812.500000
9889		2812.500000
9890		2812.500000
9891		2812.500000
9892		2812.500000
9893		2812.500000
9894		2812.500000
9895		2812.500000
9896		2812.500000
9897		2812.500000
9898		2812.500000
9899		2812.500000
9900		2812.500000
9901		2812.500000
9902		2812.500000
9903		2812.500000
9904		2812.500000
9905		2812.500000
9906		2812.500000
9907		2812.500000
9908		2812.500000
9909		2812.500000
9910		2812.500000
9911		2812.500000
9912		2812.500000
9913		2812.500000
9914		2812.500000
9915		2812.500000
9916		2812.500000
9917		2812.500000
9918		2812.500000
9919		2812.500000
9920		2812.500000
9921		2812.500000
9922		2890.625000
9923		2812.500000
9924		2890.625000
9925		2812.500000
9926		2890.625000
9927		2890.625000
9928		2812.500000
9929		2812.500000
9930		2890.625000
9931		2812.500000
9932		2890.625000
9933		2890.625000
9934		2890.625000
9935		2890.625000
9936		2890.625000
9937		2890.625000
9938		2890.625000
9939		2890.625000
9940		2890.625000
9941		2890.625000
9942		2890.625000
9943		2890.625000
9944		2890.625000
9945		2890.625000
9946		2890.625000
9947		2890.625000
9948		2890.625000
9949		2890.625000
9950		2890.625000
9951		2890.625000
9952		2890.625000
9953		2890.625000
9954		2890.625000
9955		2890.625000
9956		2890.625000
9957		2890.625000
9958		2890.625000
9959		2890.625000
9960		2968.750000
9961		2890.625000
9962		2890.625000
9963		2890.625000
9964		2890.625000
9965		2890.625000
9966		2890.625000
9967		2890.625000
9968		2890.625000
9969		2890.625000
9970		2890.625000
9971		2890.625000
9972		2968.750000
9973		2968.750000
9974		2968.750000
9975		2968.750000
9976		2968.750000
9977		2968.750000
9978		2968.750000
9979		2968.750000
9980		2968.750000
9981		2968.750000
9982		2968.750000
9983		2968.750000
9984		2968.750000
9985		2968.750000
9986		2968.750000
9987		2968.750000
9988		2968.750000
9989		2968.750000
9990		2968.750000
9991		2968.750000
9992		2968.750000
9993		2968.750000
9994		2968.750000
9995		2968.750000
9996		2968.750000
9997		2968.750000
9998		3046.875000
9999		3046.875000
10000		3046.875000
