Channel              :		CH1
Frequency            :		  ?
Period               :		  ?
PK-PK                :		3.359V
Probe attenuation    :		1X
Voltage per ADC value:		4.882813mV
Time interval        :		1000.00000us

index		CH1_Voltage(mV)
1		5390.625000
2		5390.625000
3		5390.625000
4		5390.625000
5		5390.625000
6		5468.750000
7		5468.750000
8		5468.750000
9		5468.750000
10		5468.750000
11		5468.750000
12		5468.750000
13		5468.750000
14		5468.750000
15		5468.750000
16		5468.750000
17		5546.875000
18		5546.875000
19		5546.875000
20		5546.875000
21		5546.875000
22		5546.875000
23		5546.875000
24		5546.875000
25		5546.875000
26		5625.000000
27		5625.000000
28		5625.000000
29		5625.000000
30		5625.000000
31		5625.000000
32		5625.000000
33		5625.000000
34		5625.000000
35		5625.000000
36		5625.000000
37		5625.000000
38		5625.000000
39		5703.125000
40		5703.125000
41		5703.125000
42		5703.125000
43		5703.125000
44		5703.125000
45		5703.125000
46		5703.125000
47		5703.125000
48		5703.125000
49		5703.125000
50		5781.250000
51		5781.250000
52		5781.250000
53		5781.250000
54		5781.250000
55		5781.250000
56		5781.250000
57		5781.250000
58		5781.250000
59		5781.250000
60		5781.250000
61		5781.250000
62		5781.250000
63		5859.375000
64		5859.375000
65		5859.375000
66		5859.375000
67		5859.375000
68		5859.375000
69		5859.375000
70		5859.375000
71		5859.375000
72		5859.375000
73		5859.375000
74		5859.375000
75		5859.375000
76		5859.375000
77		5859.375000
78		5859.375000
79		5859.375000
80		5859.375000
81		5937.500000
82		5937.500000
83		5937.500000
84		5937.500000
85		5937.500000
86		5937.500000
87		5937.500000
88		5937.500000
89		5937.500000
90		5937.500000
91		5937.500000
92		5937.500000
93		5937.500000
94		5937.500000
95		5937.500000
96		5937.500000
97		5937.500000
98		5937.500000
99		5937.500000
100		5937.500000
101		5937.500000
102		6015.625000
103		5937.500000
104		6015.625000
105		6015.625000
106		6015.625000
107		6015.625000
108		6015.625000
109		6015.625000
110		6015.625000
111		6015.625000
112		6015.625000
113		6015.625000
114		6015.625000
115		6015.625000
116		6015.625000
117		6015.625000
118		6015.625000
119		6015.625000
120		6015.625000
121		6015.625000
122		6015.625000
123		6015.625000
124		6015.625000
125		6015.625000
126		6015.625000
127		6015.625000
128		6015.625000
129		6015.625000
130		6015.625000
131		6015.625000
132		6015.625000
133		6015.625000
134		6015.625000
135		6015.625000
136		6015.625000
137		6015.625000
138		6015.625000
139		6015.625000
140		6015.625000
141		6015.625000
142		6015.625000
143		6015.625000
144		6015.625000
145		6015.625000
146		6015.625000
147		6015.625000
148		6015.625000
149		6015.625000
150		6015.625000
151		6015.625000
152		6015.625000
153		6015.625000
154		6015.625000
155		6015.625000
156		6015.625000
157		6015.625000
158		6015.625000
159		6015.625000
160		6015.625000
161		6015.625000
162		6015.625000
163		6015.625000
164		6015.625000
165		6015.625000
166		6015.625000
167		6015.625000
168		6015.625000
169		6015.625000
170		6015.625000
171		6015.625000
172		6015.625000
173		6015.625000
174		6015.625000
175		5937.500000
176		5937.500000
177		5937.500000
178		5937.500000
179		5937.500000
180		5937.500000
181		5937.500000
182		5937.500000
183		5937.500000
184		5937.500000
185		5937.500000
186		5937.500000
187		5937.500000
188		5937.500000
189		5937.500000
190		5937.500000
191		5937.500000
192		5937.500000
193		5937.500000
194		5937.500000
195		5937.500000
196		5937.500000
197		5859.375000
198		5859.375000
199		5859.375000
200		5859.375000
201		5859.375000
202		5859.375000
203		5859.375000
204		5859.375000
205		5859.375000
206		5859.375000
207		5859.375000
208		5859.375000
209		5859.375000
210		5859.375000
211		5859.375000
212		5859.375000
213		5859.375000
214		5859.375000
215		5859.375000
216		5781.250000
217		5781.250000
218		5781.250000
219		5781.250000
220		5781.250000
221		5781.250000
222		5781.250000
223		5781.250000
224		5781.250000
225		5781.250000
226		5781.250000
227		5781.250000
228		5781.250000
229		5781.250000
230		5781.250000
231		5703.125000
232		5703.125000
233		5703.125000
234		5703.125000
235		5703.125000
236		5703.125000
237		5703.125000
238		5703.125000
239		5703.125000
240		5703.125000
241		5703.125000
242		5625.000000
243		5625.000000
244		5625.000000
245		5625.000000
246		5625.000000
247		5625.000000
248		5625.000000
249		5625.000000
250		5625.000000
251		5625.000000
252		5625.000000
253		5625.000000
254		5546.875000
255		5546.875000
256		5546.875000
257		5546.875000
258		5546.875000
259		5546.875000
260		5546.875000
261		5546.875000
262		5546.875000
263		5546.875000
264		5546.875000
265		5468.750000
266		5468.750000
267		5468.750000
268		5468.750000
269		5468.750000
270		5468.750000
271		5468.750000
272		5468.750000
273		5468.750000
274		5390.625000
275		5390.625000
276		5390.625000
277		5390.625000
278		5390.625000
279		5390.625000
280		5390.625000
281		5390.625000
282		5390.625000
283		5390.625000
284		5312.500000
285		5312.500000
286		5312.500000
287		5312.500000
288		5312.500000
289		5312.500000
290		5312.500000
291		5312.500000
292		5234.375000
293		5234.375000
294		5234.375000
295		5234.375000
296		5234.375000
297		5234.375000
298		5234.375000
299		5234.375000
300		5234.375000
301		5234.375000
302		5156.250000
303		5156.250000
304		5156.250000
305		5156.250000
306		5156.250000
307		5156.250000
308		5156.250000
309		5156.250000
310		5078.125000
311		5078.125000
312		5078.125000
313		5078.125000
314		5078.125000
315		5078.125000
316		5078.125000
317		5078.125000
318		5078.125000
319		5000.000000
320		5000.000000
321		5000.000000
322		5000.000000
323		5000.000000
324		5000.000000
325		5000.000000
326		4921.875000
327		5000.000000
328		4921.875000
329		4921.875000
330		4921.875000
331		4921.875000
332		4921.875000
333		4921.875000
334		4921.875000
335		4843.750000
336		4843.750000
337		4843.750000
338		4843.750000
339		4843.750000
340		4843.750000
341		4843.750000
342		4843.750000
343		4843.750000
344		4765.625000
345		4765.625000
346		4765.625000
347		4765.625000
348		4765.625000
349		4765.625000
350		4765.625000
351		4765.625000
352		4687.500000
353		4687.500000
354		4687.500000
355		4687.500000
356		4687.500000
357		4687.500000
358		4687.500000
359		4687.500000
360		4609.375000
361		4609.375000
362		4609.375000
363		4609.375000
364		4609.375000
365		4609.375000
366		4609.375000
367		4609.375000
368		4609.375000
369		4531.250000
370		4531.250000
371		4531.250000
372		4531.250000
373		4531.250000
374		4531.250000
375		4531.250000
376		4531.250000
377		4453.125000
378		4453.125000
379		4453.125000
380		4453.125000
381		4453.125000
382		4453.125000
383		4453.125000
384		4453.125000
385		4453.125000
386		4453.125000
387		4375.000000
388		4375.000000
389		4375.000000
390		4375.000000
391		4375.000000
392		4375.000000
393		4375.000000
394		4375.000000
395		4296.875000
396		4296.875000
397		4296.875000
398		4296.875000
399		4296.875000
400		4296.875000
401		4296.875000
402		4296.875000
403		4296.875000
404		4218.750000
405		4218.750000
406		4218.750000
407		4218.750000
408		4218.750000
409		4218.750000
410		4218.750000
411		4218.750000
412		4218.750000
413		4140.625000
414		4140.625000
415		4140.625000
416		4140.625000
417		4140.625000
418		4140.625000
419		4140.625000
420		4140.625000
421		4140.625000
422		4140.625000
423		4062.500000
424		4062.500000
425		4062.500000
426		4062.500000
427		4062.500000
428		4062.500000
429		4062.500000
430		4062.500000
431		4062.500000
432		3984.375000
433		3984.375000
434		3984.375000
435		3984.375000
436		3984.375000
437		3984.375000
438		3984.375000
439		3984.375000
440		3984.375000
441		3984.375000
442		3906.250000
443		3906.250000
444		3906.250000
445		3906.250000
446		3906.250000
447		3906.250000
448		3906.250000
449		3906.250000
450		3906.250000
451		3906.250000
452		3828.125000
453		3828.125000
454		3828.125000
455		3828.125000
456		3828.125000
457		3828.125000
458		3828.125000
459		3828.125000
460		3828.125000
461		3828.125000
462		3828.125000
463		3828.125000
464		3750.000000
465		3750.000000
466		3750.000000
467		3750.000000
468		3750.000000
469		3750.000000
470		3750.000000
471		3750.000000
472		3750.000000
473		3671.875000
474		3671.875000
475		3671.875000
476		3671.875000
477		3671.875000
478		3671.875000
479		3671.875000
480		3671.875000
481		3671.875000
482		3671.875000
483		3671.875000
484		3671.875000
485		3671.875000
486		3593.750000
487		3593.750000
488		3593.750000
489		3593.750000
490		3593.750000
491		3593.750000
492		3593.750000
493		3593.750000
494		3593.750000
495		3515.625000
496		3593.750000
497		3515.625000
498		3515.625000
499		3515.625000
500		3515.625000
501		3515.625000
502		3515.625000
503		3515.625000
504		3515.625000
505		3515.625000
506		3515.625000
507		3515.625000
508		3515.625000
509		3515.625000
510		3437.500000
511		3437.500000
512		3437.500000
513		3437.500000
514		3437.500000
515		3437.500000
516		3437.500000
517		3437.500000
518		3437.500000
519		3437.500000
520		3437.500000
521		3437.500000
522		3359.375000
523		3359.375000
524		3359.375000
525		3359.375000
526		3359.375000
527		3359.375000
528		3359.375000
529		3359.375000
530		3359.375000
531		3359.375000
532		3359.375000
533		3359.375000
534		3359.375000
535		3359.375000
536		3359.375000
537		3281.250000
538		3281.250000
539		3281.250000
540		3281.250000
541		3281.250000
542		3281.250000
543		3281.250000
544		3281.250000
545		3281.250000
546		3281.250000
547		3281.250000
548		3281.250000
549		3281.250000
550		3281.250000
551		3281.250000
552		3281.250000
553		3203.125000
554		3203.125000
555		3203.125000
556		3203.125000
557		3203.125000
558		3203.125000
559		3203.125000
560		3203.125000
561		3203.125000
562		3203.125000
563		3203.125000
564		3203.125000
565		3203.125000
566		3203.125000
567		3203.125000
568		3203.125000
569		3125.000000
570		3125.000000
571		3125.000000
572		3125.000000
573		3125.000000
574		3125.000000
575		3125.000000
576		3125.000000
577		3125.000000
578		3125.000000
579		3125.000000
580		3125.000000
581		3125.000000
582		3125.000000
583		3125.000000
584		3125.000000
585		3125.000000
586		3046.875000
587		3046.875000
588		3046.875000
589		3046.875000
590		3046.875000
591		3046.875000
592		3046.875000
593		3046.875000
594		3046.875000
595		3046.875000
596		3046.875000
597		3046.875000
598		3046.875000
599		3046.875000
600		3046.875000
601		3046.875000
602		3046.875000
603		3046.875000
604		3046.875000
605		3046.875000
606		3046.875000
607		2968.750000
608		2968.750000
609		2968.750000
610		2968.750000
611		2968.750000
612		2968.750000
613		2968.750000
614		2968.750000
615		2968.750000
616		2968.750000
617		2968.750000
618		2968.750000
619		2968.750000
620		2968.750000
621		2968.750000
622		2968.750000
623		2968.750000
624		2968.750000
625		2968.750000
626		2968.750000
627		2968.750000
628		2968.750000
629		2890.625000
630		2890.625000
631		2890.625000
632		2890.625000
633		2890.625000
634		2890.625000
635		2890.625000
636		2890.625000
637		2890.625000
638		2890.625000
639		2890.625000
640		2890.625000
641		2890.625000
642		2890.625000
643		2890.625000
644		2890.625000
645		2890.625000
646		2890.625000
647		2890.625000
648		2890.625000
649		2890.625000
650		2812.500000
651		2812.500000
652		2812.500000
653		2812.500000
654		2812.500000
655		2812.500000
656		2812.500000
657		2812.500000
658		2812.500000
659		2812.500000
660		2812.500000
661		2812.500000
662		2812.500000
663		2812.500000
664		2812.500000
665		2812.500000
666		2812.500000
667		2812.500000
668		2812.500000
669		2812.500000
670		2812.500000
671		2812.500000
672		2734.375000
673		2734.375000
674		2734.375000
675		2734.375000
676		2734.375000
677		2812.500000
678		2734.375000
679		2734.375000
680		2734.375000
681		2734.375000
682		2734.375000
683		2734.375000
684		2734.375000
685		2734.375000
686		2734.375000
687		2734.375000
688		2734.375000
689		2734.375000
690		2734.375000
691		2734.375000
692		2734.375000
693		2734.375000
694		2734.375000
695		2734.375000
696		2734.375000
697		2734.375000
698		2734.375000
699		2734.375000
700		2734.375000
701		2734.375000
702		2734.375000
703		2734.375000
704		2734.375000
705		2734.375000
706		2734.375000
707		2734.375000
708		2734.375000
709		2734.375000
710		2734.375000
711		2734.375000
712		2656.250000
713		2656.250000
714		2656.250000
715		2656.250000
716		2656.250000
717		2656.250000
718		2656.250000
719		2656.250000
720		2656.250000
721		2656.250000
722		2656.250000
723		2656.250000
724		2656.250000
725		2656.250000
726		2656.250000
727		2656.250000
728		2656.250000
729		2656.250000
730		2656.250000
731		2656.250000
732		2656.250000
733		2656.250000
734		2656.250000
735		2656.250000
736		2656.250000
737		2656.250000
738		2656.250000
739		2656.250000
740		2656.250000
741		2656.250000
742		2656.250000
743		2656.250000
744		2656.250000
745		2656.250000
746		2656.250000
747		2656.250000
748		2656.250000
749		2656.250000
750		2656.250000
751		2656.250000
752		2656.250000
753		2656.250000
754		2656.250000
755		2656.250000
756		2656.250000
757		2656.250000
758		2578.125000
759		2578.125000
760		2656.250000
761		2578.125000
762		2578.125000
763		2578.125000
764		2578.125000
765		2578.125000
766		2578.125000
767		2578.125000
768		2578.125000
769		2578.125000
770		2578.125000
771		2578.125000
772		2578.125000
773		2578.125000
774		2578.125000
775		2578.125000
776		2578.125000
777		2578.125000
778		2578.125000
779		2578.125000
780		2578.125000
781		2578.125000
782		2578.125000
783		2578.125000
784		2578.125000
785		2578.125000
786		2578.125000
787		2578.125000
788		2578.125000
789		2578.125000
790		2578.125000
791		2578.125000
792		2578.125000
793		2578.125000
794		2578.125000
795		2578.125000
796		2578.125000
797		2578.125000
798		2578.125000
799		2578.125000
800		2578.125000
801		2578.125000
802		2578.125000
803		2578.125000
804		2578.125000
805		2578.125000
806		2578.125000
807		2578.125000
808		2578.125000
809		2578.125000
810		2578.125000
811		2578.125000
812		2578.125000
813		2578.125000
814		2578.125000
815		2578.125000
816		2578.125000
817		2578.125000
818		2578.125000
819		2578.125000
820		2578.125000
821		2578.125000
822		2578.125000
823		2578.125000
824		2578.125000
825		2578.125000
826		2578.125000
827		2578.125000
828		2578.125000
829		2578.125000
830		2578.125000
831		2578.125000
832		2578.125000
833		2578.125000
834		2578.125000
835		2578.125000
836		2578.125000
837		2578.125000
838		2578.125000
839		2578.125000
840		2578.125000
841		2578.125000
842		2578.125000
843		2578.125000
844		2578.125000
845		2578.125000
846		2578.125000
847		2578.125000
848		2578.125000
849		2578.125000
850		2578.125000
851		2578.125000
852		2500.000000
853		2578.125000
854		2578.125000
855		2500.000000
856		2578.125000
857		2578.125000
858		2578.125000
859		2578.125000
860		2578.125000
861		2578.125000
862		2578.125000
863		2578.125000
864		2578.125000
865		2500.000000
866		2578.125000
867		2578.125000
868		2578.125000
869		2578.125000
870		2578.125000
871		2578.125000
872		2578.125000
873		2578.125000
874		2578.125000
875		2578.125000
876		2578.125000
877		2578.125000
878		2578.125000
879		2578.125000
880		2578.125000
881		2578.125000
882		2578.125000
883		2578.125000
884		2578.125000
885		2578.125000
886		2578.125000
887		2578.125000
888		2578.125000
889		2578.125000
890		2578.125000
891		2578.125000
892		2578.125000
893		2578.125000
894		2578.125000
895		2578.125000
896		2578.125000
897		2578.125000
898		2578.125000
899		2578.125000
900		2578.125000
901		2578.125000
902		2578.125000
903		2578.125000
904		2578.125000
905		2578.125000
906		2578.125000
907		2578.125000
908		2578.125000
909		2578.125000
910		2578.125000
911		2578.125000
912		2578.125000
913		2578.125000
914		2578.125000
915		2578.125000
916		2578.125000
917		2578.125000
918		2578.125000
919		2578.125000
920		2578.125000
921		2578.125000
922		2578.125000
923		2578.125000
924		2578.125000
925		2578.125000
926		2578.125000
927		2578.125000
928		2578.125000
929		2578.125000
930		2578.125000
931		2578.125000
932		2578.125000
933		2578.125000
934		2578.125000
935		2578.125000
936		2578.125000
937		2578.125000
938		2578.125000
939		2578.125000
940		2578.125000
941		2578.125000
942		2578.125000
943		2578.125000
944		2578.125000
945		2578.125000
946		2578.125000
947		2578.125000
948		2578.125000
949		2578.125000
950		2578.125000
951		2578.125000
952		2578.125000
953		2656.250000
954		2578.125000
955		2578.125000
956		2578.125000
957		2578.125000
958		2578.125000
959		2578.125000
960		2578.125000
961		2656.250000
962		2656.250000
963		2656.250000
964		2656.250000
965		2656.250000
966		2656.250000
967		2656.250000
968		2656.250000
969		2656.250000
970		2656.250000
971		2656.250000
972		2656.250000
973		2656.250000
974		2656.250000
975		2656.250000
976		2656.250000
977		2656.250000
978		2656.250000
979		2656.250000
980		2656.250000
981		2656.250000
982		2656.250000
983		2656.250000
984		2656.250000
985		2656.250000
986		2656.250000
987		2656.250000
988		2656.250000
989		2656.250000
990		2656.250000
991		2656.250000
992		2656.250000
993		2656.250000
994		2656.250000
995		2656.250000
996		2656.250000
997		2656.250000
998		2656.250000
999		2656.250000
1000		2656.250000
1001		2656.250000
1002		2656.250000
1003		2734.375000
1004		2734.375000
1005		2734.375000
1006		2734.375000
1007		2734.375000
1008		2734.375000
1009		2734.375000
1010		2734.375000
1011		2734.375000
1012		2734.375000
1013		2734.375000
1014		2734.375000
1015		2734.375000
1016		2656.250000
1017		2734.375000
1018		2734.375000
1019		2734.375000
1020		2734.375000
1021		2734.375000
1022		2734.375000
1023		2734.375000
1024		2734.375000
1025		2734.375000
1026		2734.375000
1027		2734.375000
1028		2734.375000
1029		2734.375000
1030		2734.375000
1031		2734.375000
1032		2734.375000
1033		2734.375000
1034		2734.375000
1035		2734.375000
1036		2734.375000
1037		2812.500000
1038		2734.375000
1039		2812.500000
1040		2812.500000
1041		2812.500000
1042		2812.500000
1043		2812.500000
1044		2812.500000
1045		2812.500000
1046		2812.500000
1047		2812.500000
1048		2812.500000
1049		2812.500000
1050		2812.500000
1051		2812.500000
1052		2812.500000
1053		2812.500000
1054		2812.500000
1055		2812.500000
1056		2812.500000
1057		2812.500000
1058		2812.500000
1059		2812.500000
1060		2812.500000
1061		2812.500000
1062		2890.625000
1063		2890.625000
1064		2890.625000
1065		2890.625000
1066		2890.625000
1067		2890.625000
1068		2890.625000
1069		2890.625000
1070		2890.625000
1071		2890.625000
1072		2890.625000
1073		2890.625000
1074		2890.625000
1075		2890.625000
1076		2890.625000
1077		2890.625000
1078		2890.625000
1079		2890.625000
1080		2890.625000
1081		2890.625000
1082		2890.625000
1083		2890.625000
1084		2890.625000
1085		2890.625000
1086		2968.750000
1087		2968.750000
1088		2968.750000
1089		2968.750000
1090		2968.750000
1091		2968.750000
1092		2968.750000
1093		2968.750000
1094		2968.750000
1095		2968.750000
1096		2968.750000
1097		2968.750000
1098		2968.750000
1099		2968.750000
1100		2968.750000
1101		2968.750000
1102		2968.750000
1103		2968.750000
1104		2968.750000
1105		2968.750000
1106		3046.875000
1107		3046.875000
1108		2968.750000
1109		3046.875000
1110		3046.875000
1111		3046.875000
1112		3046.875000
1113		3046.875000
1114		3046.875000
1115		3046.875000
1116		3046.875000
1117		3046.875000
1118		3046.875000
1119		3046.875000
1120		3046.875000
1121		3046.875000
1122		3046.875000
1123		3046.875000
1124		3046.875000
1125		3046.875000
1126		3125.000000
1127		3125.000000
1128		3125.000000
1129		3125.000000
1130		3125.000000
1131		3125.000000
1132		3125.000000
1133		3125.000000
1134		3125.000000
1135		3125.000000
1136		3125.000000
1137		3125.000000
1138		3125.000000
1139		3125.000000
1140		3125.000000
1141		3125.000000
1142		3203.125000
1143		3203.125000
1144		3203.125000
1145		3203.125000
1146		3203.125000
1147		3203.125000
1148		3203.125000
1149		3203.125000
1150		3203.125000
1151		3203.125000
1152		3203.125000
1153		3203.125000
1154		3203.125000
1155		3203.125000
1156		3203.125000
1157		3203.125000
1158		3281.250000
1159		3281.250000
1160		3281.250000
1161		3281.250000
1162		3281.250000
1163		3281.250000
1164		3281.250000
1165		3281.250000
1166		3281.250000
1167		3281.250000
1168		3359.375000
1169		3359.375000
1170		3359.375000
1171		3359.375000
1172		3359.375000
1173		3359.375000
1174		3359.375000
1175		3359.375000
1176		3359.375000
1177		3359.375000
1178		3359.375000
1179		3359.375000
1180		3359.375000
1181		3359.375000
1182		3359.375000
1183		3437.500000
1184		3437.500000
1185		3437.500000
1186		3437.500000
1187		3437.500000
1188		3437.500000
1189		3437.500000
1190		3437.500000
1191		3437.500000
1192		3437.500000
1193		3437.500000
1194		3437.500000
1195		3515.625000
1196		3515.625000
1197		3515.625000
1198		3515.625000
1199		3515.625000
1200		3515.625000
1201		3515.625000
1202		3515.625000
1203		3515.625000
1204		3593.750000
1205		3593.750000
1206		3593.750000
1207		3593.750000
1208		3593.750000
1209		3593.750000
1210		3593.750000
1211		3593.750000
1212		3593.750000
1213		3593.750000
1214		3593.750000
1215		3593.750000
1216		3671.875000
1217		3671.875000
1218		3671.875000
1219		3671.875000
1220		3671.875000
1221		3671.875000
1222		3671.875000
1223		3671.875000
1224		3671.875000
1225		3671.875000
1226		3750.000000
1227		3750.000000
1228		3750.000000
1229		3750.000000
1230		3750.000000
1231		3750.000000
1232		3750.000000
1233		3750.000000
1234		3750.000000
1235		3750.000000
1236		3750.000000
1237		3828.125000
1238		3828.125000
1239		3828.125000
1240		3828.125000
1241		3828.125000
1242		3828.125000
1243		3828.125000
1244		3828.125000
1245		3906.250000
1246		3906.250000
1247		3906.250000
1248		3906.250000
1249		3906.250000
1250		3906.250000
1251		3906.250000
1252		3906.250000
1253		3906.250000
1254		3906.250000
1255		3984.375000
1256		3984.375000
1257		3984.375000
1258		3984.375000
1259		3984.375000
1260		3984.375000
1261		3984.375000
1262		3984.375000
1263		4062.500000
1264		4062.500000
1265		4062.500000
1266		4062.500000
1267		4062.500000
1268		4062.500000
1269		4062.500000
1270		4062.500000
1271		4062.500000
1272		4062.500000
1273		4140.625000
1274		4140.625000
1275		4140.625000
1276		4140.625000
1277		4140.625000
1278		4140.625000
1279		4140.625000
1280		4140.625000
1281		4140.625000
1282		4218.750000
1283		4218.750000
1284		4218.750000
1285		4218.750000
1286		4218.750000
1287		4218.750000
1288		4218.750000
1289		4218.750000
1290		4296.875000
1291		4296.875000
1292		4296.875000
1293		4296.875000
1294		4296.875000
1295		4296.875000
1296		4296.875000
1297		4296.875000
1298		4375.000000
1299		4375.000000
1300		4375.000000
1301		4375.000000
1302		4375.000000
1303		4375.000000
1304		4375.000000
1305		4375.000000
1306		4375.000000
1307		4453.125000
1308		4453.125000
1309		4453.125000
1310		4453.125000
1311		4453.125000
1312		4453.125000
1313		4453.125000
1314		4453.125000
1315		4531.250000
1316		4531.250000
1317		4531.250000
1318		4531.250000
1319		4531.250000
1320		4531.250000
1321		4531.250000
1322		4531.250000
1323		4609.375000
1324		4609.375000
1325		4609.375000
1326		4609.375000
1327		4609.375000
1328		4609.375000
1329		4609.375000
1330		4609.375000
1331		4609.375000
1332		4687.500000
1333		4687.500000
1334		4687.500000
1335		4687.500000
1336		4687.500000
1337		4687.500000
1338		4687.500000
1339		4687.500000
1340		4765.625000
1341		4765.625000
1342		4765.625000
1343		4765.625000
1344		4765.625000
1345		4765.625000
1346		4765.625000
1347		4765.625000
1348		4843.750000
1349		4843.750000
1350		4843.750000
1351		4843.750000
1352		4843.750000
1353		4843.750000
1354		4843.750000
1355		4843.750000
1356		4921.875000
1357		4921.875000
1358		4921.875000
1359		4921.875000
1360		4921.875000
1361		4921.875000
1362		4921.875000
1363		4921.875000
1364		4921.875000
1365		5000.000000
1366		5000.000000
1367		5000.000000
1368		5000.000000
1369		5000.000000
1370		5000.000000
1371		5000.000000
1372		5000.000000
1373		5000.000000
1374		5000.000000
1375		5078.125000
1376		5078.125000
1377		5078.125000
1378		5078.125000
1379		5078.125000
1380		5078.125000
1381		5078.125000
1382		5156.250000
1383		5156.250000
1384		5156.250000
1385		5156.250000
1386		5156.250000
1387		5156.250000
1388		5156.250000
1389		5156.250000
1390		5234.375000
1391		5234.375000
1392		5234.375000
1393		5234.375000
1394		5234.375000
1395		5234.375000
1396		5234.375000
1397		5234.375000
1398		5234.375000
1399		5234.375000
1400		5312.500000
1401		5312.500000
1402		5312.500000
1403		5312.500000
1404		5312.500000
1405		5312.500000
1406		5312.500000
1407		5312.500000
1408		5312.500000
1409		5390.625000
1410		5390.625000
1411		5390.625000
1412		5390.625000
1413		5390.625000
1414		5390.625000
1415		5390.625000
1416		5390.625000
1417		5390.625000
1418		5390.625000
1419		5390.625000
1420		5468.750000
1421		5468.750000
1422		5468.750000
1423		5468.750000
1424		5468.750000
1425		5468.750000
1426		5468.750000
1427		5468.750000
1428		5468.750000
1429		5546.875000
1430		5546.875000
1431		5546.875000
1432		5546.875000
1433		5546.875000
1434		5546.875000
1435		5546.875000
1436		5546.875000
1437		5546.875000
1438		5546.875000
1439		5546.875000
1440		5546.875000
1441		5625.000000
1442		5625.000000
1443		5625.000000
1444		5625.000000
1445		5625.000000
1446		5625.000000
1447		5625.000000
1448		5625.000000
1449		5625.000000
1450		5625.000000
1451		5625.000000
1452		5625.000000
1453		5625.000000
1454		5625.000000
1455		5703.125000
1456		5703.125000
1457		5703.125000
1458		5703.125000
1459		5703.125000
1460		5703.125000
1461		5703.125000
1462		5703.125000
1463		5703.125000
1464		5703.125000
1465		5703.125000
1466		5703.125000
1467		5703.125000
1468		5703.125000
1469		5781.250000
1470		5781.250000
1471		5781.250000
1472		5781.250000
1473		5781.250000
1474		5781.250000
1475		5781.250000
1476		5781.250000
1477		5781.250000
1478		5781.250000
1479		5781.250000
1480		5781.250000
1481		5781.250000
1482		5781.250000
1483		5781.250000
1484		5781.250000
1485		5859.375000
1486		5859.375000
1487		5781.250000
1488		5859.375000
1489		5859.375000
1490		5859.375000
1491		5859.375000
1492		5859.375000
1493		5859.375000
1494		5859.375000
1495		5859.375000
1496		5859.375000
1497		5859.375000
1498		5859.375000
1499		5859.375000
1500		5859.375000
1501		5859.375000
1502		5859.375000
1503		5859.375000
1504		5859.375000
1505		5859.375000
1506		5859.375000
1507		5859.375000
1508		5859.375000
1509		5859.375000
1510		5859.375000
1511		5859.375000
1512		5859.375000
1513		5937.500000
1514		5937.500000
1515		5937.500000
1516		5937.500000
1517		5937.500000
1518		5937.500000
1519		5937.500000
1520		5937.500000
1521		5937.500000
1522		5937.500000
1523		5937.500000
1524		5937.500000
1525		5937.500000
1526		5937.500000
1527		5937.500000
1528		5937.500000
1529		5937.500000
1530		5937.500000
1531		5937.500000
1532		5937.500000
1533		5937.500000
1534		5937.500000
1535		5937.500000
1536		5937.500000
1537		5937.500000
1538		5937.500000
1539		5937.500000
1540		5937.500000
1541		5937.500000
1542		5937.500000
1543		5937.500000
1544		5937.500000
1545		5937.500000
1546		5937.500000
1547		5937.500000
1548		5937.500000
1549		5937.500000
1550		5937.500000
1551		5937.500000
1552		5937.500000
1553		5937.500000
1554		5937.500000
1555		5937.500000
1556		5937.500000
1557		5937.500000
1558		5937.500000
1559		5937.500000
1560		5937.500000
1561		5937.500000
1562		5937.500000
1563		5937.500000
1564		5937.500000
1565		5937.500000
1566		5937.500000
1567		5937.500000
1568		5937.500000
1569		5937.500000
1570		5937.500000
1571		5937.500000
1572		5937.500000
1573		5859.375000
1574		5859.375000
1575		5859.375000
1576		5859.375000
1577		5859.375000
1578		5859.375000
1579		5859.375000
1580		5859.375000
1581		5859.375000
1582		5859.375000
1583		5859.375000
1584		5859.375000
1585		5859.375000
1586		5859.375000
1587		5859.375000
1588		5859.375000
1589		5859.375000
1590		5859.375000
1591		5859.375000
1592		5859.375000
1593		5859.375000
1594		5781.250000
1595		5781.250000
1596		5781.250000
1597		5781.250000
1598		5781.250000
1599		5781.250000
1600		5781.250000
1601		5781.250000
1602		5781.250000
1603		5781.250000
1604		5781.250000
1605		5781.250000
1606		5781.250000
1607		5781.250000
1608		5781.250000
1609		5781.250000
1610		5781.250000
1611		5781.250000
1612		5781.250000
1613		5781.250000
1614		5703.125000
1615		5703.125000
1616		5703.125000
1617		5703.125000
1618		5703.125000
1619		5703.125000
1620		5703.125000
1621		5703.125000
1622		5703.125000
1623		5703.125000
1624		5703.125000
1625		5703.125000
1626		5703.125000
1627		5625.000000
1628		5703.125000
1629		5625.000000
1630		5625.000000
1631		5625.000000
1632		5625.000000
1633		5625.000000
1634		5625.000000
1635		5625.000000
1636		5625.000000
1637		5625.000000
1638		5625.000000
1639		5625.000000
1640		5625.000000
1641		5625.000000
1642		5546.875000
1643		5546.875000
1644		5546.875000
1645		5546.875000
1646		5546.875000
1647		5546.875000
1648		5546.875000
1649		5546.875000
1650		5546.875000
1651		5546.875000
1652		5468.750000
1653		5468.750000
1654		5468.750000
1655		5468.750000
1656		5468.750000
1657		5468.750000
1658		5468.750000
1659		5468.750000
1660		5468.750000
1661		5468.750000
1662		5468.750000
1663		5468.750000
1664		5390.625000
1665		5390.625000
1666		5390.625000
1667		5390.625000
1668		5390.625000
1669		5390.625000
1670		5390.625000
1671		5390.625000
1672		5390.625000
1673		5312.500000
1674		5312.500000
1675		5312.500000
1676		5312.500000
1677		5312.500000
1678		5312.500000
1679		5312.500000
1680		5312.500000
1681		5312.500000
1682		5312.500000
1683		5312.500000
1684		5234.375000
1685		5234.375000
1686		5234.375000
1687		5234.375000
1688		5234.375000
1689		5234.375000
1690		5234.375000
1691		5234.375000
1692		5156.250000
1693		5156.250000
1694		5156.250000
1695		5156.250000
1696		5156.250000
1697		5156.250000
1698		5156.250000
1699		5156.250000
1700		5156.250000
1701		5156.250000
1702		5078.125000
1703		5078.125000
1704		5078.125000
1705		5078.125000
1706		5078.125000
1707		5078.125000
1708		5078.125000
1709		5078.125000
1710		5000.000000
1711		5000.000000
1712		5000.000000
1713		5000.000000
1714		5000.000000
1715		5000.000000
1716		5000.000000
1717		5000.000000
1718		5000.000000
1719		4921.875000
1720		4921.875000
1721		4921.875000
1722		4921.875000
1723		4921.875000
1724		4921.875000
1725		4921.875000
1726		4921.875000
1727		4921.875000
1728		4921.875000
1729		4843.750000
1730		4843.750000
1731		4843.750000
1732		4843.750000
1733		4843.750000
1734		4843.750000
1735		4843.750000
1736		4765.625000
1737		4765.625000
1738		4765.625000
1739		4765.625000
1740		4765.625000
1741		4765.625000
1742		4765.625000
1743		4765.625000
1744		4765.625000
1745		4687.500000
1746		4687.500000
1747		4687.500000
1748		4687.500000
1749		4687.500000
1750		4687.500000
1751		4687.500000
1752		4687.500000
1753		4687.500000
1754		4609.375000
1755		4609.375000
1756		4609.375000
1757		4609.375000
1758		4609.375000
1759		4609.375000
1760		4609.375000
1761		4609.375000
1762		4609.375000
1763		4531.250000
1764		4531.250000
1765		4531.250000
1766		4531.250000
1767		4531.250000
1768		4531.250000
1769		4531.250000
1770		4531.250000
1771		4453.125000
1772		4453.125000
1773		4453.125000
1774		4453.125000
1775		4453.125000
1776		4453.125000
1777		4453.125000
1778		4453.125000
1779		4453.125000
1780		4375.000000
1781		4375.000000
1782		4375.000000
1783		4375.000000
1784		4375.000000
1785		4375.000000
1786		4375.000000
1787		4375.000000
1788		4375.000000
1789		4296.875000
1790		4296.875000
1791		4296.875000
1792		4296.875000
1793		4296.875000
1794		4296.875000
1795		4296.875000
1796		4218.750000
1797		4296.875000
1798		4218.750000
1799		4218.750000
1800		4218.750000
1801		4218.750000
1802		4218.750000
1803		4218.750000
1804		4218.750000
1805		4218.750000
1806		4218.750000
1807		4140.625000
1808		4140.625000
1809		4140.625000
1810		4140.625000
1811		4140.625000
1812		4140.625000
1813		4140.625000
1814		4140.625000
1815		4140.625000
1816		4062.500000
1817		4062.500000
1818		4062.500000
1819		4062.500000
1820		4062.500000
1821		4062.500000
1822		4062.500000
1823		4062.500000
1824		4062.500000
1825		3984.375000
1826		3984.375000
1827		3984.375000
1828		3984.375000
1829		3984.375000
1830		3984.375000
1831		3984.375000
1832		3984.375000
1833		3984.375000
1834		3906.250000
1835		3906.250000
1836		3906.250000
1837		3906.250000
1838		3906.250000
1839		3906.250000
1840		3906.250000
1841		3906.250000
1842		3906.250000
1843		3906.250000
1844		3906.250000
1845		3828.125000
1846		3828.125000
1847		3828.125000
1848		3828.125000
1849		3828.125000
1850		3828.125000
1851		3828.125000
1852		3828.125000
1853		3828.125000
1854		3828.125000
1855		3828.125000
1856		3750.000000
1857		3750.000000
1858		3750.000000
1859		3750.000000
1860		3750.000000
1861		3750.000000
1862		3750.000000
1863		3750.000000
1864		3750.000000
1865		3750.000000
1866		3671.875000
1867		3671.875000
1868		3671.875000
1869		3671.875000
1870		3671.875000
1871		3671.875000
1872		3671.875000
1873		3671.875000
1874		3671.875000
1875		3671.875000
1876		3671.875000
1877		3671.875000
1878		3593.750000
1879		3593.750000
1880		3593.750000
1881		3593.750000
1882		3593.750000
1883		3593.750000
1884		3593.750000
1885		3593.750000
1886		3593.750000
1887		3593.750000
1888		3593.750000
1889		3515.625000
1890		3515.625000
1891		3515.625000
1892		3515.625000
1893		3515.625000
1894		3515.625000
1895		3515.625000
1896		3515.625000
1897		3515.625000
1898		3515.625000
1899		3515.625000
1900		3515.625000
1901		3515.625000
1902		3437.500000
1903		3437.500000
1904		3437.500000
1905		3437.500000
1906		3437.500000
1907		3437.500000
1908		3437.500000
1909		3437.500000
1910		3437.500000
1911		3437.500000
1912		3437.500000
1913		3437.500000
1914		3437.500000
1915		3437.500000
1916		3359.375000
1917		3359.375000
1918		3359.375000
1919		3359.375000
1920		3359.375000
1921		3359.375000
1922		3359.375000
1923		3359.375000
1924		3359.375000
1925		3359.375000
1926		3359.375000
1927		3359.375000
1928		3359.375000
1929		3359.375000
1930		3359.375000
1931		3281.250000
1932		3281.250000
1933		3281.250000
1934		3281.250000
1935		3281.250000
1936		3281.250000
1937		3281.250000
1938		3281.250000
1939		3281.250000
1940		3281.250000
1941		3281.250000
1942		3281.250000
1943		3281.250000
1944		3203.125000
1945		3203.125000
1946		3281.250000
1947		3203.125000
1948		3203.125000
1949		3203.125000
1950		3203.125000
1951		3203.125000
1952		3203.125000
1953		3203.125000
1954		3203.125000
1955		3203.125000
1956		3125.000000
1957		3203.125000
1958		3203.125000
1959		3203.125000
1960		3203.125000
1961		3125.000000
1962		3125.000000
1963		3125.000000
1964		3125.000000
1965		3125.000000
1966		3125.000000
1967		3125.000000
1968		3125.000000
1969		3125.000000
1970		3125.000000
1971		3125.000000
1972		3125.000000
1973		3125.000000
1974		3125.000000
1975		3125.000000
1976		3125.000000
1977		3046.875000
1978		3046.875000
1979		3046.875000
1980		3046.875000
1981		3046.875000
1982		3046.875000
1983		3046.875000
1984		3046.875000
1985		3046.875000
1986		3046.875000
1987		3046.875000
1988		3046.875000
1989		3046.875000
1990		3046.875000
1991		3046.875000
1992		3046.875000
1993		3046.875000
1994		3046.875000
1995		2968.750000
1996		3046.875000
1997		2968.750000
1998		2968.750000
1999		2968.750000
2000		2968.750000
2001		2968.750000
2002		2968.750000
2003		2968.750000
2004		2968.750000
2005		2968.750000
2006		2968.750000
2007		2968.750000
2008		2968.750000
2009		2968.750000
2010		2968.750000
2011		2968.750000
2012		2968.750000
2013		2968.750000
2014		2968.750000
2015		2968.750000
2016		2890.625000
2017		2968.750000
2018		2890.625000
2019		2890.625000
2020		2890.625000
2021		2890.625000
2022		2890.625000
2023		2890.625000
2024		2890.625000
2025		2890.625000
2026		2890.625000
2027		2890.625000
2028		2890.625000
2029		2890.625000
2030		2890.625000
2031		2890.625000
2032		2890.625000
2033		2890.625000
2034		2890.625000
2035		2890.625000
2036		2890.625000
2037		2890.625000
2038		2890.625000
2039		2890.625000
2040		2890.625000
2041		2890.625000
2042		2890.625000
2043		2812.500000
2044		2812.500000
2045		2812.500000
2046		2812.500000
2047		2812.500000
2048		2812.500000
2049		2812.500000
2050		2812.500000
2051		2812.500000
2052		2812.500000
2053		2812.500000
2054		2812.500000
2055		2812.500000
2056		2812.500000
2057		2812.500000
2058		2812.500000
2059		2812.500000
2060		2812.500000
2061		2812.500000
2062		2812.500000
2063		2812.500000
2064		2812.500000
2065		2812.500000
2066		2812.500000
2067		2812.500000
2068		2734.375000
2069		2734.375000
2070		2734.375000
2071		2734.375000
2072		2734.375000
2073		2734.375000
2074		2734.375000
2075		2734.375000
2076		2734.375000
2077		2734.375000
2078		2734.375000
2079		2734.375000
2080		2734.375000
2081		2734.375000
2082		2734.375000
2083		2734.375000
2084		2734.375000
2085		2734.375000
2086		2734.375000
2087		2734.375000
2088		2734.375000
2089		2734.375000
2090		2734.375000
2091		2734.375000
2092		2734.375000
2093		2734.375000
2094		2734.375000
2095		2656.250000
2096		2734.375000
2097		2734.375000
2098		2734.375000
2099		2734.375000
2100		2734.375000
2101		2656.250000
2102		2656.250000
2103		2656.250000
2104		2656.250000
2105		2656.250000
2106		2656.250000
2107		2656.250000
2108		2656.250000
2109		2656.250000
2110		2656.250000
2111		2656.250000
2112		2656.250000
2113		2656.250000
2114		2656.250000
2115		2656.250000
2116		2656.250000
2117		2656.250000
2118		2656.250000
2119		2656.250000
2120		2656.250000
2121		2656.250000
2122		2656.250000
2123		2656.250000
2124		2656.250000
2125		2656.250000
2126		2656.250000
2127		2656.250000
2128		2656.250000
2129		2656.250000
2130		2656.250000
2131		2656.250000
2132		2656.250000
2133		2656.250000
2134		2656.250000
2135		2656.250000
2136		2656.250000
2137		2578.125000
2138		2656.250000
2139		2578.125000
2140		2578.125000
2141		2578.125000
2142		2656.250000
2143		2578.125000
2144		2578.125000
2145		2578.125000
2146		2578.125000
2147		2578.125000
2148		2578.125000
2149		2578.125000
2150		2578.125000
2151		2578.125000
2152		2578.125000
2153		2578.125000
2154		2578.125000
2155		2578.125000
2156		2578.125000
2157		2578.125000
2158		2578.125000
2159		2578.125000
2160		2578.125000
2161		2578.125000
2162		2578.125000
2163		2578.125000
2164		2578.125000
2165		2578.125000
2166		2578.125000
2167		2578.125000
2168		2578.125000
2169		2578.125000
2170		2578.125000
2171		2578.125000
2172		2578.125000
2173		2578.125000
2174		2578.125000
2175		2578.125000
2176		2578.125000
2177		2578.125000
2178		2578.125000
2179		2578.125000
2180		2578.125000
2181		2578.125000
2182		2578.125000
2183		2578.125000
2184		2578.125000
2185		2578.125000
2186		2578.125000
2187		2578.125000
2188		2578.125000
2189		2500.000000
2190		2578.125000
2191		2578.125000
2192		2578.125000
2193		2578.125000
2194		2578.125000
2195		2578.125000
2196		2578.125000
2197		2578.125000
2198		2578.125000
2199		2578.125000
2200		2578.125000
2201		2578.125000
2202		2578.125000
2203		2578.125000
2204		2578.125000
2205		2578.125000
2206		2578.125000
2207		2578.125000
2208		2500.000000
2209		2500.000000
2210		2500.000000
2211		2500.000000
2212		2500.000000
2213		2500.000000
2214		2500.000000
2215		2500.000000
2216		2500.000000
2217		2500.000000
2218		2500.000000
2219		2500.000000
2220		2500.000000
2221		2500.000000
2222		2500.000000
2223		2578.125000
2224		2500.000000
2225		2500.000000
2226		2500.000000
2227		2500.000000
2228		2500.000000
2229		2500.000000
2230		2500.000000
2231		2500.000000
2232		2500.000000
2233		2500.000000
2234		2500.000000
2235		2500.000000
2236		2500.000000
2237		2500.000000
2238		2500.000000
2239		2500.000000
2240		2500.000000
2241		2500.000000
2242		2500.000000
2243		2500.000000
2244		2500.000000
2245		2500.000000
2246		2500.000000
2247		2500.000000
2248		2500.000000
2249		2500.000000
2250		2500.000000
2251		2500.000000
2252		2500.000000
2253		2500.000000
2254		2500.000000
2255		2500.000000
2256		2500.000000
2257		2500.000000
2258		2500.000000
2259		2500.000000
2260		2500.000000
2261		2500.000000
2262		2500.000000
2263		2500.000000
2264		2500.000000
2265		2500.000000
2266		2500.000000
2267		2500.000000
2268		2500.000000
2269		2500.000000
2270		2500.000000
2271		2500.000000
2272		2500.000000
2273		2500.000000
2274		2500.000000
2275		2500.000000
2276		2500.000000
2277		2500.000000
2278		2500.000000
2279		2500.000000
2280		2500.000000
2281		2500.000000
2282		2500.000000
2283		2500.000000
2284		2500.000000
2285		2500.000000
2286		2500.000000
2287		2500.000000
2288		2500.000000
2289		2500.000000
2290		2500.000000
2291		2500.000000
2292		2500.000000
2293		2500.000000
2294		2500.000000
2295		2500.000000
2296		2500.000000
2297		2500.000000
2298		2500.000000
2299		2500.000000
2300		2500.000000
2301		2500.000000
2302		2500.000000
2303		2500.000000
2304		2500.000000
2305		2500.000000
2306		2500.000000
2307		2578.125000
2308		2578.125000
2309		2500.000000
2310		2578.125000
2311		2500.000000
2312		2500.000000
2313		2500.000000
2314		2578.125000
2315		2500.000000
2316		2578.125000
2317		2500.000000
2318		2578.125000
2319		2578.125000
2320		2578.125000
2321		2500.000000
2322		2578.125000
2323		2578.125000
2324		2578.125000
2325		2578.125000
2326		2578.125000
2327		2578.125000
2328		2578.125000
2329		2578.125000
2330		2578.125000
2331		2578.125000
2332		2578.125000
2333		2578.125000
2334		2578.125000
2335		2578.125000
2336		2578.125000
2337		2578.125000
2338		2578.125000
2339		2578.125000
2340		2578.125000
2341		2578.125000
2342		2578.125000
2343		2578.125000
2344		2578.125000
2345		2578.125000
2346		2578.125000
2347		2578.125000
2348		2578.125000
2349		2578.125000
2350		2578.125000
2351		2578.125000
2352		2578.125000
2353		2578.125000
2354		2578.125000
2355		2578.125000
2356		2578.125000
2357		2578.125000
2358		2578.125000
2359		2578.125000
2360		2578.125000
2361		2578.125000
2362		2578.125000
2363		2578.125000
2364		2578.125000
2365		2578.125000
2366		2578.125000
2367		2578.125000
2368		2578.125000
2369		2578.125000
2370		2578.125000
2371		2578.125000
2372		2578.125000
2373		2578.125000
2374		2578.125000
2375		2578.125000
2376		2578.125000
2377		2578.125000
2378		2578.125000
2379		2656.250000
2380		2578.125000
2381		2656.250000
2382		2656.250000
2383		2656.250000
2384		2656.250000
2385		2656.250000
2386		2656.250000
2387		2656.250000
2388		2656.250000
2389		2656.250000
2390		2656.250000
2391		2656.250000
2392		2656.250000
2393		2656.250000
2394		2656.250000
2395		2656.250000
2396		2656.250000
2397		2656.250000
2398		2656.250000
2399		2656.250000
2400		2656.250000
2401		2656.250000
2402		2656.250000
2403		2656.250000
2404		2656.250000
2405		2656.250000
2406		2656.250000
2407		2656.250000
2408		2656.250000
2409		2656.250000
2410		2656.250000
2411		2656.250000
2412		2656.250000
2413		2656.250000
2414		2656.250000
2415		2656.250000
2416		2656.250000
2417		2656.250000
2418		2656.250000
2419		2734.375000
2420		2734.375000
2421		2734.375000
2422		2734.375000
2423		2734.375000
2424		2734.375000
2425		2734.375000
2426		2734.375000
2427		2734.375000
2428		2734.375000
2429		2734.375000
2430		2734.375000
2431		2734.375000
2432		2734.375000
2433		2734.375000
2434		2734.375000
2435		2734.375000
2436		2734.375000
2437		2734.375000
2438		2734.375000
2439		2734.375000
2440		2734.375000
2441		2734.375000
2442		2734.375000
2443		2734.375000
2444		2734.375000
2445		2734.375000
2446		2734.375000
2447		2734.375000
2448		2734.375000
2449		2734.375000
2450		2734.375000
2451		2734.375000
2452		2812.500000
2453		2812.500000
2454		2812.500000
2455		2812.500000
2456		2812.500000
2457		2812.500000
2458		2812.500000
2459		2812.500000
2460		2812.500000
2461		2812.500000
2462		2812.500000
2463		2812.500000
2464		2812.500000
2465		2812.500000
2466		2812.500000
2467		2812.500000
2468		2812.500000
2469		2812.500000
2470		2812.500000
2471		2812.500000
2472		2812.500000
2473		2812.500000
2474		2812.500000
2475		2812.500000
2476		2812.500000
2477		2890.625000
2478		2890.625000
2479		2890.625000
2480		2890.625000
2481		2890.625000
2482		2890.625000
2483		2890.625000
2484		2890.625000
2485		2890.625000
2486		2890.625000
2487		2890.625000
2488		2890.625000
2489		2890.625000
2490		2890.625000
2491		2890.625000
2492		2890.625000
2493		2890.625000
2494		2890.625000
2495		2890.625000
2496		2890.625000
2497		2890.625000
2498		2890.625000
2499		2890.625000
2500		2968.750000
2501		2968.750000
2502		2968.750000
2503		2968.750000
2504		2968.750000
2505		2968.750000
2506		2968.750000
2507		2968.750000
2508		2968.750000
2509		2968.750000
2510		2968.750000
2511		2968.750000
2512		2968.750000
2513		2968.750000
2514		2968.750000
2515		2968.750000
2516		2968.750000
2517		2968.750000
2518		3046.875000
2519		3046.875000
2520		3046.875000
2521		3046.875000
2522		3046.875000
2523		3046.875000
2524		3046.875000
2525		3046.875000
2526		3046.875000
2527		3046.875000
2528		3046.875000
2529		3046.875000
2530		3046.875000
2531		3046.875000
2532		3046.875000
2533		3125.000000
2534		3046.875000
2535		3125.000000
2536		3125.000000
2537		3125.000000
2538		3125.000000
2539		3125.000000
2540		3125.000000
2541		3125.000000
2542		3125.000000
2543		3125.000000
2544		3125.000000
2545		3125.000000
2546		3125.000000
2547		3125.000000
2548		3125.000000
2549		3125.000000
2550		3203.125000
2551		3203.125000
2552		3203.125000
2553		3203.125000
2554		3203.125000
2555		3203.125000
2556		3203.125000
2557		3203.125000
2558		3203.125000
2559		3203.125000
2560		3203.125000
2561		3203.125000
2562		3203.125000
2563		3281.250000
2564		3281.250000
2565		3281.250000
2566		3281.250000
2567		3281.250000
2568		3281.250000
2569		3281.250000
2570		3281.250000
2571		3281.250000
2572		3281.250000
2573		3281.250000
2574		3281.250000
2575		3281.250000
2576		3281.250000
2577		3281.250000
2578		3359.375000
2579		3359.375000
2580		3359.375000
2581		3359.375000
2582		3359.375000
2583		3359.375000
2584		3359.375000
2585		3359.375000
2586		3359.375000
2587		3359.375000
2588		3359.375000
2589		3359.375000
2590		3359.375000
2591		3437.500000
2592		3437.500000
2593		3437.500000
2594		3437.500000
2595		3437.500000
2596		3437.500000
2597		3437.500000
2598		3437.500000
2599		3437.500000
2600		3437.500000
2601		3437.500000
2602		3515.625000
2603		3515.625000
2604		3515.625000
2605		3515.625000
2606		3515.625000
2607		3515.625000
2608		3515.625000
2609		3515.625000
2610		3515.625000
2611		3515.625000
2612		3515.625000
2613		3515.625000
2614		3515.625000
2615		3593.750000
2616		3593.750000
2617		3593.750000
2618		3593.750000
2619		3593.750000
2620		3593.750000
2621		3593.750000
2622		3593.750000
2623		3593.750000
2624		3671.875000
2625		3671.875000
2626		3671.875000
2627		3671.875000
2628		3671.875000
2629		3671.875000
2630		3671.875000
2631		3671.875000
2632		3671.875000
2633		3671.875000
2634		3750.000000
2635		3750.000000
2636		3750.000000
2637		3750.000000
2638		3750.000000
2639		3750.000000
2640		3750.000000
2641		3750.000000
2642		3750.000000
2643		3750.000000
2644		3828.125000
2645		3828.125000
2646		3828.125000
2647		3828.125000
2648		3828.125000
2649		3828.125000
2650		3828.125000
2651		3828.125000
2652		3828.125000
2653		3906.250000
2654		3906.250000
2655		3906.250000
2656		3906.250000
2657		3906.250000
2658		3906.250000
2659		3906.250000
2660		3906.250000
2661		3906.250000
2662		3906.250000
2663		3984.375000
2664		3984.375000
2665		3984.375000
2666		3984.375000
2667		3984.375000
2668		3984.375000
2669		3984.375000
2670		3984.375000
2671		3984.375000
2672		4062.500000
2673		4062.500000
2674		4062.500000
2675		4062.500000
2676		4062.500000
2677		4062.500000
2678		4062.500000
2679		4062.500000
2680		4062.500000
2681		4140.625000
2682		4140.625000
2683		4140.625000
2684		4140.625000
2685		4140.625000
2686		4140.625000
2687		4140.625000
2688		4140.625000
2689		4218.750000
2690		4218.750000
2691		4218.750000
2692		4218.750000
2693		4218.750000
2694		4218.750000
2695		4218.750000
2696		4218.750000
2697		4218.750000
2698		4296.875000
2699		4296.875000
2700		4296.875000
2701		4296.875000
2702		4296.875000
2703		4296.875000
2704		4296.875000
2705		4296.875000
2706		4375.000000
2707		4375.000000
2708		4375.000000
2709		4375.000000
2710		4375.000000
2711		4375.000000
2712		4375.000000
2713		4375.000000
2714		4375.000000
2715		4453.125000
2716		4453.125000
2717		4453.125000
2718		4453.125000
2719		4453.125000
2720		4453.125000
2721		4453.125000
2722		4453.125000
2723		4531.250000
2724		4531.250000
2725		4531.250000
2726		4531.250000
2727		4531.250000
2728		4531.250000
2729		4531.250000
2730		4531.250000
2731		4609.375000
2732		4609.375000
2733		4609.375000
2734		4609.375000
2735		4609.375000
2736		4609.375000
2737		4609.375000
2738		4609.375000
2739		4687.500000
2740		4687.500000
2741		4687.500000
2742		4687.500000
2743		4687.500000
2744		4687.500000
2745		4687.500000
2746		4687.500000
2747		4765.625000
2748		4765.625000
2749		4765.625000
2750		4765.625000
2751		4765.625000
2752		4765.625000
2753		4765.625000
2754		4765.625000
2755		4765.625000
2756		4765.625000
2757		4843.750000
2758		4843.750000
2759		4843.750000
2760		4843.750000
2761		4843.750000
2762		4843.750000
2763		4843.750000
2764		4921.875000
2765		4921.875000
2766		4921.875000
2767		4921.875000
2768		4921.875000
2769		4921.875000
2770		4921.875000
2771		4921.875000
2772		4921.875000
2773		5000.000000
2774		5000.000000
2775		5000.000000
2776		5000.000000
2777		5000.000000
2778		5000.000000
2779		5000.000000
2780		5000.000000
2781		5078.125000
2782		5078.125000
2783		5078.125000
2784		5078.125000
2785		5078.125000
2786		5078.125000
2787		5078.125000
2788		5078.125000
2789		5078.125000
2790		5078.125000
2791		5156.250000
2792		5156.250000
2793		5156.250000
2794		5156.250000
2795		5156.250000
2796		5156.250000
2797		5156.250000
2798		5156.250000
2799		5234.375000
2800		5234.375000
2801		5234.375000
2802		5234.375000
2803		5234.375000
2804		5234.375000
2805		5234.375000
2806		5234.375000
2807		5234.375000
2808		5234.375000
2809		5234.375000
2810		5312.500000
2811		5312.500000
2812		5312.500000
2813		5312.500000
2814		5312.500000
2815		5312.500000
2816		5312.500000
2817		5312.500000
2818		5312.500000
2819		5390.625000
2820		5390.625000
2821		5390.625000
2822		5390.625000
2823		5390.625000
2824		5390.625000
2825		5390.625000
2826		5390.625000
2827		5390.625000
2828		5390.625000
2829		5390.625000
2830		5390.625000
2831		5468.750000
2832		5468.750000
2833		5468.750000
2834		5468.750000
2835		5468.750000
2836		5468.750000
2837		5468.750000
2838		5468.750000
2839		5468.750000
2840		5468.750000
2841		5546.875000
2842		5546.875000
2843		5546.875000
2844		5546.875000
2845		5546.875000
2846		5546.875000
2847		5546.875000
2848		5546.875000
2849		5546.875000
2850		5546.875000
2851		5546.875000
2852		5546.875000
2853		5625.000000
2854		5625.000000
2855		5625.000000
2856		5625.000000
2857		5625.000000
2858		5625.000000
2859		5625.000000
2860		5625.000000
2861		5625.000000
2862		5625.000000
2863		5625.000000
2864		5625.000000
2865		5625.000000
2866		5625.000000
2867		5625.000000
2868		5703.125000
2869		5703.125000
2870		5703.125000
2871		5703.125000
2872		5703.125000
2873		5703.125000
2874		5703.125000
2875		5703.125000
2876		5703.125000
2877		5703.125000
2878		5703.125000
2879		5703.125000
2880		5703.125000
2881		5703.125000
2882		5703.125000
2883		5703.125000
2884		5781.250000
2885		5781.250000
2886		5781.250000
2887		5781.250000
2888		5781.250000
2889		5781.250000
2890		5781.250000
2891		5781.250000
2892		5781.250000
2893		5781.250000
2894		5781.250000
2895		5781.250000
2896		5781.250000
2897		5781.250000
2898		5781.250000
2899		5781.250000
2900		5781.250000
2901		5781.250000
2902		5781.250000
2903		5781.250000
2904		5859.375000
2905		5781.250000
2906		5781.250000
2907		5859.375000
2908		5859.375000
2909		5859.375000
2910		5859.375000
2911		5859.375000
2912		5859.375000
2913		5859.375000
2914		5859.375000
2915		5859.375000
2916		5859.375000
2917		5859.375000
2918		5859.375000
2919		5859.375000
2920		5859.375000
2921		5859.375000
2922		5859.375000
2923		5859.375000
2924		5859.375000
2925		5859.375000
2926		5859.375000
2927		5859.375000
2928		5859.375000
2929		5859.375000
2930		5859.375000
2931		5859.375000
2932		5859.375000
2933		5859.375000
2934		5859.375000
2935		5859.375000
2936		5859.375000
2937		5859.375000
2938		5859.375000
2939		5859.375000
2940		5859.375000
2941		5859.375000
2942		5859.375000
2943		5859.375000
2944		5859.375000
2945		5859.375000
2946		5859.375000
2947		5859.375000
2948		5859.375000
2949		5859.375000
2950		5859.375000
2951		5859.375000
2952		5859.375000
2953		5859.375000
2954		5859.375000
2955		5859.375000
2956		5859.375000
2957		5859.375000
2958		5859.375000
2959		5859.375000
2960		5859.375000
2961		5859.375000
2962		5859.375000
2963		5859.375000
2964		5859.375000
2965		5859.375000
2966		5859.375000
2967		5859.375000
2968		5859.375000
2969		5859.375000
2970		5859.375000
2971		5859.375000
2972		5859.375000
2973		5859.375000
2974		5859.375000
2975		5859.375000
2976		5859.375000
2977		5859.375000
2978		5859.375000
2979		5859.375000
2980		5859.375000
2981		5859.375000
2982		5859.375000
2983		5859.375000
2984		5859.375000
2985		5781.250000
2986		5781.250000
2987		5781.250000
2988		5781.250000
2989		5781.250000
2990		5781.250000
2991		5781.250000
2992		5781.250000
2993		5781.250000
2994		5781.250000
2995		5781.250000
2996		5781.250000
2997		5781.250000
2998		5781.250000
2999		5781.250000
3000		5781.250000
3001		5781.250000
3002		5781.250000
3003		5781.250000
3004		5781.250000
3005		5781.250000
3006		5781.250000
3007		5781.250000
3008		5703.125000
3009		5703.125000
3010		5703.125000
3011		5703.125000
3012		5703.125000
3013		5703.125000
3014		5703.125000
3015		5703.125000
3016		5703.125000
3017		5703.125000
3018		5703.125000
3019		5703.125000
3020		5703.125000
3021		5703.125000
3022		5703.125000
3023		5703.125000
3024		5625.000000
3025		5625.000000
3026		5625.000000
3027		5625.000000
3028		5625.000000
3029		5625.000000
3030		5625.000000
3031		5625.000000
3032		5625.000000
3033		5625.000000
3034		5625.000000
3035		5625.000000
3036		5625.000000
3037		5625.000000
3038		5546.875000
3039		5625.000000
3040		5546.875000
3041		5546.875000
3042		5546.875000
3043		5546.875000
3044		5546.875000
3045		5546.875000
3046		5546.875000
3047		5546.875000
3048		5546.875000
3049		5546.875000
3050		5468.750000
3051		5468.750000
3052		5468.750000
3053		5468.750000
3054		5468.750000
3055		5468.750000
3056		5468.750000
3057		5468.750000
3058		5468.750000
3059		5468.750000
3060		5468.750000
3061		5390.625000
3062		5390.625000
3063		5390.625000
3064		5390.625000
3065		5390.625000
3066		5390.625000
3067		5390.625000
3068		5390.625000
3069		5390.625000
3070		5390.625000
3071		5390.625000
3072		5390.625000
3073		5312.500000
3074		5312.500000
3075		5312.500000
3076		5312.500000
3077		5312.500000
3078		5312.500000
3079		5312.500000
3080		5312.500000
3081		5312.500000
3082		5312.500000
3083		5234.375000
3084		5234.375000
3085		5234.375000
3086		5234.375000
3087		5234.375000
3088		5234.375000
3089		5234.375000
3090		5234.375000
3091		5234.375000
3092		5156.250000
3093		5156.250000
3094		5156.250000
3095		5156.250000
3096		5156.250000
3097		5156.250000
3098		5156.250000
3099		5156.250000
3100		5156.250000
3101		5156.250000
3102		5078.125000
3103		5078.125000
3104		5078.125000
3105		5078.125000
3106		5078.125000
3107		5078.125000
3108		5078.125000
3109		5078.125000
3110		5078.125000
3111		5000.000000
3112		5000.000000
3113		5000.000000
3114		5000.000000
3115		5000.000000
3116		5000.000000
3117		5000.000000
3118		5000.000000
3119		5000.000000
3120		5000.000000
3121		4921.875000
3122		4921.875000
3123		4921.875000
3124		4921.875000
3125		4921.875000
3126		4921.875000
3127		4921.875000
3128		4921.875000
3129		4843.750000
3130		4843.750000
3131		4843.750000
3132		4843.750000
3133		4843.750000
3134		4843.750000
3135		4843.750000
3136		4843.750000
3137		4843.750000
3138		4765.625000
3139		4765.625000
3140		4765.625000
3141		4765.625000
3142		4765.625000
3143		4765.625000
3144		4765.625000
3145		4765.625000
3146		4765.625000
3147		4765.625000
3148		4687.500000
3149		4687.500000
3150		4687.500000
3151		4687.500000
3152		4687.500000
3153		4687.500000
3154		4687.500000
3155		4609.375000
3156		4609.375000
3157		4609.375000
3158		4609.375000
3159		4609.375000
3160		4609.375000
3161		4609.375000
3162		4609.375000
3163		4531.250000
3164		4609.375000
3165		4609.375000
3166		4531.250000
3167		4531.250000
3168		4531.250000
3169		4531.250000
3170		4531.250000
3171		4531.250000
3172		4531.250000
3173		4453.125000
3174		4453.125000
3175		4453.125000
3176		4453.125000
3177		4453.125000
3178		4453.125000
3179		4453.125000
3180		4453.125000
3181		4453.125000
3182		4453.125000
3183		4375.000000
3184		4375.000000
3185		4375.000000
3186		4375.000000
3187		4375.000000
3188		4375.000000
3189		4375.000000
3190		4375.000000
3191		4296.875000
3192		4296.875000
3193		4296.875000
3194		4296.875000
3195		4296.875000
3196		4296.875000
3197		4296.875000
3198		4296.875000
3199		4296.875000
3200		4296.875000
3201		4296.875000
3202		4218.750000
3203		4218.750000
3204		4218.750000
3205		4218.750000
3206		4218.750000
3207		4218.750000
3208		4218.750000
3209		4218.750000
3210		4140.625000
3211		4140.625000
3212		4140.625000
3213		4140.625000
3214		4140.625000
3215		4140.625000
3216		4140.625000
3217		4140.625000
3218		4140.625000
3219		4062.500000
3220		4062.500000
3221		4062.500000
3222		4062.500000
3223		4062.500000
3224		4062.500000
3225		4062.500000
3226		4062.500000
3227		4062.500000
3228		4062.500000
3229		3984.375000
3230		3984.375000
3231		3984.375000
3232		3984.375000
3233		3984.375000
3234		3984.375000
3235		3984.375000
3236		3984.375000
3237		3984.375000
3238		3984.375000
3239		3906.250000
3240		3906.250000
3241		3906.250000
3242		3906.250000
3243		3906.250000
3244		3906.250000
3245		3906.250000
3246		3906.250000
3247		3906.250000
3248		3906.250000
3249		3828.125000
3250		3828.125000
3251		3828.125000
3252		3828.125000
3253		3828.125000
3254		3828.125000
3255		3828.125000
3256		3828.125000
3257		3828.125000
3258		3828.125000
3259		3828.125000
3260		3750.000000
3261		3750.000000
3262		3750.000000
3263		3750.000000
3264		3750.000000
3265		3750.000000
3266		3750.000000
3267		3750.000000
3268		3750.000000
3269		3750.000000
3270		3750.000000
3271		3750.000000
3272		3671.875000
3273		3671.875000
3274		3671.875000
3275		3671.875000
3276		3671.875000
3277		3671.875000
3278		3671.875000
3279		3671.875000
3280		3671.875000
3281		3671.875000
3282		3671.875000
3283		3593.750000
3284		3671.875000
3285		3671.875000
3286		3593.750000
3287		3593.750000
3288		3593.750000
3289		3593.750000
3290		3593.750000
3291		3593.750000
3292		3593.750000
3293		3593.750000
3294		3515.625000
3295		3515.625000
3296		3515.625000
3297		3515.625000
3298		3515.625000
3299		3515.625000
3300		3515.625000
3301		3515.625000
3302		3515.625000
3303		3515.625000
3304		3515.625000
3305		3515.625000
3306		3437.500000
3307		3515.625000
3308		3437.500000
3309		3437.500000
3310		3437.500000
3311		3437.500000
3312		3437.500000
3313		3437.500000
3314		3437.500000
3315		3437.500000
3316		3437.500000
3317		3437.500000
3318		3437.500000
3319		3437.500000
3320		3437.500000
3321		3359.375000
3322		3359.375000
3323		3359.375000
3324		3359.375000
3325		3359.375000
3326		3359.375000
3327		3359.375000
3328		3359.375000
3329		3359.375000
3330		3359.375000
3331		3359.375000
3332		3359.375000
3333		3359.375000
3334		3359.375000
3335		3281.250000
3336		3281.250000
3337		3281.250000
3338		3281.250000
3339		3281.250000
3340		3281.250000
3341		3281.250000
3342		3281.250000
3343		3281.250000
3344		3281.250000
3345		3281.250000
3346		3281.250000
3347		3281.250000
3348		3281.250000
3349		3281.250000
3350		3203.125000
3351		3203.125000
3352		3203.125000
3353		3203.125000
3354		3203.125000
3355		3203.125000
3356		3203.125000
3357		3203.125000
3358		3203.125000
3359		3203.125000
3360		3203.125000
3361		3203.125000
3362		3203.125000
3363		3203.125000
3364		3203.125000
3365		3203.125000
3366		3203.125000
3367		3125.000000
3368		3125.000000
3369		3125.000000
3370		3125.000000
3371		3125.000000
3372		3125.000000
3373		3125.000000
3374		3125.000000
3375		3125.000000
3376		3125.000000
3377		3125.000000
3378		3125.000000
3379		3125.000000
3380		3125.000000
3381		3125.000000
3382		3125.000000
3383		3125.000000
3384		3125.000000
3385		3046.875000
3386		3046.875000
3387		3046.875000
3388		3046.875000
3389		3046.875000
3390		3046.875000
3391		3046.875000
3392		3046.875000
3393		3046.875000
3394		3046.875000
3395		3046.875000
3396		3046.875000
3397		3046.875000
3398		3046.875000
3399		3046.875000
3400		3046.875000
3401		3046.875000
3402		3046.875000
3403		3046.875000
3404		2968.750000
3405		2968.750000
3406		2968.750000
3407		2968.750000
3408		2968.750000
3409		2968.750000
3410		2968.750000
3411		2968.750000
3412		2968.750000
3413		2968.750000
3414		2968.750000
3415		2968.750000
3416		2968.750000
3417		2968.750000
3418		2968.750000
3419		2968.750000
3420		2968.750000
3421		2968.750000
3422		2968.750000
3423		2968.750000
3424		2968.750000
3425		2890.625000
3426		2890.625000
3427		2890.625000
3428		2890.625000
3429		2890.625000
3430		2890.625000
3431		2890.625000
3432		2890.625000
3433		2890.625000
3434		2890.625000
3435		2890.625000
3436		2890.625000
3437		2890.625000
3438		2890.625000
3439		2890.625000
3440		2890.625000
3441		2890.625000
3442		2890.625000
3443		2890.625000
3444		2890.625000
3445		2890.625000
3446		2890.625000
3447		2890.625000
3448		2890.625000
3449		2812.500000
3450		2812.500000
3451		2812.500000
3452		2812.500000
3453		2812.500000
3454		2812.500000
3455		2812.500000
3456		2812.500000
3457		2812.500000
3458		2812.500000
3459		2812.500000
3460		2812.500000
3461		2812.500000
3462		2812.500000
3463		2812.500000
3464		2812.500000
3465		2812.500000
3466		2812.500000
3467		2812.500000
3468		2812.500000
3469		2812.500000
3470		2812.500000
3471		2812.500000
3472		2812.500000
3473		2812.500000
3474		2734.375000
3475		2812.500000
3476		2812.500000
3477		2734.375000
3478		2812.500000
3479		2734.375000
3480		2734.375000
3481		2734.375000
3482		2734.375000
3483		2734.375000
3484		2734.375000
3485		2734.375000
3486		2734.375000
3487		2734.375000
3488		2734.375000
3489		2734.375000
3490		2734.375000
3491		2734.375000
3492		2734.375000
3493		2734.375000
3494		2734.375000
3495		2734.375000
3496		2734.375000
3497		2734.375000
3498		2734.375000
3499		2734.375000
3500		2734.375000
3501		2734.375000
3502		2734.375000
3503		2734.375000
3504		2734.375000
3505		2734.375000
3506		2734.375000
3507		2734.375000
3508		2734.375000
3509		2734.375000
3510		2734.375000
3511		2656.250000
3512		2656.250000
3513		2656.250000
3514		2656.250000
3515		2656.250000
3516		2656.250000
3517		2656.250000
3518		2656.250000
3519		2656.250000
3520		2656.250000
3521		2656.250000
3522		2656.250000
3523		2656.250000
3524		2656.250000
3525		2656.250000
3526		2656.250000
3527		2656.250000
3528		2656.250000
3529		2656.250000
3530		2656.250000
3531		2656.250000
3532		2656.250000
3533		2656.250000
3534		2656.250000
3535		2656.250000
3536		2656.250000
3537		2656.250000
3538		2656.250000
3539		2656.250000
3540		2656.250000
3541		2656.250000
3542		2656.250000
3543		2656.250000
3544		2656.250000
3545		2656.250000
3546		2656.250000
3547		2656.250000
3548		2656.250000
3549		2578.125000
3550		2578.125000
3551		2578.125000
3552		2578.125000
3553		2578.125000
3554		2578.125000
3555		2578.125000
3556		2578.125000
3557		2578.125000
3558		2578.125000
3559		2578.125000
3560		2578.125000
3561		2578.125000
3562		2578.125000
3563		2578.125000
3564		2578.125000
3565		2578.125000
3566		2578.125000
3567		2578.125000
3568		2578.125000
3569		2578.125000
3570		2578.125000
3571		2578.125000
3572		2578.125000
3573		2578.125000
3574		2578.125000
3575		2578.125000
3576		2578.125000
3577		2578.125000
3578		2578.125000
3579		2578.125000
3580		2578.125000
3581		2578.125000
3582		2578.125000
3583		2578.125000
3584		2578.125000
3585		2578.125000
3586		2578.125000
3587		2578.125000
3588		2578.125000
3589		2578.125000
3590		2578.125000
3591		2578.125000
3592		2578.125000
3593		2578.125000
3594		2578.125000
3595		2578.125000
3596		2578.125000
3597		2578.125000
3598		2578.125000
3599		2578.125000
3600		2578.125000
3601		2578.125000
3602		2578.125000
3603		2578.125000
3604		2578.125000
3605		2578.125000
3606		2578.125000
3607		2578.125000
3608		2578.125000
3609		2578.125000
3610		2578.125000
3611		2578.125000
3612		2578.125000
3613		2578.125000
3614		2578.125000
3615		2578.125000
3616		2578.125000
3617		2578.125000
3618		2578.125000
3619		2578.125000
3620		2578.125000
3621		2578.125000
3622		2578.125000
3623		2578.125000
3624		2578.125000
3625		2500.000000
3626		2578.125000
3627		2578.125000
3628		2578.125000
3629		2578.125000
3630		2578.125000
3631		2578.125000
3632		2578.125000
3633		2578.125000
3634		2578.125000
3635		2578.125000
3636		2578.125000
3637		2578.125000
3638		2578.125000
3639		2500.000000
3640		2500.000000
3641		2578.125000
3642		2500.000000
3643		2578.125000
3644		2578.125000
3645		2578.125000
3646		2500.000000
3647		2578.125000
3648		2578.125000
3649		2500.000000
3650		2500.000000
3651		2578.125000
3652		2578.125000
3653		2578.125000
3654		2578.125000
3655		2500.000000
3656		2500.000000
3657		2500.000000
3658		2500.000000
3659		2500.000000
3660		2578.125000
3661		2500.000000
3662		2500.000000
3663		2578.125000
3664		2578.125000
3665		2578.125000
3666		2578.125000
3667		2500.000000
3668		2500.000000
3669		2578.125000
3670		2500.000000
3671		2500.000000
3672		2500.000000
3673		2500.000000
3674		2500.000000
3675		2500.000000
3676		2500.000000
3677		2500.000000
3678		2500.000000
3679		2500.000000
3680		2578.125000
3681		2500.000000
3682		2500.000000
3683		2578.125000
3684		2578.125000
3685		2500.000000
3686		2578.125000
3687		2578.125000
3688		2578.125000
3689		2500.000000
3690		2578.125000
3691		2500.000000
3692		2500.000000
3693		2500.000000
3694		2500.000000
3695		2500.000000
3696		2500.000000
3697		2500.000000
3698		2578.125000
3699		2578.125000
3700		2578.125000
3701		2578.125000
3702		2578.125000
3703		2578.125000
3704		2578.125000
3705		2578.125000
3706		2578.125000
3707		2578.125000
3708		2578.125000
3709		2578.125000
3710		2578.125000
3711		2578.125000
3712		2578.125000
3713		2578.125000
3714		2578.125000
3715		2578.125000
3716		2578.125000
3717		2578.125000
3718		2578.125000
3719		2578.125000
3720		2578.125000
3721		2578.125000
3722		2578.125000
3723		2578.125000
3724		2578.125000
3725		2578.125000
3726		2578.125000
3727		2500.000000
3728		2578.125000
3729		2578.125000
3730		2578.125000
3731		2578.125000
3732		2578.125000
3733		2578.125000
3734		2578.125000
3735		2578.125000
3736		2578.125000
3737		2578.125000
3738		2578.125000
3739		2578.125000
3740		2578.125000
3741		2578.125000
3742		2578.125000
3743		2578.125000
3744		2578.125000
3745		2578.125000
3746		2578.125000
3747		2578.125000
3748		2578.125000
3749		2578.125000
3750		2578.125000
3751		2578.125000
3752		2578.125000
3753		2578.125000
3754		2578.125000
3755		2578.125000
3756		2578.125000
3757		2578.125000
3758		2578.125000
3759		2578.125000
3760		2578.125000
3761		2578.125000
3762		2578.125000
3763		2578.125000
3764		2578.125000
3765		2578.125000
3766		2578.125000
3767		2578.125000
3768		2578.125000
3769		2578.125000
3770		2578.125000
3771		2578.125000
3772		2578.125000
3773		2578.125000
3774		2578.125000
3775		2578.125000
3776		2578.125000
3777		2578.125000
3778		2656.250000
3779		2578.125000
3780		2656.250000
3781		2656.250000
3782		2656.250000
3783		2656.250000
3784		2656.250000
3785		2578.125000
3786		2656.250000
3787		2656.250000
3788		2656.250000
3789		2656.250000
3790		2656.250000
3791		2656.250000
3792		2656.250000
3793		2656.250000
3794		2656.250000
3795		2656.250000
3796		2656.250000
3797		2656.250000
3798		2656.250000
3799		2656.250000
3800		2656.250000
3801		2656.250000
3802		2656.250000
3803		2656.250000
3804		2656.250000
3805		2656.250000
3806		2656.250000
3807		2656.250000
3808		2656.250000
3809		2656.250000
3810		2656.250000
3811		2656.250000
3812		2656.250000
3813		2656.250000
3814		2656.250000
3815		2656.250000
3816		2656.250000
3817		2656.250000
3818		2656.250000
3819		2734.375000
3820		2656.250000
3821		2656.250000
3822		2734.375000
3823		2734.375000
3824		2734.375000
3825		2734.375000
3826		2734.375000
3827		2734.375000
3828		2734.375000
3829		2734.375000
3830		2734.375000
3831		2734.375000
3832		2734.375000
3833		2734.375000
3834		2734.375000
3835		2734.375000
3836		2734.375000
3837		2734.375000
3838		2734.375000
3839		2734.375000
3840		2734.375000
3841		2734.375000
3842		2734.375000
3843		2734.375000
3844		2734.375000
3845		2734.375000
3846		2734.375000
3847		2734.375000
3848		2734.375000
3849		2734.375000
3850		2812.500000
3851		2734.375000
3852		2734.375000
3853		2734.375000
3854		2734.375000
3855		2812.500000
3856		2812.500000
3857		2812.500000
3858		2812.500000
3859		2812.500000
3860		2812.500000
3861		2812.500000
3862		2812.500000
3863		2812.500000
3864		2812.500000
3865		2812.500000
3866		2812.500000
3867		2812.500000
3868		2812.500000
3869		2812.500000
3870		2812.500000
3871		2812.500000
3872		2812.500000
3873		2812.500000
3874		2812.500000
3875		2812.500000
3876		2812.500000
3877		2812.500000
3878		2812.500000
3879		2890.625000
3880		2890.625000
3881		2890.625000
3882		2890.625000
3883		2890.625000
3884		2890.625000
3885		2890.625000
3886		2890.625000
3887		2890.625000
3888		2890.625000
3889		2890.625000
3890		2890.625000
3891		2890.625000
3892		2890.625000
3893		2890.625000
3894		2890.625000
3895		2890.625000
3896		2890.625000
3897		2890.625000
3898		2890.625000
3899		2968.750000
3900		2968.750000
3901		2968.750000
3902		2968.750000
3903		2968.750000
3904		2968.750000
3905		2968.750000
3906		2968.750000
3907		2968.750000
3908		2968.750000
3909		2968.750000
3910		2968.750000
3911		2968.750000
3912		2968.750000
3913		2968.750000
3914		2968.750000
3915		2968.750000
3916		2968.750000
3917		2968.750000
3918		2968.750000
3919		2968.750000
3920		3046.875000
3921		3046.875000
3922		3046.875000
3923		3046.875000
3924		3046.875000
3925		3046.875000
3926		3046.875000
3927		3046.875000
3928		3046.875000
3929		3046.875000
3930		3046.875000
3931		3046.875000
3932		3046.875000
3933		3046.875000
3934		3046.875000
3935		3046.875000
3936		3125.000000
3937		3046.875000
3938		3125.000000
3939		3125.000000
3940		3125.000000
3941		3125.000000
3942		3125.000000
3943		3125.000000
3944		3125.000000
3945		3125.000000
3946		3125.000000
3947		3125.000000
3948		3125.000000
3949		3125.000000
3950		3203.125000
3951		3125.000000
3952		3125.000000
3953		3203.125000
3954		3203.125000
3955		3203.125000
3956		3203.125000
3957		3203.125000
3958		3203.125000
3959		3203.125000
3960		3203.125000
3961		3203.125000
3962		3203.125000
3963		3203.125000
3964		3203.125000
3965		3281.250000
3966		3281.250000
3967		3281.250000
3968		3281.250000
3969		3281.250000
3970		3281.250000
3971		3281.250000
3972		3281.250000
3973		3281.250000
3974		3281.250000
3975		3281.250000
3976		3281.250000
3977		3281.250000
3978		3281.250000
3979		3359.375000
3980		3359.375000
3981		3359.375000
3982		3359.375000
3983		3359.375000
3984		3359.375000
3985		3359.375000
3986		3359.375000
3987		3359.375000
3988		3359.375000
3989		3359.375000
3990		3359.375000
3991		3359.375000
3992		3359.375000
3993		3437.500000
3994		3437.500000
3995		3437.500000
3996		3437.500000
3997		3437.500000
3998		3437.500000
3999		3437.500000
4000		3437.500000
4001		3437.500000
4002		3437.500000
4003		3437.500000
4004		3437.500000
4005		3515.625000
4006		3515.625000
4007		3515.625000
4008		3515.625000
4009		3515.625000
4010		3515.625000
4011		3515.625000
4012		3515.625000
4013		3515.625000
4014		3515.625000
4015		3593.750000
4016		3593.750000
4017		3593.750000
4018		3593.750000
4019		3593.750000
4020		3593.750000
4021		3593.750000
4022		3593.750000
4023		3593.750000
4024		3593.750000
4025		3671.875000
4026		3593.750000
4027		3671.875000
4028		3671.875000
4029		3671.875000
4030		3671.875000
4031		3671.875000
4032		3671.875000
4033		3671.875000
4034		3671.875000
4035		3671.875000
4036		3750.000000
4037		3750.000000
4038		3750.000000
4039		3750.000000
4040		3750.000000
4041		3750.000000
4042		3750.000000
4043		3750.000000
4044		3750.000000
4045		3828.125000
4046		3828.125000
4047		3828.125000
4048		3828.125000
4049		3828.125000
4050		3828.125000
4051		3828.125000
4052		3828.125000
4053		3828.125000
4054		3828.125000
4055		3906.250000
4056		3906.250000
4057		3906.250000
4058		3906.250000
4059		3906.250000
4060		3906.250000
4061		3906.250000
4062		3906.250000
4063		3906.250000
4064		3984.375000
4065		3984.375000
4066		3984.375000
4067		3984.375000
4068		3984.375000
4069		3984.375000
4070		3984.375000
4071		3984.375000
4072		3984.375000
4073		3984.375000
4074		4062.500000
4075		4062.500000
4076		4062.500000
4077		4062.500000
4078		4062.500000
4079		4062.500000
4080		4062.500000
4081		4062.500000
4082		4140.625000
4083		4140.625000
4084		4140.625000
4085		4140.625000
4086		4140.625000
4087		4140.625000
4088		4140.625000
4089		4140.625000
4090		4140.625000
4091		4218.750000
4092		4218.750000
4093		4218.750000
4094		4218.750000
4095		4218.750000
4096		4218.750000
4097		4218.750000
4098		4218.750000
4099		4218.750000
4100		4296.875000
4101		4296.875000
4102		4296.875000
4103		4296.875000
4104		4296.875000
4105		4296.875000
4106		4296.875000
4107		4296.875000
4108		4375.000000
4109		4375.000000
4110		4375.000000
4111		4375.000000
4112		4375.000000
4113		4375.000000
4114		4375.000000
4115		4375.000000
4116		4453.125000
4117		4453.125000
4118		4453.125000
4119		4453.125000
4120		4453.125000
4121		4453.125000
4122		4453.125000
4123		4453.125000
4124		4531.250000
4125		4531.250000
4126		4531.250000
4127		4531.250000
4128		4531.250000
4129		4531.250000
4130		4531.250000
4131		4531.250000
4132		4531.250000
4133		4609.375000
4134		4609.375000
4135		4609.375000
4136		4609.375000
4137		4609.375000
4138		4609.375000
4139		4609.375000
4140		4687.500000
4141		4687.500000
4142		4687.500000
4143		4687.500000
4144		4687.500000
4145		4687.500000
4146		4687.500000
4147		4687.500000
4148		4687.500000
4149		4687.500000
4150		4765.625000
4151		4765.625000
4152		4765.625000
4153		4765.625000
4154		4765.625000
4155		4765.625000
4156		4765.625000
4157		4765.625000
4158		4843.750000
4159		4843.750000
4160		4843.750000
4161		4843.750000
4162		4843.750000
4163		4843.750000
4164		4843.750000
4165		4843.750000
4166		4921.875000
4167		4921.875000
4168		4921.875000
4169		4921.875000
4170		4921.875000
4171		4921.875000
4172		4921.875000
4173		4921.875000
4174		4921.875000
4175		5000.000000
4176		5000.000000
4177		5000.000000
4178		5000.000000
4179		5000.000000
4180		5000.000000
4181		5000.000000
4182		5000.000000
4183		5000.000000
4184		5078.125000
4185		5078.125000
4186		5078.125000
4187		5078.125000
4188		5078.125000
4189		5078.125000
4190		5078.125000
4191		5078.125000
4192		5078.125000
4193		5078.125000
4194		5156.250000
4195		5156.250000
4196		5156.250000
4197		5156.250000
4198		5156.250000
4199		5156.250000
4200		5156.250000
4201		5156.250000
4202		5156.250000
4203		5156.250000
4204		5234.375000
4205		5234.375000
4206		5234.375000
4207		5234.375000
4208		5234.375000
4209		5234.375000
4210		5234.375000
4211		5234.375000
4212		5234.375000
4213		5312.500000
4214		5312.500000
4215		5312.500000
4216		5312.500000
4217		5312.500000
4218		5312.500000
4219		5312.500000
4220		5312.500000
4221		5312.500000
4222		5312.500000
4223		5390.625000
4224		5390.625000
4225		5390.625000
4226		5390.625000
4227		5390.625000
4228		5390.625000
4229		5390.625000
4230		5390.625000
4231		5390.625000
4232		5390.625000
4233		5468.750000
4234		5468.750000
4235		5468.750000
4236		5468.750000
4237		5468.750000
4238		5468.750000
4239		5468.750000
4240		5468.750000
4241		5468.750000
4242		5468.750000
4243		5546.875000
4244		5546.875000
4245		5546.875000
4246		5546.875000
4247		5546.875000
4248		5546.875000
4249		5546.875000
4250		5546.875000
4251		5546.875000
4252		5546.875000
4253		5546.875000
4254		5546.875000
4255		5546.875000
4256		5546.875000
4257		5625.000000
4258		5625.000000
4259		5625.000000
4260		5625.000000
4261		5625.000000
4262		5625.000000
4263		5625.000000
4264		5625.000000
4265		5625.000000
4266		5625.000000
4267		5625.000000
4268		5625.000000
4269		5625.000000
4270		5625.000000
4271		5703.125000
4272		5703.125000
4273		5703.125000
4274		5703.125000
4275		5703.125000
4276		5703.125000
4277		5703.125000
4278		5703.125000
4279		5703.125000
4280		5703.125000
4281		5703.125000
4282		5703.125000
4283		5703.125000
4284		5781.250000
4285		5781.250000
4286		5781.250000
4287		5781.250000
4288		5781.250000
4289		5781.250000
4290		5781.250000
4291		5781.250000
4292		5781.250000
4293		5781.250000
4294		5781.250000
4295		5781.250000
4296		5781.250000
4297		5781.250000
4298		5781.250000
4299		5781.250000
4300		5781.250000
4301		5781.250000
4302		5781.250000
4303		5781.250000
4304		5781.250000
4305		5781.250000
4306		5781.250000
4307		5859.375000
4308		5859.375000
4309		5859.375000
4310		5781.250000
4311		5859.375000
4312		5859.375000
4313		5859.375000
4314		5859.375000
4315		5859.375000
4316		5859.375000
4317		5859.375000
4318		5859.375000
4319		5859.375000
4320		5859.375000
4321		5859.375000
4322		5859.375000
4323		5859.375000
4324		5859.375000
4325		5859.375000
4326		5859.375000
4327		5859.375000
4328		5859.375000
4329		5859.375000
4330		5859.375000
4331		5859.375000
4332		5859.375000
4333		5859.375000
4334		5859.375000
4335		5859.375000
4336		5859.375000
4337		5859.375000
4338		5859.375000
4339		5859.375000
4340		5859.375000
4341		5859.375000
4342		5859.375000
4343		5859.375000
4344		5859.375000
4345		5859.375000
4346		5859.375000
4347		5859.375000
4348		5859.375000
4349		5859.375000
4350		5859.375000
4351		5859.375000
4352		5859.375000
4353		5859.375000
4354		5859.375000
4355		5859.375000
4356		5859.375000
4357		5859.375000
4358		5859.375000
4359		5859.375000
4360		5859.375000
4361		5859.375000
4362		5859.375000
4363		5859.375000
4364		5859.375000
4365		5859.375000
4366		5859.375000
4367		5859.375000
4368		5859.375000
4369		5859.375000
4370		5859.375000
4371		5859.375000
4372		5859.375000
4373		5859.375000
4374		5859.375000
4375		5859.375000
4376		5859.375000
4377		5859.375000
4378		5859.375000
4379		5859.375000
4380		5859.375000
4381		5859.375000
4382		5859.375000
4383		5859.375000
4384		5859.375000
4385		5859.375000
4386		5859.375000
4387		5859.375000
4388		5859.375000
4389		5859.375000
4390		5859.375000
4391		5781.250000
4392		5781.250000
4393		5781.250000
4394		5781.250000
4395		5781.250000
4396		5781.250000
4397		5781.250000
4398		5781.250000
4399		5781.250000
4400		5781.250000
4401		5781.250000
4402		5781.250000
4403		5781.250000
4404		5781.250000
4405		5781.250000
4406		5781.250000
4407		5781.250000
4408		5781.250000
4409		5781.250000
4410		5781.250000
4411		5781.250000
4412		5781.250000
4413		5781.250000
4414		5703.125000
4415		5703.125000
4416		5703.125000
4417		5703.125000
4418		5703.125000
4419		5703.125000
4420		5703.125000
4421		5703.125000
4422		5703.125000
4423		5703.125000
4424		5703.125000
4425		5703.125000
4426		5703.125000
4427		5703.125000
4428		5703.125000
4429		5703.125000
4430		5703.125000
4431		5625.000000
4432		5625.000000
4433		5625.000000
4434		5625.000000
4435		5625.000000
4436		5625.000000
4437		5625.000000
4438		5625.000000
4439		5625.000000
4440		5625.000000
4441		5625.000000
4442		5625.000000
4443		5625.000000
4444		5625.000000
4445		5625.000000
4446		5546.875000
4447		5546.875000
4448		5546.875000
4449		5546.875000
4450		5546.875000
4451		5546.875000
4452		5546.875000
4453		5546.875000
4454		5546.875000
4455		5546.875000
4456		5546.875000
4457		5546.875000
4458		5468.750000
4459		5468.750000
4460		5468.750000
4461		5468.750000
4462		5468.750000
4463		5468.750000
4464		5468.750000
4465		5468.750000
4466		5468.750000
4467		5468.750000
4468		5468.750000
4469		5468.750000
4470		5390.625000
4471		5390.625000
4472		5390.625000
4473		5390.625000
4474		5390.625000
4475		5390.625000
4476		5390.625000
4477		5390.625000
4478		5390.625000
4479		5312.500000
4480		5390.625000
4481		5312.500000
4482		5312.500000
4483		5312.500000
4484		5312.500000
4485		5312.500000
4486		5312.500000
4487		5312.500000
4488		5312.500000
4489		5312.500000
4490		5234.375000
4491		5234.375000
4492		5234.375000
4493		5234.375000
4494		5234.375000
4495		5234.375000
4496		5234.375000
4497		5234.375000
4498		5234.375000
4499		5234.375000
4500		5156.250000
4501		5156.250000
4502		5156.250000
4503		5156.250000
4504		5156.250000
4505		5156.250000
4506		5156.250000
4507		5156.250000
4508		5156.250000
4509		5078.125000
4510		5078.125000
4511		5078.125000
4512		5078.125000
4513		5078.125000
4514		5078.125000
4515		5078.125000
4516		5078.125000
4517		5078.125000
4518		5078.125000
4519		5000.000000
4520		5000.000000
4521		5000.000000
4522		5000.000000
4523		5000.000000
4524		5000.000000
4525		5000.000000
4526		5000.000000
4527		4921.875000
4528		4921.875000
4529		4921.875000
4530		4921.875000
4531		4921.875000
4532		4921.875000
4533		4921.875000
4534		4921.875000
4535		4921.875000
4536		4843.750000
4537		4843.750000
4538		4843.750000
4539		4843.750000
4540		4843.750000
4541		4843.750000
4542		4843.750000
4543		4843.750000
4544		4843.750000
4545		4843.750000
4546		4765.625000
4547		4765.625000
4548		4765.625000
4549		4765.625000
4550		4765.625000
4551		4765.625000
4552		4765.625000
4553		4765.625000
4554		4687.500000
4555		4687.500000
4556		4687.500000
4557		4687.500000
4558		4687.500000
4559		4687.500000
4560		4687.500000
4561		4687.500000
4562		4687.500000
4563		4609.375000
4564		4609.375000
4565		4609.375000
4566		4609.375000
4567		4609.375000
4568		4609.375000
4569		4609.375000
4570		4609.375000
4571		4609.375000
4572		4531.250000
4573		4531.250000
4574		4531.250000
4575		4531.250000
4576		4531.250000
4577		4531.250000
4578		4531.250000
4579		4531.250000
4580		4531.250000
4581		4453.125000
4582		4453.125000
4583		4453.125000
4584		4453.125000
4585		4453.125000
4586		4453.125000
4587		4453.125000
4588		4453.125000
4589		4453.125000
4590		4375.000000
4591		4375.000000
4592		4375.000000
4593		4375.000000
4594		4375.000000
4595		4375.000000
4596		4375.000000
4597		4375.000000
4598		4375.000000
4599		4296.875000
4600		4296.875000
4601		4296.875000
4602		4296.875000
4603		4296.875000
4604		4296.875000
4605		4296.875000
4606		4296.875000
4607		4296.875000
4608		4296.875000
4609		4218.750000
4610		4218.750000
4611		4218.750000
4612		4218.750000
4613		4218.750000
4614		4218.750000
4615		4218.750000
4616		4218.750000
4617		4218.750000
4618		4140.625000
4619		4140.625000
4620		4140.625000
4621		4140.625000
4622		4140.625000
4623		4140.625000
4624		4140.625000
4625		4140.625000
4626		4140.625000
4627		4140.625000
4628		4062.500000
4629		4062.500000
4630		4062.500000
4631		4062.500000
4632		4062.500000
4633		4062.500000
4634		4062.500000
4635		4062.500000
4636		4062.500000
4637		3984.375000
4638		3984.375000
4639		3984.375000
4640		3984.375000
4641		3984.375000
4642		3984.375000
4643		3984.375000
4644		3984.375000
4645		3984.375000
4646		3984.375000
4647		3984.375000
4648		3906.250000
4649		3906.250000
4650		3906.250000
4651		3906.250000
4652		3906.250000
4653		3906.250000
4654		3906.250000
4655		3906.250000
4656		3906.250000
4657		3906.250000
4658		3906.250000
4659		3828.125000
4660		3828.125000
4661		3828.125000
4662		3828.125000
4663		3828.125000
4664		3828.125000
4665		3828.125000
4666		3828.125000
4667		3828.125000
4668		3828.125000
4669		3750.000000
4670		3750.000000
4671		3750.000000
4672		3750.000000
4673		3750.000000
4674		3750.000000
4675		3750.000000
4676		3750.000000
4677		3750.000000
4678		3750.000000
4679		3750.000000
4680		3750.000000
4681		3671.875000
4682		3671.875000
4683		3671.875000
4684		3671.875000
4685		3671.875000
4686		3671.875000
4687		3671.875000
4688		3671.875000
4689		3671.875000
4690		3671.875000
4691		3671.875000
4692		3593.750000
4693		3593.750000
4694		3593.750000
4695		3593.750000
4696		3593.750000
4697		3593.750000
4698		3593.750000
4699		3593.750000
4700		3593.750000
4701		3593.750000
4702		3593.750000
4703		3593.750000
4704		3593.750000
4705		3515.625000
4706		3515.625000
4707		3515.625000
4708		3515.625000
4709		3515.625000
4710		3515.625000
4711		3515.625000
4712		3515.625000
4713		3515.625000
4714		3515.625000
4715		3515.625000
4716		3515.625000
4717		3515.625000
4718		3515.625000
4719		3515.625000
4720		3437.500000
4721		3437.500000
4722		3437.500000
4723		3437.500000
4724		3437.500000
4725		3437.500000
4726		3437.500000
4727		3437.500000
4728		3437.500000
4729		3437.500000
4730		3437.500000
4731		3437.500000
4732		3359.375000
4733		3359.375000
4734		3359.375000
4735		3359.375000
4736		3359.375000
4737		3359.375000
4738		3359.375000
4739		3359.375000
4740		3359.375000
4741		3359.375000
4742		3359.375000
4743		3359.375000
4744		3359.375000
4745		3359.375000
4746		3359.375000
4747		3281.250000
4748		3281.250000
4749		3281.250000
4750		3281.250000
4751		3281.250000
4752		3281.250000
4753		3281.250000
4754		3281.250000
4755		3281.250000
4756		3281.250000
4757		3281.250000
4758		3281.250000
4759		3281.250000
4760		3281.250000
4761		3281.250000
4762		3281.250000
4763		3203.125000
4764		3203.125000
4765		3203.125000
4766		3203.125000
4767		3203.125000
4768		3203.125000
4769		3203.125000
4770		3203.125000
4771		3203.125000
4772		3203.125000
4773		3203.125000
4774		3203.125000
4775		3203.125000
4776		3203.125000
4777		3203.125000
4778		3203.125000
4779		3203.125000
4780		3203.125000
4781		3125.000000
4782		3125.000000
4783		3125.000000
4784		3125.000000
4785		3125.000000
4786		3125.000000
4787		3125.000000
4788		3125.000000
4789		3125.000000
4790		3125.000000
4791		3125.000000
4792		3125.000000
4793		3125.000000
4794		3125.000000
4795		3125.000000
4796		3046.875000
4797		3125.000000
4798		3046.875000
4799		3046.875000
4800		3046.875000
4801		3046.875000
4802		3046.875000
4803		3046.875000
4804		3046.875000
4805		3046.875000
4806		3046.875000
4807		3046.875000
4808		3046.875000
4809		3046.875000
4810		3046.875000
4811		3046.875000
4812		3046.875000
4813		3046.875000
4814		3046.875000
4815		3046.875000
4816		3046.875000
4817		3046.875000
4818		3046.875000
4819		3046.875000
4820		2968.750000
4821		2968.750000
4822		2968.750000
4823		2968.750000
4824		2968.750000
4825		2968.750000
4826		2968.750000
4827		2968.750000
4828		2968.750000
4829		2968.750000
4830		2968.750000
4831		2968.750000
4832		2968.750000
4833		2968.750000
4834		2968.750000
4835		2968.750000
4836		2968.750000
4837		2968.750000
4838		2968.750000
4839		2968.750000
4840		2968.750000
4841		2968.750000
4842		2968.750000
4843		2968.750000
4844		2968.750000
4845		2890.625000
4846		2968.750000
4847		2890.625000
4848		2890.625000
4849		2890.625000
4850		2890.625000
4851		2890.625000
4852		2890.625000
4853		2890.625000
4854		2890.625000
4855		2890.625000
4856		2890.625000
4857		2890.625000
4858		2890.625000
4859		2890.625000
4860		2890.625000
4861		2890.625000
4862		2890.625000
4863		2890.625000
4864		2890.625000
4865		2890.625000
4866		2890.625000
4867		2890.625000
4868		2890.625000
4869		2890.625000
4870		2812.500000
4871		2812.500000
4872		2812.500000
4873		2812.500000
4874		2812.500000
4875		2812.500000
4876		2812.500000
4877		2812.500000
4878		2812.500000
4879		2812.500000
4880		2812.500000
4881		2812.500000
4882		2812.500000
4883		2812.500000
4884		2812.500000
4885		2812.500000
4886		2812.500000
4887		2812.500000
4888		2812.500000
4889		2812.500000
4890		2812.500000
4891		2812.500000
4892		2812.500000
4893		2812.500000
4894		2812.500000
4895		2812.500000
4896		2812.500000
4897		2812.500000
4898		2812.500000
4899		2812.500000
4900		2812.500000
4901		2812.500000
4902		2812.500000
4903		2812.500000
4904		2812.500000
4905		2734.375000
4906		2734.375000
4907		2734.375000
4908		2734.375000
4909		2734.375000
4910		2734.375000
4911		2734.375000
4912		2734.375000
4913		2734.375000
4914		2734.375000
4915		2734.375000
4916		2734.375000
4917		2734.375000
4918		2734.375000
4919		2734.375000
4920		2734.375000
4921		2734.375000
4922		2734.375000
4923		2734.375000
4924		2734.375000
4925		2734.375000
4926		2734.375000
4927		2734.375000
4928		2734.375000
4929		2734.375000
4930		2734.375000
4931		2734.375000
4932		2734.375000
4933		2734.375000
4934		2734.375000
4935		2734.375000
4936		2734.375000
4937		2734.375000
4938		2734.375000
4939		2734.375000
4940		2734.375000
4941		2734.375000
4942		2734.375000
4943		2734.375000
4944		2734.375000
4945		2734.375000
4946		2734.375000
4947		2656.250000
4948		2656.250000
4949		2656.250000
4950		2656.250000
4951		2656.250000
4952		2656.250000
4953		2656.250000
4954		2656.250000
4955		2656.250000
4956		2656.250000
4957		2656.250000
4958		2656.250000
4959		2656.250000
4960		2656.250000
4961		2656.250000
4962		2656.250000
4963		2656.250000
4964		2656.250000
4965		2656.250000
4966		2656.250000
4967		2656.250000
4968		2656.250000
4969		2656.250000
4970		2656.250000
4971		2656.250000
4972		2656.250000
4973		2656.250000
4974		2656.250000
4975		2656.250000
4976		2656.250000
4977		2656.250000
4978		2656.250000
4979		2656.250000
4980		2656.250000
4981		2656.250000
4982		2656.250000
4983		2656.250000
4984		2656.250000
4985		2656.250000
4986		2656.250000
4987		2656.250000
4988		2656.250000
4989		2656.250000
4990		2656.250000
4991		2656.250000
4992		2656.250000
4993		2656.250000
4994		2656.250000
4995		2656.250000
4996		2656.250000
4997		2656.250000
4998		2656.250000
4999		2656.250000
5000		2656.250000
5001		2656.250000
5002		2656.250000
5003		2578.125000
5004		2656.250000
5005		2656.250000
5006		2656.250000
5007		2656.250000
5008		2656.250000
5009		2656.250000
5010		2578.125000
5011		2578.125000
5012		2656.250000
5013		2578.125000
5014		2578.125000
5015		2578.125000
5016		2578.125000
5017		2578.125000
5018		2578.125000
5019		2578.125000
5020		2578.125000
5021		2578.125000
5022		2656.250000
5023		2656.250000
5024		2656.250000
5025		2578.125000
5026		2656.250000
5027		2578.125000
5028		2578.125000
5029		2578.125000
5030		2578.125000
5031		2578.125000
5032		2578.125000
5033		2578.125000
5034		2578.125000
5035		2578.125000
5036		2578.125000
5037		2578.125000
5038		2578.125000
5039		2578.125000
5040		2578.125000
5041		2656.250000
5042		2578.125000
5043		2578.125000
5044		2656.250000
5045		2578.125000
5046		2578.125000
5047		2578.125000
5048		2578.125000
5049		2578.125000
5050		2578.125000
5051		2578.125000
5052		2578.125000
5053		2578.125000
5054		2578.125000
5055		2578.125000
5056		2578.125000
5057		2578.125000
5058		2578.125000
5059		2578.125000
5060		2578.125000
5061		2578.125000
5062		2578.125000
5063		2578.125000
5064		2578.125000
5065		2578.125000
5066		2578.125000
5067		2578.125000
5068		2578.125000
5069		2578.125000
5070		2578.125000
5071		2578.125000
5072		2578.125000
5073		2578.125000
5074		2578.125000
5075		2578.125000
5076		2578.125000
5077		2578.125000
5078		2578.125000
5079		2578.125000
5080		2578.125000
5081		2578.125000
5082		2578.125000
5083		2578.125000
5084		2578.125000
5085		2578.125000
5086		2578.125000
5087		2578.125000
5088		2578.125000
5089		2578.125000
5090		2578.125000
5091		2578.125000
5092		2578.125000
5093		2578.125000
5094		2578.125000
5095		2578.125000
5096		2578.125000
5097		2578.125000
5098		2578.125000
5099		2656.250000
5100		2578.125000
5101		2578.125000
5102		2578.125000
5103		2578.125000
5104		2578.125000
5105		2578.125000
5106		2578.125000
5107		2578.125000
5108		2578.125000
5109		2578.125000
5110		2578.125000
5111		2578.125000
5112		2578.125000
5113		2578.125000
5114		2578.125000
5115		2578.125000
5116		2578.125000
5117		2578.125000
5118		2656.250000
5119		2656.250000
5120		2656.250000
5121		2656.250000
5122		2656.250000
5123		2656.250000
5124		2656.250000
5125		2578.125000
5126		2578.125000
5127		2656.250000
5128		2656.250000
5129		2656.250000
5130		2656.250000
5131		2656.250000
5132		2656.250000
5133		2656.250000
5134		2656.250000
5135		2656.250000
5136		2656.250000
5137		2656.250000
5138		2656.250000
5139		2656.250000
5140		2656.250000
5141		2656.250000
5142		2656.250000
5143		2656.250000
5144		2656.250000
5145		2656.250000
5146		2656.250000
5147		2656.250000
5148		2656.250000
5149		2656.250000
5150		2656.250000
5151		2656.250000
5152		2656.250000
5153		2656.250000
5154		2656.250000
5155		2656.250000
5156		2656.250000
5157		2656.250000
5158		2656.250000
5159		2656.250000
5160		2656.250000
5161		2656.250000
5162		2656.250000
5163		2656.250000
5164		2656.250000
5165		2656.250000
5166		2656.250000
5167		2656.250000
5168		2656.250000
5169		2656.250000
5170		2656.250000
5171		2656.250000
5172		2656.250000
5173		2656.250000
5174		2656.250000
5175		2656.250000
5176		2656.250000
5177		2656.250000
5178		2656.250000
5179		2656.250000
5180		2656.250000
5181		2656.250000
5182		2656.250000
5183		2656.250000
5184		2656.250000
5185		2656.250000
5186		2656.250000
5187		2656.250000
5188		2656.250000
5189		2734.375000
5190		2734.375000
5191		2734.375000
5192		2734.375000
5193		2734.375000
5194		2734.375000
5195		2734.375000
5196		2734.375000
5197		2656.250000
5198		2734.375000
5199		2734.375000
5200		2734.375000
5201		2734.375000
5202		2734.375000
5203		2734.375000
5204		2734.375000
5205		2734.375000
5206		2734.375000
5207		2734.375000
5208		2734.375000
5209		2734.375000
5210		2734.375000
5211		2734.375000
5212		2734.375000
5213		2734.375000
5214		2734.375000
5215		2734.375000
5216		2734.375000
5217		2734.375000
5218		2734.375000
5219		2734.375000
5220		2734.375000
5221		2734.375000
5222		2734.375000
5223		2734.375000
5224		2734.375000
5225		2734.375000
5226		2734.375000
5227		2734.375000
5228		2812.500000
5229		2812.500000
5230		2734.375000
5231		2812.500000
5232		2734.375000
5233		2812.500000
5234		2812.500000
5235		2812.500000
5236		2812.500000
5237		2812.500000
5238		2812.500000
5239		2812.500000
5240		2812.500000
5241		2812.500000
5242		2812.500000
5243		2812.500000
5244		2812.500000
5245		2812.500000
5246		2812.500000
5247		2812.500000
5248		2812.500000
5249		2812.500000
5250		2812.500000
5251		2812.500000
5252		2812.500000
5253		2812.500000
5254		2812.500000
5255		2812.500000
5256		2812.500000
5257		2812.500000
5258		2812.500000
5259		2812.500000
5260		2890.625000
5261		2890.625000
5262		2890.625000
5263		2890.625000
5264		2890.625000
5265		2890.625000
5266		2890.625000
5267		2890.625000
5268		2890.625000
5269		2890.625000
5270		2890.625000
5271		2890.625000
5272		2890.625000
5273		2890.625000
5274		2890.625000
5275		2890.625000
5276		2890.625000
5277		2890.625000
5278		2890.625000
5279		2890.625000
5280		2890.625000
5281		2890.625000
5282		2890.625000
5283		2968.750000
5284		2890.625000
5285		2890.625000
5286		2890.625000
5287		2890.625000
5288		2968.750000
5289		2968.750000
5290		2968.750000
5291		2968.750000
5292		2968.750000
5293		2968.750000
5294		2968.750000
5295		2968.750000
5296		2968.750000
5297		2968.750000
5298		2968.750000
5299		2968.750000
5300		2968.750000
5301		2968.750000
5302		2968.750000
5303		2968.750000
5304		2968.750000
5305		2968.750000
5306		2968.750000
5307		2968.750000
5308		2968.750000
5309		3046.875000
5310		3046.875000
5311		3046.875000
5312		3046.875000
5313		3046.875000
5314		3046.875000
5315		3046.875000
5316		3046.875000
5317		3046.875000
5318		3046.875000
5319		3046.875000
5320		3046.875000
5321		3046.875000
5322		3046.875000
5323		3046.875000
5324		3046.875000
5325		3046.875000
5326		3046.875000
5327		3125.000000
5328		3125.000000
5329		3125.000000
5330		3125.000000
5331		3125.000000
5332		3125.000000
5333		3125.000000
5334		3125.000000
5335		3125.000000
5336		3125.000000
5337		3125.000000
5338		3125.000000
5339		3125.000000
5340		3125.000000
5341		3125.000000
5342		3125.000000
5343		3203.125000
5344		3203.125000
5345		3203.125000
5346		3203.125000
5347		3203.125000
5348		3203.125000
5349		3203.125000
5350		3203.125000
5351		3203.125000
5352		3203.125000
5353		3203.125000
5354		3203.125000
5355		3203.125000
5356		3203.125000
5357		3203.125000
5358		3281.250000
5359		3281.250000
5360		3281.250000
5361		3281.250000
5362		3281.250000
5363		3281.250000
5364		3281.250000
5365		3281.250000
5366		3281.250000
5367		3281.250000
5368		3281.250000
5369		3281.250000
5370		3281.250000
5371		3281.250000
5372		3281.250000
5373		3281.250000
5374		3359.375000
5375		3359.375000
5376		3359.375000
5377		3359.375000
5378		3359.375000
5379		3359.375000
5380		3359.375000
5381		3359.375000
5382		3359.375000
5383		3359.375000
5384		3359.375000
5385		3359.375000
5386		3437.500000
5387		3437.500000
5388		3437.500000
5389		3437.500000
5390		3437.500000
5391		3437.500000
5392		3437.500000
5393		3437.500000
5394		3437.500000
5395		3437.500000
5396		3437.500000
5397		3437.500000
5398		3437.500000
5399		3437.500000
5400		3515.625000
5401		3515.625000
5402		3515.625000
5403		3515.625000
5404		3515.625000
5405		3515.625000
5406		3515.625000
5407		3515.625000
5408		3515.625000
5409		3515.625000
5410		3515.625000
5411		3515.625000
5412		3515.625000
5413		3593.750000
5414		3593.750000
5415		3593.750000
5416		3593.750000
5417		3593.750000
5418		3593.750000
5419		3593.750000
5420		3593.750000
5421		3593.750000
5422		3671.875000
5423		3671.875000
5424		3671.875000
5425		3671.875000
5426		3671.875000
5427		3671.875000
5428		3671.875000
5429		3671.875000
5430		3671.875000
5431		3671.875000
5432		3671.875000
5433		3671.875000
5434		3671.875000
5435		3750.000000
5436		3750.000000
5437		3750.000000
5438		3750.000000
5439		3750.000000
5440		3750.000000
5441		3750.000000
5442		3750.000000
5443		3750.000000
5444		3828.125000
5445		3828.125000
5446		3828.125000
5447		3828.125000
5448		3828.125000
5449		3828.125000
5450		3828.125000
5451		3828.125000
5452		3828.125000
5453		3828.125000
5454		3828.125000
5455		3906.250000
5456		3906.250000
5457		3906.250000
5458		3906.250000
5459		3906.250000
5460		3906.250000
5461		3906.250000
5462		3906.250000
5463		3984.375000
5464		3984.375000
5465		3984.375000
5466		3984.375000
5467		3984.375000
5468		3984.375000
5469		3984.375000
5470		3984.375000
5471		3984.375000
5472		3984.375000
5473		3984.375000
5474		4062.500000
5475		4062.500000
5476		4062.500000
5477		4062.500000
5478		4062.500000
5479		4062.500000
5480		4062.500000
5481		4062.500000
5482		4140.625000
5483		4140.625000
5484		4140.625000
5485		4140.625000
5486		4140.625000
5487		4140.625000
5488		4140.625000
5489		4140.625000
5490		4140.625000
5491		4218.750000
5492		4218.750000
5493		4218.750000
5494		4218.750000
5495		4218.750000
5496		4218.750000
5497		4218.750000
5498		4218.750000
5499		4218.750000
5500		4296.875000
5501		4296.875000
5502		4296.875000
5503		4296.875000
5504		4296.875000
5505		4296.875000
5506		4296.875000
5507		4296.875000
5508		4296.875000
5509		4375.000000
5510		4375.000000
5511		4375.000000
5512		4375.000000
5513		4375.000000
5514		4375.000000
5515		4375.000000
5516		4375.000000
5517		4375.000000
5518		4453.125000
5519		4453.125000
5520		4453.125000
5521		4453.125000
5522		4453.125000
5523		4453.125000
5524		4453.125000
5525		4453.125000
5526		4453.125000
5527		4531.250000
5528		4531.250000
5529		4531.250000
5530		4531.250000
5531		4531.250000
5532		4531.250000
5533		4531.250000
5534		4531.250000
5535		4609.375000
5536		4609.375000
5537		4609.375000
5538		4609.375000
5539		4609.375000
5540		4609.375000
5541		4609.375000
5542		4609.375000
5543		4609.375000
5544		4687.500000
5545		4687.500000
5546		4687.500000
5547		4687.500000
5548		4687.500000
5549		4687.500000
5550		4687.500000
5551		4687.500000
5552		4687.500000
5553		4765.625000
5554		4765.625000
5555		4765.625000
5556		4765.625000
5557		4765.625000
5558		4765.625000
5559		4765.625000
5560		4843.750000
5561		4843.750000
5562		4843.750000
5563		4843.750000
5564		4843.750000
5565		4843.750000
5566		4843.750000
5567		4843.750000
5568		4843.750000
5569		4843.750000
5570		4921.875000
5571		4921.875000
5572		4921.875000
5573		4921.875000
5574		4921.875000
5575		4921.875000
5576		4921.875000
5577		4921.875000
5578		4921.875000
5579		5000.000000
5580		5000.000000
5581		5000.000000
5582		5000.000000
5583		5000.000000
5584		5000.000000
5585		5000.000000
5586		5000.000000
5587		5078.125000
5588		5078.125000
5589		5078.125000
5590		5078.125000
5591		5078.125000
5592		5078.125000
5593		5078.125000
5594		5078.125000
5595		5078.125000
5596		5078.125000
5597		5156.250000
5598		5156.250000
5599		5156.250000
5600		5156.250000
5601		5156.250000
5602		5156.250000
5603		5156.250000
5604		5156.250000
5605		5234.375000
5606		5156.250000
5607		5234.375000
5608		5234.375000
5609		5234.375000
5610		5234.375000
5611		5234.375000
5612		5234.375000
5613		5234.375000
5614		5234.375000
5615		5234.375000
5616		5234.375000
5617		5312.500000
5618		5312.500000
5619		5312.500000
5620		5312.500000
5621		5312.500000
5622		5312.500000
5623		5312.500000
5624		5312.500000
5625		5312.500000
5626		5312.500000
5627		5390.625000
5628		5390.625000
5629		5390.625000
5630		5390.625000
5631		5390.625000
5632		5390.625000
5633		5390.625000
5634		5390.625000
5635		5390.625000
5636		5390.625000
5637		5390.625000
5638		5468.750000
5639		5468.750000
5640		5468.750000
5641		5468.750000
5642		5468.750000
5643		5468.750000
5644		5468.750000
5645		5468.750000
5646		5468.750000
5647		5468.750000
5648		5468.750000
5649		5468.750000
5650		5468.750000
5651		5546.875000
5652		5546.875000
5653		5546.875000
5654		5546.875000
5655		5546.875000
5656		5546.875000
5657		5546.875000
5658		5546.875000
5659		5546.875000
5660		5546.875000
5661		5625.000000
5662		5625.000000
5663		5625.000000
5664		5625.000000
5665		5625.000000
5666		5625.000000
5667		5625.000000
5668		5625.000000
5669		5625.000000
5670		5625.000000
5671		5625.000000
5672		5625.000000
5673		5625.000000
5674		5625.000000
5675		5625.000000
5676		5703.125000
5677		5703.125000
5678		5703.125000
5679		5703.125000
5680		5703.125000
5681		5703.125000
5682		5703.125000
5683		5703.125000
5684		5703.125000
5685		5703.125000
5686		5703.125000
5687		5703.125000
5688		5703.125000
5689		5703.125000
5690		5703.125000
5691		5703.125000
5692		5703.125000
5693		5703.125000
5694		5703.125000
5695		5703.125000
5696		5781.250000
5697		5781.250000
5698		5781.250000
5699		5781.250000
5700		5781.250000
5701		5781.250000
5702		5781.250000
5703		5781.250000
5704		5781.250000
5705		5781.250000
5706		5781.250000
5707		5781.250000
5708		5781.250000
5709		5781.250000
5710		5781.250000
5711		5781.250000
5712		5781.250000
5713		5781.250000
5714		5781.250000
5715		5781.250000
5716		5781.250000
5717		5781.250000
5718		5781.250000
5719		5781.250000
5720		5781.250000
5721		5781.250000
5722		5781.250000
5723		5859.375000
5724		5859.375000
5725		5859.375000
5726		5859.375000
5727		5859.375000
5728		5859.375000
5729		5859.375000
5730		5859.375000
5731		5859.375000
5732		5859.375000
5733		5859.375000
5734		5859.375000
5735		5859.375000
5736		5859.375000
5737		5859.375000
5738		5859.375000
5739		5859.375000
5740		5859.375000
5741		5859.375000
5742		5859.375000
5743		5859.375000
5744		5859.375000
5745		5859.375000
5746		5859.375000
5747		5859.375000
5748		5859.375000
5749		5859.375000
5750		5859.375000
5751		5859.375000
5752		5859.375000
5753		5859.375000
5754		5859.375000
5755		5859.375000
5756		5859.375000
5757		5859.375000
5758		5859.375000
5759		5859.375000
5760		5859.375000
5761		5859.375000
5762		5859.375000
5763		5859.375000
5764		5859.375000
5765		5859.375000
5766		5859.375000
5767		5859.375000
5768		5859.375000
5769		5859.375000
5770		5859.375000
5771		5859.375000
5772		5859.375000
5773		5859.375000
5774		5859.375000
5775		5859.375000
5776		5859.375000
5777		5859.375000
5778		5859.375000
5779		5859.375000
5780		5859.375000
5781		5859.375000
5782		5859.375000
5783		5781.250000
5784		5781.250000
5785		5781.250000
5786		5781.250000
5787		5781.250000
5788		5781.250000
5789		5781.250000
5790		5781.250000
5791		5781.250000
5792		5781.250000
5793		5781.250000
5794		5781.250000
5795		5781.250000
5796		5781.250000
5797		5781.250000
5798		5781.250000
5799		5781.250000
5800		5781.250000
5801		5781.250000
5802		5781.250000
5803		5781.250000
5804		5781.250000
5805		5781.250000
5806		5781.250000
5807		5781.250000
5808		5781.250000
5809		5703.125000
5810		5703.125000
5811		5703.125000
5812		5703.125000
5813		5703.125000
5814		5703.125000
5815		5703.125000
5816		5703.125000
5817		5703.125000
5818		5703.125000
5819		5703.125000
5820		5703.125000
5821		5703.125000
5822		5703.125000
5823		5703.125000
5824		5703.125000
5825		5703.125000
5826		5703.125000
5827		5703.125000
5828		5625.000000
5829		5625.000000
5830		5625.000000
5831		5625.000000
5832		5625.000000
5833		5625.000000
5834		5625.000000
5835		5625.000000
5836		5625.000000
5837		5625.000000
5838		5625.000000
5839		5625.000000
5840		5625.000000
5841		5625.000000
5842		5625.000000
5843		5546.875000
5844		5546.875000
5845		5546.875000
5846		5546.875000
5847		5546.875000
5848		5546.875000
5849		5546.875000
5850		5546.875000
5851		5546.875000
5852		5546.875000
5853		5546.875000
5854		5546.875000
5855		5468.750000
5856		5468.750000
5857		5468.750000
5858		5468.750000
5859		5468.750000
5860		5468.750000
5861		5468.750000
5862		5468.750000
5863		5468.750000
5864		5468.750000
5865		5468.750000
5866		5468.750000
5867		5390.625000
5868		5390.625000
5869		5390.625000
5870		5390.625000
5871		5390.625000
5872		5390.625000
5873		5390.625000
5874		5390.625000
5875		5390.625000
5876		5390.625000
5877		5390.625000
5878		5390.625000
5879		5390.625000
5880		5312.500000
5881		5312.500000
5882		5312.500000
5883		5312.500000
5884		5312.500000
5885		5312.500000
5886		5312.500000
5887		5312.500000
5888		5234.375000
5889		5234.375000
5890		5234.375000
5891		5234.375000
5892		5234.375000
5893		5234.375000
5894		5234.375000
5895		5234.375000
5896		5234.375000
5897		5234.375000
5898		5234.375000
5899		5156.250000
5900		5156.250000
5901		5156.250000
5902		5156.250000
5903		5156.250000
5904		5156.250000
5905		5156.250000
5906		5156.250000
5907		5156.250000
5908		5156.250000
5909		5078.125000
5910		5078.125000
5911		5078.125000
5912		5078.125000
5913		5078.125000
5914		5078.125000
5915		5078.125000
5916		5078.125000
5917		5078.125000
5918		5078.125000
5919		5000.000000
5920		5000.000000
5921		5000.000000
5922		5000.000000
5923		5000.000000
5924		5000.000000
5925		5000.000000
5926		5000.000000
5927		4921.875000
5928		4921.875000
5929		4921.875000
5930		4921.875000
5931		4921.875000
5932		4921.875000
5933		4921.875000
5934		4921.875000
5935		4921.875000
5936		4921.875000
5937		4921.875000
5938		4843.750000
5939		4843.750000
5940		4843.750000
5941		4843.750000
5942		4843.750000
5943		4843.750000
5944		4843.750000
5945		4843.750000
5946		4765.625000
5947		4765.625000
5948		4765.625000
5949		4765.625000
5950		4765.625000
5951		4765.625000
5952		4765.625000
5953		4765.625000
5954		4765.625000
5955		4687.500000
5956		4687.500000
5957		4687.500000
5958		4687.500000
5959		4687.500000
5960		4687.500000
5961		4687.500000
5962		4687.500000
5963		4687.500000
5964		4609.375000
5965		4609.375000
5966		4609.375000
5967		4609.375000
5968		4609.375000
5969		4609.375000
5970		4609.375000
5971		4609.375000
5972		4609.375000
5973		4531.250000
5974		4531.250000
5975		4531.250000
5976		4531.250000
5977		4531.250000
5978		4531.250000
5979		4531.250000
5980		4531.250000
5981		4531.250000
5982		4531.250000
5983		4453.125000
5984		4453.125000
5985		4453.125000
5986		4453.125000
5987		4453.125000
5988		4453.125000
5989		4453.125000
5990		4375.000000
5991		4375.000000
5992		4375.000000
5993		4375.000000
5994		4375.000000
5995		4375.000000
5996		4375.000000
5997		4375.000000
5998		4375.000000
5999		4375.000000
6000		4375.000000
6001		4296.875000
6002		4296.875000
6003		4296.875000
6004		4296.875000
6005		4296.875000
6006		4296.875000
6007		4296.875000
6008		4296.875000
6009		4218.750000
6010		4218.750000
6011		4218.750000
6012		4218.750000
6013		4218.750000
6014		4218.750000
6015		4218.750000
6016		4218.750000
6017		4218.750000
6018		4218.750000
6019		4218.750000
6020		4218.750000
6021		4140.625000
6022		4140.625000
6023		4140.625000
6024		4140.625000
6025		4140.625000
6026		4140.625000
6027		4140.625000
6028		4140.625000
6029		4140.625000
6030		4062.500000
6031		4062.500000
6032		4062.500000
6033		4062.500000
6034		4062.500000
6035		4062.500000
6036		4062.500000
6037		4062.500000
6038		4062.500000
6039		4062.500000
6040		4062.500000
6041		3984.375000
6042		3984.375000
6043		3984.375000
6044		3984.375000
6045		3984.375000
6046		3984.375000
6047		3984.375000
6048		3984.375000
6049		3984.375000
6050		3906.250000
6051		3906.250000
6052		3906.250000
6053		3906.250000
6054		3906.250000
6055		3906.250000
6056		3906.250000
6057		3906.250000
6058		3906.250000
6059		3906.250000
6060		3906.250000
6061		3906.250000
6062		3828.125000
6063		3828.125000
6064		3828.125000
6065		3828.125000
6066		3828.125000
6067		3828.125000
6068		3828.125000
6069		3828.125000
6070		3828.125000
6071		3828.125000
6072		3750.000000
6073		3750.000000
6074		3750.000000
6075		3750.000000
6076		3750.000000
6077		3750.000000
6078		3750.000000
6079		3750.000000
6080		3750.000000
6081		3750.000000
6082		3750.000000
6083		3750.000000
6084		3671.875000
6085		3671.875000
6086		3671.875000
6087		3671.875000
6088		3671.875000
6089		3671.875000
6090		3671.875000
6091		3671.875000
6092		3671.875000
6093		3671.875000
6094		3671.875000
6095		3671.875000
6096		3671.875000
6097		3671.875000
6098		3593.750000
6099		3593.750000
6100		3593.750000
6101		3593.750000
6102		3593.750000
6103		3593.750000
6104		3593.750000
6105		3593.750000
6106		3593.750000
6107		3593.750000
6108		3515.625000
6109		3515.625000
6110		3515.625000
6111		3515.625000
6112		3515.625000
6113		3515.625000
6114		3515.625000
6115		3515.625000
6116		3515.625000
6117		3515.625000
6118		3515.625000
6119		3515.625000
6120		3515.625000
6121		3515.625000
6122		3515.625000
6123		3437.500000
6124		3437.500000
6125		3437.500000
6126		3437.500000
6127		3437.500000
6128		3437.500000
6129		3437.500000
6130		3437.500000
6131		3437.500000
6132		3437.500000
6133		3437.500000
6134		3437.500000
6135		3437.500000
6136		3359.375000
6137		3359.375000
6138		3359.375000
6139		3359.375000
6140		3359.375000
6141		3359.375000
6142		3359.375000
6143		3359.375000
6144		3359.375000
6145		3359.375000
6146		3359.375000
6147		3359.375000
6148		3359.375000
6149		3359.375000
6150		3359.375000
6151		3281.250000
6152		3281.250000
6153		3281.250000
6154		3281.250000
6155		3281.250000
6156		3281.250000
6157		3281.250000
6158		3281.250000
6159		3281.250000
6160		3281.250000
6161		3281.250000
6162		3281.250000
6163		3281.250000
6164		3281.250000
6165		3281.250000
6166		3281.250000
6167		3203.125000
6168		3203.125000
6169		3203.125000
6170		3203.125000
6171		3203.125000
6172		3203.125000
6173		3203.125000
6174		3203.125000
6175		3203.125000
6176		3203.125000
6177		3203.125000
6178		3203.125000
6179		3203.125000
6180		3203.125000
6181		3203.125000
6182		3203.125000
6183		3203.125000
6184		3125.000000
6185		3203.125000
6186		3125.000000
6187		3125.000000
6188		3125.000000
6189		3125.000000
6190		3125.000000
6191		3125.000000
6192		3125.000000
6193		3125.000000
6194		3125.000000
6195		3125.000000
6196		3125.000000
6197		3125.000000
6198		3125.000000
6199		3125.000000
6200		3125.000000
6201		3125.000000
6202		3125.000000
6203		3125.000000
6204		3046.875000
6205		3125.000000
6206		3046.875000
6207		3046.875000
6208		3046.875000
6209		3046.875000
6210		3046.875000
6211		3046.875000
6212		3046.875000
6213		3046.875000
6214		3046.875000
6215		3046.875000
6216		3046.875000
6217		3046.875000
6218		3046.875000
6219		3046.875000
6220		3046.875000
6221		3046.875000
6222		3046.875000
6223		3046.875000
6224		3046.875000
6225		2968.750000
6226		2968.750000
6227		2968.750000
6228		2968.750000
6229		2968.750000
6230		2968.750000
6231		2968.750000
6232		2968.750000
6233		2968.750000
6234		2968.750000
6235		2968.750000
6236		2968.750000
6237		2968.750000
6238		2968.750000
6239		2968.750000
6240		2968.750000
6241		2968.750000
6242		2968.750000
6243		2968.750000
6244		2968.750000
6245		2968.750000
6246		2968.750000
6247		2890.625000
6248		2890.625000
6249		2890.625000
6250		2890.625000
6251		2890.625000
6252		2890.625000
6253		2890.625000
6254		2890.625000
6255		2890.625000
6256		2890.625000
6257		2890.625000
6258		2890.625000
6259		2890.625000
6260		2890.625000
6261		2890.625000
6262		2890.625000
6263		2890.625000
6264		2890.625000
6265		2890.625000
6266		2890.625000
6267		2890.625000
6268		2890.625000
6269		2890.625000
6270		2890.625000
6271		2890.625000
6272		2890.625000
6273		2890.625000
6274		2890.625000
6275		2812.500000
6276		2812.500000
6277		2812.500000
6278		2812.500000
6279		2812.500000
6280		2812.500000
6281		2812.500000
6282		2812.500000
6283		2812.500000
6284		2812.500000
6285		2812.500000
6286		2812.500000
6287		2812.500000
6288		2812.500000
6289		2812.500000
6290		2812.500000
6291		2812.500000
6292		2812.500000
6293		2812.500000
6294		2812.500000
6295		2812.500000
6296		2812.500000
6297		2812.500000
6298		2812.500000
6299		2812.500000
6300		2812.500000
6301		2812.500000
6302		2812.500000
6303		2812.500000
6304		2734.375000
6305		2812.500000
6306		2734.375000
6307		2734.375000
6308		2734.375000
6309		2734.375000
6310		2734.375000
6311		2734.375000
6312		2734.375000
6313		2734.375000
6314		2734.375000
6315		2734.375000
6316		2734.375000
6317		2734.375000
6318		2734.375000
6319		2734.375000
6320		2734.375000
6321		2734.375000
6322		2734.375000
6323		2734.375000
6324		2734.375000
6325		2734.375000
6326		2734.375000
6327		2734.375000
6328		2734.375000
6329		2734.375000
6330		2734.375000
6331		2734.375000
6332		2734.375000
6333		2734.375000
6334		2734.375000
6335		2734.375000
6336		2734.375000
6337		2734.375000
6338		2734.375000
6339		2734.375000
6340		2734.375000
6341		2734.375000
6342		2734.375000
6343		2734.375000
6344		2734.375000
6345		2734.375000
6346		2656.250000
6347		2656.250000
6348		2656.250000
6349		2656.250000
6350		2656.250000
6351		2656.250000
6352		2656.250000
6353		2656.250000
6354		2656.250000
6355		2656.250000
6356		2656.250000
6357		2656.250000
6358		2656.250000
6359		2656.250000
6360		2656.250000
6361		2656.250000
6362		2656.250000
6363		2656.250000
6364		2656.250000
6365		2656.250000
6366		2656.250000
6367		2656.250000
6368		2656.250000
6369		2656.250000
6370		2656.250000
6371		2656.250000
6372		2656.250000
6373		2656.250000
6374		2656.250000
6375		2656.250000
6376		2656.250000
6377		2656.250000
6378		2656.250000
6379		2656.250000
6380		2656.250000
6381		2656.250000
6382		2656.250000
6383		2656.250000
6384		2656.250000
6385		2656.250000
6386		2656.250000
6387		2656.250000
6388		2656.250000
6389		2656.250000
6390		2656.250000
6391		2656.250000
6392		2656.250000
6393		2656.250000
6394		2656.250000
6395		2656.250000
6396		2656.250000
6397		2656.250000
6398		2656.250000
6399		2656.250000
6400		2656.250000
6401		2656.250000
6402		2656.250000
6403		2656.250000
6404		2656.250000
6405		2656.250000
6406		2578.125000
6407		2578.125000
6408		2578.125000
6409		2578.125000
6410		2578.125000
6411		2578.125000
6412		2578.125000
6413		2578.125000
6414		2578.125000
6415		2578.125000
6416		2578.125000
6417		2578.125000
6418		2578.125000
6419		2578.125000
6420		2578.125000
6421		2578.125000
6422		2578.125000
6423		2578.125000
6424		2578.125000
6425		2578.125000
6426		2578.125000
6427		2578.125000
6428		2578.125000
6429		2578.125000
6430		2578.125000
6431		2578.125000
6432		2578.125000
6433		2578.125000
6434		2578.125000
6435		2578.125000
6436		2578.125000
6437		2578.125000
6438		2578.125000
6439		2578.125000
6440		2578.125000
6441		2578.125000
6442		2578.125000
6443		2578.125000
6444		2578.125000
6445		2578.125000
6446		2578.125000
6447		2578.125000
6448		2578.125000
6449		2578.125000
6450		2578.125000
6451		2578.125000
6452		2578.125000
6453		2578.125000
6454		2578.125000
6455		2578.125000
6456		2578.125000
6457		2578.125000
6458		2578.125000
6459		2578.125000
6460		2578.125000
6461		2578.125000
6462		2578.125000
6463		2578.125000
6464		2578.125000
6465		2578.125000
6466		2578.125000
6467		2578.125000
6468		2578.125000
6469		2578.125000
6470		2578.125000
6471		2578.125000
6472		2578.125000
6473		2578.125000
6474		2578.125000
6475		2578.125000
6476		2578.125000
6477		2578.125000
6478		2578.125000
6479		2578.125000
6480		2578.125000
6481		2578.125000
6482		2578.125000
6483		2578.125000
6484		2578.125000
6485		2578.125000
6486		2578.125000
6487		2578.125000
6488		2578.125000
6489		2578.125000
6490		2578.125000
6491		2578.125000
6492		2578.125000
6493		2578.125000
6494		2578.125000
6495		2578.125000
6496		2578.125000
6497		2578.125000
6498		2578.125000
6499		2578.125000
6500		2578.125000
6501		2578.125000
6502		2578.125000
6503		2578.125000
6504		2578.125000
6505		2578.125000
6506		2578.125000
6507		2578.125000
6508		2578.125000
6509		2578.125000
6510		2578.125000
6511		2578.125000
6512		2578.125000
6513		2578.125000
6514		2578.125000
6515		2578.125000
6516		2578.125000
6517		2578.125000
6518		2578.125000
6519		2578.125000
6520		2578.125000
6521		2578.125000
6522		2578.125000
6523		2578.125000
6524		2578.125000
6525		2578.125000
6526		2578.125000
6527		2578.125000
6528		2578.125000
6529		2578.125000
6530		2578.125000
6531		2578.125000
6532		2578.125000
6533		2578.125000
6534		2578.125000
6535		2578.125000
6536		2578.125000
6537		2578.125000
6538		2578.125000
6539		2656.250000
6540		2578.125000
6541		2578.125000
6542		2656.250000
6543		2656.250000
6544		2656.250000
6545		2656.250000
6546		2656.250000
6547		2656.250000
6548		2656.250000
6549		2578.125000
6550		2656.250000
6551		2656.250000
6552		2656.250000
6553		2656.250000
6554		2656.250000
6555		2656.250000
6556		2656.250000
6557		2656.250000
6558		2656.250000
6559		2656.250000
6560		2656.250000
6561		2656.250000
6562		2656.250000
6563		2656.250000
6564		2656.250000
6565		2656.250000
6566		2656.250000
6567		2656.250000
6568		2656.250000
6569		2656.250000
6570		2656.250000
6571		2656.250000
6572		2656.250000
6573		2656.250000
6574		2656.250000
6575		2656.250000
6576		2656.250000
6577		2656.250000
6578		2656.250000
6579		2656.250000
6580		2656.250000
6581		2656.250000
6582		2656.250000
6583		2656.250000
6584		2656.250000
6585		2656.250000
6586		2656.250000
6587		2656.250000
6588		2656.250000
6589		2656.250000
6590		2656.250000
6591		2656.250000
6592		2656.250000
6593		2656.250000
6594		2656.250000
6595		2656.250000
6596		2656.250000
6597		2656.250000
6598		2734.375000
6599		2734.375000
6600		2734.375000
6601		2734.375000
6602		2734.375000
6603		2734.375000
6604		2734.375000
6605		2734.375000
6606		2734.375000
6607		2734.375000
6608		2734.375000
6609		2734.375000
6610		2734.375000
6611		2734.375000
6612		2734.375000
6613		2734.375000
6614		2734.375000
6615		2734.375000
6616		2734.375000
6617		2734.375000
6618		2734.375000
6619		2734.375000
6620		2734.375000
6621		2734.375000
6622		2734.375000
6623		2734.375000
6624		2734.375000
6625		2734.375000
6626		2734.375000
6627		2734.375000
6628		2734.375000
6629		2734.375000
6630		2734.375000
6631		2734.375000
6632		2734.375000
6633		2734.375000
6634		2734.375000
6635		2734.375000
6636		2812.500000
6637		2812.500000
6638		2812.500000
6639		2812.500000
6640		2812.500000
6641		2812.500000
6642		2812.500000
6643		2812.500000
6644		2812.500000
6645		2812.500000
6646		2812.500000
6647		2812.500000
6648		2812.500000
6649		2812.500000
6650		2812.500000
6651		2812.500000
6652		2812.500000
6653		2812.500000
6654		2812.500000
6655		2812.500000
6656		2812.500000
6657		2812.500000
6658		2812.500000
6659		2812.500000
6660		2812.500000
6661		2812.500000
6662		2812.500000
6663		2812.500000
6664		2812.500000
6665		2812.500000
6666		2812.500000
6667		2812.500000
6668		2812.500000
6669		2890.625000
6670		2890.625000
6671		2890.625000
6672		2890.625000
6673		2890.625000
6674		2890.625000
6675		2890.625000
6676		2890.625000
6677		2890.625000
6678		2890.625000
6679		2890.625000
6680		2890.625000
6681		2890.625000
6682		2890.625000
6683		2890.625000
6684		2890.625000
6685		2890.625000
6686		2890.625000
6687		2890.625000
6688		2890.625000
6689		2890.625000
6690		2890.625000
6691		2890.625000
6692		2968.750000
6693		2968.750000
6694		2968.750000
6695		2968.750000
6696		2968.750000
6697		2968.750000
6698		2968.750000
6699		2968.750000
6700		2968.750000
6701		2968.750000
6702		2968.750000
6703		2968.750000
6704		2968.750000
6705		2968.750000
6706		2968.750000
6707		2968.750000
6708		2968.750000
6709		2968.750000
6710		2968.750000
6711		2968.750000
6712		2968.750000
6713		2968.750000
6714		2968.750000
6715		2968.750000
6716		3046.875000
6717		3046.875000
6718		3046.875000
6719		3046.875000
6720		3046.875000
6721		3046.875000
6722		3046.875000
6723		3046.875000
6724		3046.875000
6725		3046.875000
6726		3046.875000
6727		3046.875000
6728		3046.875000
6729		3046.875000
6730		3046.875000
6731		3046.875000
6732		3046.875000
6733		3046.875000
6734		3125.000000
6735		3125.000000
6736		3125.000000
6737		3125.000000
6738		3125.000000
6739		3125.000000
6740		3125.000000
6741		3125.000000
6742		3125.000000
6743		3125.000000
6744		3125.000000
6745		3125.000000
6746		3125.000000
6747		3125.000000
6748		3125.000000
6749		3125.000000
6750		3125.000000
6751		3125.000000
6752		3203.125000
6753		3203.125000
6754		3203.125000
6755		3203.125000
6756		3203.125000
6757		3203.125000
6758		3203.125000
6759		3203.125000
6760		3203.125000
6761		3203.125000
6762		3203.125000
6763		3203.125000
6764		3281.250000
6765		3203.125000
6766		3203.125000
6767		3281.250000
6768		3281.250000
6769		3281.250000
6770		3281.250000
6771		3281.250000
6772		3281.250000
6773		3281.250000
6774		3281.250000
6775		3281.250000
6776		3281.250000
6777		3281.250000
6778		3281.250000
6779		3281.250000
6780		3359.375000
6781		3359.375000
6782		3359.375000
6783		3359.375000
6784		3359.375000
6785		3359.375000
6786		3359.375000
6787		3359.375000
6788		3359.375000
6789		3359.375000
6790		3359.375000
6791		3359.375000
6792		3359.375000
6793		3359.375000
6794		3437.500000
6795		3437.500000
6796		3437.500000
6797		3437.500000
6798		3437.500000
6799		3437.500000
6800		3437.500000
6801		3437.500000
6802		3437.500000
6803		3437.500000
6804		3437.500000
6805		3437.500000
6806		3437.500000
6807		3437.500000
6808		3437.500000
6809		3515.625000
6810		3515.625000
6811		3515.625000
6812		3515.625000
6813		3515.625000
6814		3515.625000
6815		3515.625000
6816		3515.625000
6817		3515.625000
6818		3515.625000
6819		3593.750000
6820		3593.750000
6821		3593.750000
6822		3593.750000
6823		3593.750000
6824		3593.750000
6825		3593.750000
6826		3593.750000
6827		3593.750000
6828		3593.750000
6829		3593.750000
6830		3593.750000
6831		3671.875000
6832		3671.875000
6833		3671.875000
6834		3671.875000
6835		3671.875000
6836		3671.875000
6837		3671.875000
6838		3671.875000
6839		3671.875000
6840		3750.000000
6841		3750.000000
6842		3750.000000
6843		3750.000000
6844		3750.000000
6845		3750.000000
6846		3750.000000
6847		3750.000000
6848		3750.000000
6849		3750.000000
6850		3750.000000
6851		3750.000000
6852		3750.000000
6853		3828.125000
6854		3828.125000
6855		3828.125000
6856		3828.125000
6857		3828.125000
6858		3828.125000
6859		3828.125000
6860		3828.125000
6861		3906.250000
6862		3906.250000
6863		3906.250000
6864		3906.250000
6865		3906.250000
6866		3906.250000
6867		3906.250000
6868		3906.250000
6869		3906.250000
6870		3906.250000
6871		3906.250000
6872		3984.375000
6873		3984.375000
6874		3984.375000
6875		3984.375000
6876		3984.375000
6877		3984.375000
6878		3984.375000
6879		3984.375000
6880		4062.500000
6881		4062.500000
6882		4062.500000
6883		4062.500000
6884		4062.500000
6885		4062.500000
6886		4062.500000
6887		4062.500000
6888		4062.500000
6889		4062.500000
6890		4140.625000
6891		4140.625000
6892		4140.625000
6893		4140.625000
6894		4140.625000
6895		4140.625000
6896		4140.625000
6897		4140.625000
6898		4140.625000
6899		4140.625000
6900		4218.750000
6901		4218.750000
6902		4218.750000
6903		4218.750000
6904		4218.750000
6905		4218.750000
6906		4218.750000
6907		4218.750000
6908		4296.875000
6909		4296.875000
6910		4296.875000
6911		4296.875000
6912		4296.875000
6913		4296.875000
6914		4296.875000
6915		4296.875000
6916		4296.875000
6917		4296.875000
6918		4375.000000
6919		4375.000000
6920		4375.000000
6921		4375.000000
6922		4375.000000
6923		4375.000000
6924		4375.000000
6925		4375.000000
6926		4375.000000
6927		4453.125000
6928		4453.125000
6929		4453.125000
6930		4453.125000
6931		4453.125000
6932		4453.125000
6933		4453.125000
6934		4453.125000
6935		4531.250000
6936		4531.250000
6937		4531.250000
6938		4531.250000
6939		4531.250000
6940		4531.250000
6941		4531.250000
6942		4531.250000
6943		4609.375000
6944		4609.375000
6945		4609.375000
6946		4609.375000
6947		4609.375000
6948		4609.375000
6949		4609.375000
6950		4609.375000
6951		4609.375000
6952		4687.500000
6953		4687.500000
6954		4687.500000
6955		4687.500000
6956		4687.500000
6957		4687.500000
6958		4687.500000
6959		4687.500000
6960		4765.625000
6961		4765.625000
6962		4765.625000
6963		4765.625000
6964		4765.625000
6965		4765.625000
6966		4765.625000
6967		4765.625000
6968		4765.625000
6969		4843.750000
6970		4843.750000
6971		4843.750000
6972		4843.750000
6973		4843.750000
6974		4843.750000
6975		4843.750000
6976		4843.750000
6977		4843.750000
6978		4921.875000
6979		4921.875000
6980		4921.875000
6981		4921.875000
6982		4921.875000
6983		4921.875000
6984		4921.875000
6985		4921.875000
6986		4921.875000
6987		4921.875000
6988		5000.000000
6989		5000.000000
6990		5000.000000
6991		5000.000000
6992		5000.000000
6993		5000.000000
6994		5000.000000
6995		5000.000000
6996		5000.000000
6997		5078.125000
6998		5078.125000
6999		5078.125000
7000		5078.125000
7001		5078.125000
7002		5078.125000
7003		5078.125000
7004		5078.125000
7005		5078.125000
7006		5078.125000
7007		5156.250000
7008		5156.250000
7009		5156.250000
7010		5156.250000
7011		5156.250000
7012		5156.250000
7013		5156.250000
7014		5156.250000
7015		5156.250000
7016		5234.375000
7017		5234.375000
7018		5234.375000
7019		5234.375000
7020		5234.375000
7021		5234.375000
7022		5234.375000
7023		5234.375000
7024		5234.375000
7025		5234.375000
7026		5234.375000
7027		5234.375000
7028		5312.500000
7029		5234.375000
7030		5312.500000
7031		5312.500000
7032		5312.500000
7033		5312.500000
7034		5312.500000
7035		5312.500000
7036		5390.625000
7037		5390.625000
7038		5390.625000
7039		5390.625000
7040		5390.625000
7041		5390.625000
7042		5390.625000
7043		5390.625000
7044		5390.625000
7045		5390.625000
7046		5390.625000
7047		5390.625000
7048		5390.625000
7049		5468.750000
7050		5468.750000
7051		5468.750000
7052		5468.750000
7053		5468.750000
7054		5468.750000
7055		5468.750000
7056		5468.750000
7057		5468.750000
7058		5468.750000
7059		5468.750000
7060		5468.750000
7061		5468.750000
7062		5468.750000
7063		5546.875000
7064		5546.875000
7065		5546.875000
7066		5546.875000
7067		5546.875000
7068		5546.875000
7069		5546.875000
7070		5546.875000
7071		5546.875000
7072		5546.875000
7073		5546.875000
7074		5546.875000
7075		5625.000000
7076		5625.000000
7077		5625.000000
7078		5625.000000
7079		5625.000000
7080		5625.000000
7081		5625.000000
7082		5625.000000
7083		5625.000000
7084		5625.000000
7085		5625.000000
7086		5625.000000
7087		5625.000000
7088		5625.000000
7089		5625.000000
7090		5625.000000
7091		5703.125000
7092		5625.000000
7093		5703.125000
7094		5703.125000
7095		5703.125000
7096		5703.125000
7097		5703.125000
7098		5703.125000
7099		5703.125000
7100		5703.125000
7101		5703.125000
7102		5703.125000
7103		5703.125000
7104		5703.125000
7105		5703.125000
7106		5703.125000
7107		5703.125000
7108		5703.125000
7109		5703.125000
7110		5703.125000
7111		5703.125000
7112		5703.125000
7113		5703.125000
7114		5703.125000
7115		5703.125000
7116		5703.125000
7117		5703.125000
7118		5781.250000
7119		5703.125000
7120		5781.250000
7121		5781.250000
7122		5781.250000
7123		5781.250000
7124		5781.250000
7125		5781.250000
7126		5781.250000
7127		5781.250000
7128		5781.250000
7129		5781.250000
7130		5781.250000
7131		5781.250000
7132		5781.250000
7133		5781.250000
7134		5781.250000
7135		5781.250000
7136		5781.250000
7137		5781.250000
7138		5781.250000
7139		5781.250000
7140		5781.250000
7141		5781.250000
7142		5781.250000
7143		5781.250000
7144		5781.250000
7145		5781.250000
7146		5781.250000
7147		5781.250000
7148		5781.250000
7149		5781.250000
7150		5781.250000
7151		5781.250000
7152		5781.250000
7153		5781.250000
7154		5781.250000
7155		5781.250000
7156		5781.250000
7157		5781.250000
7158		5781.250000
7159		5781.250000
7160		5781.250000
7161		5781.250000
7162		5781.250000
7163		5781.250000
7164		5781.250000
7165		5781.250000
7166		5781.250000
7167		5781.250000
7168		5781.250000
7169		5781.250000
7170		5781.250000
7171		5781.250000
7172		5781.250000
7173		5781.250000
7174		5781.250000
7175		5781.250000
7176		5781.250000
7177		5781.250000
7178		5781.250000
7179		5781.250000
7180		5781.250000
7181		5781.250000
7182		5781.250000
7183		5781.250000
7184		5781.250000
7185		5781.250000
7186		5781.250000
7187		5781.250000
7188		5781.250000
7189		5781.250000
7190		5781.250000
7191		5781.250000
7192		5781.250000
7193		5781.250000
7194		5781.250000
7195		5781.250000
7196		5781.250000
7197		5781.250000
7198		5703.125000
7199		5781.250000
7200		5781.250000
7201		5703.125000
7202		5703.125000
7203		5703.125000
7204		5703.125000
7205		5703.125000
7206		5703.125000
7207		5703.125000
7208		5703.125000
7209		5703.125000
7210		5703.125000
7211		5703.125000
7212		5703.125000
7213		5703.125000
7214		5703.125000
7215		5703.125000
7216		5703.125000
7217		5703.125000
7218		5703.125000
7219		5703.125000
7220		5703.125000
7221		5703.125000
7222		5625.000000
7223		5625.000000
7224		5625.000000
7225		5625.000000
7226		5625.000000
7227		5625.000000
7228		5625.000000
7229		5625.000000
7230		5625.000000
7231		5625.000000
7232		5625.000000
7233		5625.000000
7234		5625.000000
7235		5625.000000
7236		5625.000000
7237		5546.875000
7238		5625.000000
7239		5546.875000
7240		5546.875000
7241		5546.875000
7242		5546.875000
7243		5546.875000
7244		5546.875000
7245		5546.875000
7246		5546.875000
7247		5546.875000
7248		5468.750000
7249		5546.875000
7250		5546.875000
7251		5546.875000
7252		5468.750000
7253		5468.750000
7254		5468.750000
7255		5468.750000
7256		5468.750000
7257		5468.750000
7258		5468.750000
7259		5468.750000
7260		5468.750000
7261		5468.750000
7262		5468.750000
7263		5468.750000
7264		5390.625000
7265		5390.625000
7266		5390.625000
7267		5390.625000
7268		5390.625000
7269		5390.625000
7270		5390.625000
7271		5390.625000
7272		5390.625000
7273		5390.625000
7274		5390.625000
7275		5390.625000
7276		5390.625000
7277		5312.500000
7278		5312.500000
7279		5312.500000
7280		5312.500000
7281		5312.500000
7282		5312.500000
7283		5312.500000
7284		5312.500000
7285		5312.500000
7286		5312.500000
7287		5312.500000
7288		5234.375000
7289		5234.375000
7290		5234.375000
7291		5234.375000
7292		5234.375000
7293		5234.375000
7294		5234.375000
7295		5234.375000
7296		5234.375000
7297		5234.375000
7298		5234.375000
7299		5156.250000
7300		5156.250000
7301		5156.250000
7302		5156.250000
7303		5156.250000
7304		5156.250000
7305		5156.250000
7306		5156.250000
7307		5156.250000
7308		5156.250000
7309		5078.125000
7310		5078.125000
7311		5078.125000
7312		5078.125000
7313		5078.125000
7314		5078.125000
7315		5078.125000
7316		5078.125000
7317		5078.125000
7318		5000.000000
7319		5078.125000
7320		5000.000000
7321		5000.000000
7322		5000.000000
7323		5000.000000
7324		5000.000000
7325		5000.000000
7326		5000.000000
7327		5000.000000
7328		5000.000000
7329		4921.875000
7330		4921.875000
7331		4921.875000
7332		4921.875000
7333		4921.875000
7334		4921.875000
7335		4921.875000
7336		4921.875000
7337		4921.875000
7338		4843.750000
7339		4843.750000
7340		4843.750000
7341		4843.750000
7342		4843.750000
7343		4843.750000
7344		4843.750000
7345		4843.750000
7346		4843.750000
7347		4765.625000
7348		4765.625000
7349		4765.625000
7350		4765.625000
7351		4765.625000
7352		4765.625000
7353		4765.625000
7354		4765.625000
7355		4765.625000
7356		4765.625000
7357		4687.500000
7358		4687.500000
7359		4687.500000
7360		4687.500000
7361		4687.500000
7362		4687.500000
7363		4687.500000
7364		4687.500000
7365		4687.500000
7366		4609.375000
7367		4609.375000
7368		4609.375000
7369		4609.375000
7370		4609.375000
7371		4609.375000
7372		4609.375000
7373		4609.375000
7374		4531.250000
7375		4609.375000
7376		4531.250000
7377		4531.250000
7378		4531.250000
7379		4531.250000
7380		4531.250000
7381		4531.250000
7382		4531.250000
7383		4531.250000
7384		4531.250000
7385		4453.125000
7386		4453.125000
7387		4453.125000
7388		4453.125000
7389		4453.125000
7390		4453.125000
7391		4453.125000
7392		4453.125000
7393		4375.000000
7394		4375.000000
7395		4375.000000
7396		4375.000000
7397		4375.000000
7398		4375.000000
7399		4375.000000
7400		4375.000000
7401		4375.000000
7402		4375.000000
7403		4375.000000
7404		4296.875000
7405		4296.875000
7406		4296.875000
7407		4296.875000
7408		4296.875000
7409		4296.875000
7410		4296.875000
7411		4296.875000
7412		4218.750000
7413		4218.750000
7414		4218.750000
7415		4218.750000
7416		4218.750000
7417		4218.750000
7418		4218.750000
7419		4218.750000
7420		4218.750000
7421		4218.750000
7422		4218.750000
7423		4140.625000
7424		4140.625000
7425		4140.625000
7426		4140.625000
7427		4140.625000
7428		4140.625000
7429		4140.625000
7430		4140.625000
7431		4140.625000
7432		4062.500000
7433		4062.500000
7434		4062.500000
7435		4062.500000
7436		4062.500000
7437		4062.500000
7438		4062.500000
7439		4062.500000
7440		4062.500000
7441		4062.500000
7442		4062.500000
7443		3984.375000
7444		3984.375000
7445		3984.375000
7446		3984.375000
7447		3984.375000
7448		3984.375000
7449		3984.375000
7450		3984.375000
7451		3984.375000
7452		3984.375000
7453		3984.375000
7454		3906.250000
7455		3984.375000
7456		3906.250000
7457		3906.250000
7458		3906.250000
7459		3906.250000
7460		3906.250000
7461		3906.250000
7462		3906.250000
7463		3906.250000
7464		3906.250000
7465		3906.250000
7466		3828.125000
7467		3828.125000
7468		3828.125000
7469		3828.125000
7470		3828.125000
7471		3828.125000
7472		3828.125000
7473		3828.125000
7474		3828.125000
7475		3828.125000
7476		3828.125000
7477		3750.000000
7478		3750.000000
7479		3750.000000
7480		3750.000000
7481		3750.000000
7482		3750.000000
7483		3750.000000
7484		3750.000000
7485		3750.000000
7486		3750.000000
7487		3750.000000
7488		3750.000000
7489		3671.875000
7490		3671.875000
7491		3671.875000
7492		3671.875000
7493		3671.875000
7494		3671.875000
7495		3671.875000
7496		3671.875000
7497		3671.875000
7498		3671.875000
7499		3671.875000
7500		3671.875000
7501		3593.750000
7502		3593.750000
7503		3593.750000
7504		3593.750000
7505		3593.750000
7506		3593.750000
7507		3593.750000
7508		3593.750000
7509		3593.750000
7510		3593.750000
7511		3593.750000
7512		3593.750000
7513		3593.750000
7514		3515.625000
7515		3515.625000
7516		3515.625000
7517		3515.625000
7518		3515.625000
7519		3515.625000
7520		3515.625000
7521		3515.625000
7522		3515.625000
7523		3515.625000
7524		3515.625000
7525		3515.625000
7526		3515.625000
7527		3515.625000
7528		3437.500000
7529		3437.500000
7530		3437.500000
7531		3437.500000
7532		3437.500000
7533		3437.500000
7534		3437.500000
7535		3437.500000
7536		3437.500000
7537		3437.500000
7538		3437.500000
7539		3437.500000
7540		3437.500000
7541		3437.500000
7542		3437.500000
7543		3359.375000
7544		3359.375000
7545		3359.375000
7546		3359.375000
7547		3359.375000
7548		3359.375000
7549		3359.375000
7550		3359.375000
7551		3359.375000
7552		3359.375000
7553		3359.375000
7554		3359.375000
7555		3359.375000
7556		3359.375000
7557		3359.375000
7558		3359.375000
7559		3359.375000
7560		3281.250000
7561		3281.250000
7562		3281.250000
7563		3281.250000
7564		3281.250000
7565		3281.250000
7566		3281.250000
7567		3281.250000
7568		3281.250000
7569		3281.250000
7570		3281.250000
7571		3281.250000
7572		3281.250000
7573		3281.250000
7574		3281.250000
7575		3203.125000
7576		3203.125000
7577		3203.125000
7578		3203.125000
7579		3203.125000
7580		3203.125000
7581		3203.125000
7582		3203.125000
7583		3203.125000
7584		3203.125000
7585		3203.125000
7586		3203.125000
7587		3203.125000
7588		3203.125000
7589		3203.125000
7590		3203.125000
7591		3203.125000
7592		3125.000000
7593		3125.000000
7594		3125.000000
7595		3125.000000
7596		3125.000000
7597		3125.000000
7598		3125.000000
7599		3125.000000
7600		3125.000000
7601		3125.000000
7602		3125.000000
7603		3125.000000
7604		3125.000000
7605		3125.000000
7606		3125.000000
7607		3125.000000
7608		3125.000000
7609		3125.000000
7610		3125.000000
7611		3046.875000
7612		3046.875000
7613		3046.875000
7614		3046.875000
7615		3046.875000
7616		3046.875000
7617		3046.875000
7618		3046.875000
7619		3046.875000
7620		3046.875000
7621		3046.875000
7622		3046.875000
7623		3046.875000
7624		3046.875000
7625		3046.875000
7626		3046.875000
7627		3046.875000
7628		3046.875000
7629		3046.875000
7630		3046.875000
7631		3046.875000
7632		3046.875000
7633		2968.750000
7634		3046.875000
7635		2968.750000
7636		2968.750000
7637		2968.750000
7638		2968.750000
7639		2968.750000
7640		2968.750000
7641		2968.750000
7642		2968.750000
7643		2968.750000
7644		2968.750000
7645		2968.750000
7646		2968.750000
7647		2968.750000
7648		2968.750000
7649		2968.750000
7650		2968.750000
7651		2968.750000
7652		2968.750000
7653		2968.750000
7654		2968.750000
7655		2968.750000
7656		2968.750000
7657		2968.750000
7658		2890.625000
7659		2890.625000
7660		2890.625000
7661		2890.625000
7662		2890.625000
7663		2890.625000
7664		2890.625000
7665		2890.625000
7666		2890.625000
7667		2890.625000
7668		2890.625000
7669		2890.625000
7670		2890.625000
7671		2890.625000
7672		2890.625000
7673		2890.625000
7674		2890.625000
7675		2890.625000
7676		2890.625000
7677		2890.625000
7678		2890.625000
7679		2890.625000
7680		2890.625000
7681		2890.625000
7682		2890.625000
7683		2890.625000
7684		2890.625000
7685		2812.500000
7686		2812.500000
7687		2812.500000
7688		2812.500000
7689		2812.500000
7690		2812.500000
7691		2812.500000
7692		2812.500000
7693		2812.500000
7694		2812.500000
7695		2812.500000
7696		2812.500000
7697		2812.500000
7698		2812.500000
7699		2812.500000
7700		2812.500000
7701		2812.500000
7702		2812.500000
7703		2812.500000
7704		2812.500000
7705		2812.500000
7706		2812.500000
7707		2812.500000
7708		2812.500000
7709		2812.500000
7710		2812.500000
7711		2812.500000
7712		2812.500000
7713		2812.500000
7714		2812.500000
7715		2812.500000
7716		2812.500000
7717		2812.500000
7718		2812.500000
7719		2812.500000
7720		2812.500000
7721		2734.375000
7722		2812.500000
7723		2734.375000
7724		2734.375000
7725		2734.375000
7726		2734.375000
7727		2734.375000
7728		2734.375000
7729		2734.375000
7730		2734.375000
7731		2734.375000
7732		2734.375000
7733		2734.375000
7734		2734.375000
7735		2734.375000
7736		2734.375000
7737		2734.375000
7738		2734.375000
7739		2734.375000
7740		2734.375000
7741		2734.375000
7742		2734.375000
7743		2734.375000
7744		2734.375000
7745		2734.375000
7746		2734.375000
7747		2734.375000
7748		2734.375000
7749		2734.375000
7750		2734.375000
7751		2734.375000
7752		2734.375000
7753		2734.375000
7754		2734.375000
7755		2734.375000
7756		2734.375000
7757		2734.375000
7758		2734.375000
7759		2734.375000
7760		2734.375000
7761		2734.375000
7762		2734.375000
7763		2734.375000
7764		2734.375000
7765		2656.250000
7766		2656.250000
7767		2656.250000
7768		2656.250000
7769		2656.250000
7770		2656.250000
7771		2656.250000
7772		2656.250000
7773		2656.250000
7774		2656.250000
7775		2656.250000
7776		2656.250000
7777		2656.250000
7778		2656.250000
7779		2656.250000
7780		2656.250000
7781		2656.250000
7782		2656.250000
7783		2656.250000
7784		2656.250000
7785		2656.250000
7786		2656.250000
7787		2656.250000
7788		2656.250000
7789		2656.250000
7790		2656.250000
7791		2656.250000
7792		2656.250000
7793		2656.250000
7794		2656.250000
7795		2656.250000
7796		2656.250000
7797		2656.250000
7798		2656.250000
7799		2656.250000
7800		2656.250000
7801		2656.250000
7802		2656.250000
7803		2656.250000
7804		2656.250000
7805		2656.250000
7806		2656.250000
7807		2656.250000
7808		2656.250000
7809		2656.250000
7810		2656.250000
7811		2656.250000
7812		2656.250000
7813		2656.250000
7814		2656.250000
7815		2656.250000
7816		2656.250000
7817		2656.250000
7818		2656.250000
7819		2656.250000
7820		2656.250000
7821		2656.250000
7822		2656.250000
7823		2656.250000
7824		2656.250000
7825		2656.250000
7826		2656.250000
7827		2656.250000
7828		2656.250000
7829		2656.250000
7830		2656.250000
7831		2656.250000
7832		2656.250000
7833		2656.250000
7834		2656.250000
7835		2656.250000
7836		2656.250000
7837		2656.250000
7838		2656.250000
7839		2656.250000
7840		2656.250000
7841		2656.250000
7842		2656.250000
7843		2656.250000
7844		2656.250000
7845		2656.250000
7846		2656.250000
7847		2656.250000
7848		2656.250000
7849		2656.250000
7850		2656.250000
7851		2656.250000
7852		2656.250000
7853		2656.250000
7854		2656.250000
7855		2578.125000
7856		2578.125000
7857		2656.250000
7858		2656.250000
7859		2656.250000
7860		2578.125000
7861		2578.125000
7862		2656.250000
7863		2656.250000
7864		2578.125000
7865		2578.125000
7866		2578.125000
7867		2656.250000
7868		2656.250000
7869		2656.250000
7870		2656.250000
7871		2656.250000
7872		2578.125000
7873		2656.250000
7874		2578.125000
7875		2578.125000
7876		2656.250000
7877		2656.250000
7878		2656.250000
7879		2578.125000
7880		2656.250000
7881		2578.125000
7882		2578.125000
7883		2656.250000
7884		2656.250000
7885		2656.250000
7886		2656.250000
7887		2578.125000
7888		2656.250000
7889		2578.125000
7890		2656.250000
7891		2656.250000
7892		2578.125000
7893		2656.250000
7894		2656.250000
7895		2656.250000
7896		2656.250000
7897		2656.250000
7898		2656.250000
7899		2656.250000
7900		2656.250000
7901		2656.250000
7902		2656.250000
7903		2656.250000
7904		2656.250000
7905		2656.250000
7906		2656.250000
7907		2656.250000
7908		2656.250000
7909		2656.250000
7910		2656.250000
7911		2656.250000
7912		2656.250000
7913		2656.250000
7914		2656.250000
7915		2656.250000
7916		2656.250000
7917		2656.250000
7918		2656.250000
7919		2656.250000
7920		2656.250000
7921		2656.250000
7922		2656.250000
7923		2656.250000
7924		2656.250000
7925		2656.250000
7926		2656.250000
7927		2656.250000
7928		2656.250000
7929		2656.250000
7930		2656.250000
7931		2656.250000
7932		2656.250000
7933		2656.250000
7934		2656.250000
7935		2656.250000
7936		2656.250000
7937		2656.250000
7938		2656.250000
7939		2656.250000
7940		2656.250000
7941		2656.250000
7942		2656.250000
7943		2656.250000
7944		2656.250000
7945		2656.250000
7946		2656.250000
7947		2656.250000
7948		2656.250000
7949		2656.250000
7950		2656.250000
7951		2656.250000
7952		2656.250000
7953		2656.250000
7954		2656.250000
7955		2656.250000
7956		2656.250000
7957		2656.250000
7958		2656.250000
7959		2656.250000
7960		2656.250000
7961		2656.250000
7962		2656.250000
7963		2656.250000
7964		2656.250000
7965		2656.250000
7966		2656.250000
7967		2656.250000
7968		2656.250000
7969		2656.250000
7970		2656.250000
7971		2656.250000
7972		2656.250000
7973		2656.250000
7974		2656.250000
7975		2656.250000
7976		2656.250000
7977		2734.375000
7978		2734.375000
7979		2734.375000
7980		2734.375000
7981		2734.375000
7982		2734.375000
7983		2734.375000
7984		2734.375000
7985		2734.375000
7986		2734.375000
7987		2734.375000
7988		2734.375000
7989		2734.375000
7990		2734.375000
7991		2656.250000
7992		2734.375000
7993		2734.375000
7994		2734.375000
7995		2734.375000
7996		2734.375000
7997		2734.375000
7998		2734.375000
7999		2734.375000
8000		2734.375000
8001		2734.375000
8002		2734.375000
8003		2734.375000
8004		2734.375000
8005		2734.375000
8006		2734.375000
8007		2734.375000
8008		2734.375000
8009		2734.375000
8010		2734.375000
8011		2734.375000
8012		2734.375000
8013		2734.375000
8014		2734.375000
8015		2734.375000
8016		2734.375000
8017		2734.375000
8018		2734.375000
8019		2734.375000
8020		2734.375000
8021		2734.375000
8022		2734.375000
8023		2734.375000
8024		2734.375000
8025		2734.375000
8026		2734.375000
8027		2812.500000
8028		2812.500000
8029		2812.500000
8030		2812.500000
8031		2812.500000
8032		2812.500000
8033		2812.500000
8034		2812.500000
8035		2812.500000
8036		2812.500000
8037		2812.500000
8038		2812.500000
8039		2812.500000
8040		2812.500000
8041		2812.500000
8042		2812.500000
8043		2812.500000
8044		2812.500000
8045		2812.500000
8046		2812.500000
8047		2812.500000
8048		2812.500000
8049		2812.500000
8050		2812.500000
8051		2812.500000
8052		2812.500000
8053		2812.500000
8054		2812.500000
8055		2812.500000
8056		2812.500000
8057		2812.500000
8058		2812.500000
8059		2890.625000
8060		2890.625000
8061		2890.625000
8062		2890.625000
8063		2890.625000
8064		2890.625000
8065		2890.625000
8066		2890.625000
8067		2890.625000
8068		2890.625000
8069		2890.625000
8070		2890.625000
8071		2890.625000
8072		2890.625000
8073		2890.625000
8074		2890.625000
8075		2890.625000
8076		2890.625000
8077		2890.625000
8078		2890.625000
8079		2890.625000
8080		2890.625000
8081		2890.625000
8082		2890.625000
8083		2890.625000
8084		2890.625000
8085		2890.625000
8086		2968.750000
8087		2968.750000
8088		2968.750000
8089		2968.750000
8090		2968.750000
8091		2968.750000
8092		2968.750000
8093		2968.750000
8094		2968.750000
8095		2968.750000
8096		2968.750000
8097		2968.750000
8098		2968.750000
8099		2968.750000
8100		2968.750000
8101		2968.750000
8102		2968.750000
8103		2968.750000
8104		2968.750000
8105		2968.750000
8106		2968.750000
8107		2968.750000
8108		2968.750000
8109		2968.750000
8110		3046.875000
8111		3046.875000
8112		3046.875000
8113		3046.875000
8114		3046.875000
8115		3046.875000
8116		3046.875000
8117		3046.875000
8118		3046.875000
8119		3046.875000
8120		3046.875000
8121		3046.875000
8122		3046.875000
8123		3046.875000
8124		3046.875000
8125		3046.875000
8126		3046.875000
8127		3046.875000
8128		3046.875000
8129		3125.000000
8130		3125.000000
8131		3125.000000
8132		3125.000000
8133		3125.000000
8134		3125.000000
8135		3125.000000
8136		3125.000000
8137		3125.000000
8138		3125.000000
8139		3125.000000
8140		3125.000000
8141		3125.000000
8142		3125.000000
8143		3125.000000
8144		3125.000000
8145		3125.000000
8146		3125.000000
8147		3203.125000
8148		3203.125000
8149		3203.125000
8150		3203.125000
8151		3203.125000
8152		3203.125000
8153		3203.125000
8154		3203.125000
8155		3203.125000
8156		3203.125000
8157		3203.125000
8158		3203.125000
8159		3203.125000
8160		3203.125000
8161		3281.250000
8162		3281.250000
8163		3281.250000
8164		3281.250000
8165		3281.250000
8166		3281.250000
8167		3281.250000
8168		3281.250000
8169		3281.250000
8170		3281.250000
8171		3281.250000
8172		3281.250000
8173		3281.250000
8174		3281.250000
8175		3281.250000
8176		3359.375000
8177		3359.375000
8178		3359.375000
8179		3359.375000
8180		3359.375000
8181		3359.375000
8182		3359.375000
8183		3359.375000
8184		3359.375000
8185		3359.375000
8186		3359.375000
8187		3359.375000
8188		3359.375000
8189		3359.375000
8190		3359.375000
8191		3359.375000
8192		3437.500000
8193		3437.500000
8194		3437.500000
8195		3437.500000
8196		3437.500000
8197		3437.500000
8198		3437.500000
8199		3437.500000
8200		3437.500000
8201		3437.500000
8202		3437.500000
8203		3437.500000
8204		3515.625000
8205		3515.625000
8206		3515.625000
8207		3515.625000
8208		3515.625000
8209		3515.625000
8210		3515.625000
8211		3515.625000
8212		3515.625000
8213		3515.625000
8214		3515.625000
8215		3593.750000
8216		3593.750000
8217		3593.750000
8218		3593.750000
8219		3593.750000
8220		3593.750000
8221		3593.750000
8222		3593.750000
8223		3593.750000
8224		3593.750000
8225		3593.750000
8226		3593.750000
8227		3593.750000
8228		3593.750000
8229		3671.875000
8230		3671.875000
8231		3671.875000
8232		3671.875000
8233		3671.875000
8234		3671.875000
8235		3671.875000
8236		3671.875000
8237		3671.875000
8238		3671.875000
8239		3671.875000
8240		3750.000000
8241		3750.000000
8242		3750.000000
8243		3750.000000
8244		3750.000000
8245		3750.000000
8246		3750.000000
8247		3750.000000
8248		3750.000000
8249		3750.000000
8250		3828.125000
8251		3828.125000
8252		3828.125000
8253		3828.125000
8254		3828.125000
8255		3828.125000
8256		3828.125000
8257		3828.125000
8258		3828.125000
8259		3828.125000
8260		3828.125000
8261		3828.125000
8262		3906.250000
8263		3906.250000
8264		3906.250000
8265		3906.250000
8266		3906.250000
8267		3906.250000
8268		3906.250000
8269		3906.250000
8270		3906.250000
8271		3984.375000
8272		3984.375000
8273		3984.375000
8274		3984.375000
8275		3984.375000
8276		3984.375000
8277		3984.375000
8278		3984.375000
8279		3984.375000
8280		4062.500000
8281		4062.500000
8282		4062.500000
8283		4062.500000
8284		4062.500000
8285		4062.500000
8286		4062.500000
8287		4062.500000
8288		4062.500000
8289		4062.500000
8290		4140.625000
8291		4140.625000
8292		4140.625000
8293		4140.625000
8294		4140.625000
8295		4140.625000
8296		4140.625000
8297		4140.625000
8298		4140.625000
8299		4218.750000
8300		4218.750000
8301		4218.750000
8302		4218.750000
8303		4218.750000
8304		4218.750000
8305		4218.750000
8306		4218.750000
8307		4218.750000
8308		4296.875000
8309		4296.875000
8310		4296.875000
8311		4296.875000
8312		4296.875000
8313		4296.875000
8314		4296.875000
8315		4296.875000
8316		4375.000000
8317		4375.000000
8318		4375.000000
8319		4375.000000
8320		4375.000000
8321		4375.000000
8322		4375.000000
8323		4375.000000
8324		4375.000000
8325		4375.000000
8326		4375.000000
8327		4453.125000
8328		4453.125000
8329		4453.125000
8330		4453.125000
8331		4453.125000
8332		4453.125000
8333		4453.125000
8334		4453.125000
8335		4531.250000
8336		4531.250000
8337		4531.250000
8338		4531.250000
8339		4531.250000
8340		4531.250000
8341		4531.250000
8342		4531.250000
8343		4531.250000
8344		4609.375000
8345		4609.375000
8346		4609.375000
8347		4609.375000
8348		4609.375000
8349		4609.375000
8350		4609.375000
8351		4609.375000
8352		4609.375000
8353		4687.500000
8354		4687.500000
8355		4687.500000
8356		4687.500000
8357		4687.500000
8358		4687.500000
8359		4687.500000
8360		4687.500000
8361		4765.625000
8362		4765.625000
8363		4765.625000
8364		4765.625000
8365		4765.625000
8366		4765.625000
8367		4765.625000
8368		4765.625000
8369		4765.625000
8370		4765.625000
8371		4843.750000
8372		4843.750000
8373		4843.750000
8374		4843.750000
8375		4843.750000
8376		4843.750000
8377		4843.750000
8378		4843.750000
8379		4921.875000
8380		4921.875000
8381		4921.875000
8382		4921.875000
8383		4921.875000
8384		4921.875000
8385		4921.875000
8386		4921.875000
8387		4921.875000
8388		4921.875000
8389		5000.000000
8390		5000.000000
8391		5000.000000
8392		5000.000000
8393		5000.000000
8394		5000.000000
8395		5000.000000
8396		5000.000000
8397		5078.125000
8398		5078.125000
8399		5078.125000
8400		5078.125000
8401		5078.125000
8402		5078.125000
8403		5078.125000
8404		5078.125000
8405		5078.125000
8406		5078.125000
8407		5078.125000
8408		5078.125000
8409		5156.250000
8410		5156.250000
8411		5156.250000
8412		5156.250000
8413		5156.250000
8414		5156.250000
8415		5156.250000
8416		5234.375000
8417		5234.375000
8418		5234.375000
8419		5234.375000
8420		5234.375000
8421		5234.375000
8422		5234.375000
8423		5234.375000
8424		5234.375000
8425		5234.375000
8426		5234.375000
8427		5234.375000
8428		5234.375000
8429		5312.500000
8430		5312.500000
8431		5312.500000
8432		5312.500000
8433		5312.500000
8434		5312.500000
8435		5312.500000
8436		5312.500000
8437		5312.500000
8438		5312.500000
8439		5390.625000
8440		5390.625000
8441		5390.625000
8442		5390.625000
8443		5390.625000
8444		5390.625000
8445		5390.625000
8446		5390.625000
8447		5390.625000
8448		5390.625000
8449		5390.625000
8450		5390.625000
8451		5468.750000
8452		5468.750000
8453		5468.750000
8454		5468.750000
8455		5468.750000
8456		5468.750000
8457		5468.750000
8458		5468.750000
8459		5468.750000
8460		5468.750000
8461		5468.750000
8462		5468.750000
8463		5546.875000
8464		5546.875000
8465		5546.875000
8466		5546.875000
8467		5546.875000
8468		5546.875000
8469		5546.875000
8470		5546.875000
8471		5546.875000
8472		5546.875000
8473		5546.875000
8474		5546.875000
8475		5546.875000
8476		5546.875000
8477		5546.875000
8478		5625.000000
8479		5625.000000
8480		5625.000000
8481		5625.000000
8482		5625.000000
8483		5625.000000
8484		5625.000000
8485		5625.000000
8486		5625.000000
8487		5625.000000
8488		5625.000000
8489		5625.000000
8490		5625.000000
8491		5625.000000
8492		5625.000000
8493		5625.000000
8494		5625.000000
8495		5625.000000
8496		5703.125000
8497		5703.125000
8498		5703.125000
8499		5703.125000
8500		5703.125000
8501		5703.125000
8502		5703.125000
8503		5703.125000
8504		5703.125000
8505		5703.125000
8506		5703.125000
8507		5703.125000
8508		5703.125000
8509		5703.125000
8510		5703.125000
8511		5703.125000
8512		5703.125000
8513		5703.125000
8514		5703.125000
8515		5703.125000
8516		5703.125000
8517		5781.250000
8518		5781.250000
8519		5703.125000
8520		5703.125000
8521		5781.250000
8522		5781.250000
8523		5781.250000
8524		5781.250000
8525		5781.250000
8526		5781.250000
8527		5781.250000
8528		5781.250000
8529		5781.250000
8530		5781.250000
8531		5781.250000
8532		5781.250000
8533		5781.250000
8534		5781.250000
8535		5781.250000
8536		5781.250000
8537		5781.250000
8538		5781.250000
8539		5781.250000
8540		5781.250000
8541		5781.250000
8542		5781.250000
8543		5781.250000
8544		5781.250000
8545		5781.250000
8546		5781.250000
8547		5781.250000
8548		5781.250000
8549		5781.250000
8550		5781.250000
8551		5781.250000
8552		5781.250000
8553		5781.250000
8554		5781.250000
8555		5781.250000
8556		5781.250000
8557		5781.250000
8558		5781.250000
8559		5781.250000
8560		5781.250000
8561		5781.250000
8562		5781.250000
8563		5781.250000
8564		5781.250000
8565		5781.250000
8566		5781.250000
8567		5781.250000
8568		5781.250000
8569		5781.250000
8570		5781.250000
8571		5781.250000
8572		5781.250000
8573		5781.250000
8574		5781.250000
8575		5781.250000
8576		5781.250000
8577		5781.250000
8578		5781.250000
8579		5781.250000
8580		5781.250000
8581		5781.250000
8582		5781.250000
8583		5781.250000
8584		5781.250000
8585		5781.250000
8586		5781.250000
8587		5781.250000
8588		5781.250000
8589		5781.250000
8590		5781.250000
8591		5781.250000
8592		5781.250000
8593		5781.250000
8594		5781.250000
8595		5703.125000
8596		5703.125000
8597		5703.125000
8598		5703.125000
8599		5703.125000
8600		5703.125000
8601		5703.125000
8602		5703.125000
8603		5703.125000
8604		5703.125000
8605		5703.125000
8606		5703.125000
8607		5703.125000
8608		5703.125000
8609		5703.125000
8610		5703.125000
8611		5703.125000
8612		5703.125000
8613		5703.125000
8614		5703.125000
8615		5703.125000
8616		5703.125000
8617		5703.125000
8618		5703.125000
8619		5703.125000
8620		5625.000000
8621		5625.000000
8622		5625.000000
8623		5625.000000
8624		5625.000000
8625		5625.000000
8626		5625.000000
8627		5625.000000
8628		5625.000000
8629		5625.000000
8630		5625.000000
8631		5625.000000
8632		5625.000000
8633		5625.000000
8634		5625.000000
8635		5625.000000
8636		5625.000000
8637		5546.875000
8638		5625.000000
8639		5546.875000
8640		5546.875000
8641		5546.875000
8642		5546.875000
8643		5546.875000
8644		5546.875000
8645		5546.875000
8646		5546.875000
8647		5546.875000
8648		5546.875000
8649		5546.875000
8650		5546.875000
8651		5546.875000
8652		5468.750000
8653		5546.875000
8654		5468.750000
8655		5468.750000
8656		5468.750000
8657		5468.750000
8658		5468.750000
8659		5468.750000
8660		5468.750000
8661		5468.750000
8662		5468.750000
8663		5468.750000
8664		5468.750000
8665		5468.750000
8666		5390.625000
8667		5390.625000
8668		5390.625000
8669		5390.625000
8670		5390.625000
8671		5390.625000
8672		5390.625000
8673		5390.625000
8674		5390.625000
8675		5390.625000
8676		5390.625000
8677		5390.625000
8678		5390.625000
8679		5390.625000
8680		5312.500000
8681		5312.500000
8682		5312.500000
8683		5312.500000
8684		5312.500000
8685		5312.500000
8686		5312.500000
8687		5312.500000
8688		5312.500000
8689		5312.500000
8690		5234.375000
8691		5234.375000
8692		5234.375000
8693		5234.375000
8694		5234.375000
8695		5234.375000
8696		5234.375000
8697		5234.375000
8698		5234.375000
8699		5234.375000
8700		5156.250000
8701		5156.250000
8702		5156.250000
8703		5156.250000
8704		5156.250000
8705		5156.250000
8706		5156.250000
8707		5156.250000
8708		5156.250000
8709		5078.125000
8710		5078.125000
8711		5078.125000
8712		5078.125000
8713		5078.125000
8714		5078.125000
8715		5078.125000
8716		5078.125000
8717		5078.125000
8718		5078.125000
8719		5000.000000
8720		5078.125000
8721		5078.125000
8722		5000.000000
8723		5000.000000
8724		5000.000000
8725		5000.000000
8726		5000.000000
8727		5000.000000
8728		5000.000000
8729		4921.875000
8730		4921.875000
8731		4921.875000
8732		4921.875000
8733		4921.875000
8734		4921.875000
8735		4921.875000
8736		4921.875000
8737		4921.875000
8738		4921.875000
8739		4921.875000
8740		4843.750000
8741		4843.750000
8742		4843.750000
8743		4843.750000
8744		4843.750000
8745		4843.750000
8746		4843.750000
8747		4843.750000
8748		4765.625000
8749		4765.625000
8750		4765.625000
8751		4765.625000
8752		4765.625000
8753		4765.625000
8754		4765.625000
8755		4765.625000
8756		4765.625000
8757		4765.625000
8758		4765.625000
8759		4687.500000
8760		4687.500000
8761		4687.500000
8762		4687.500000
8763		4687.500000
8764		4687.500000
8765		4687.500000
8766		4687.500000
8767		4609.375000
8768		4609.375000
8769		4609.375000
8770		4609.375000
8771		4609.375000
8772		4609.375000
8773		4609.375000
8774		4609.375000
8775		4609.375000
8776		4609.375000
8777		4609.375000
8778		4531.250000
8779		4531.250000
8780		4531.250000
8781		4531.250000
8782		4531.250000
8783		4531.250000
8784		4531.250000
8785		4453.125000
8786		4531.250000
8787		4453.125000
8788		4453.125000
8789		4453.125000
8790		4453.125000
8791		4453.125000
8792		4453.125000
8793		4453.125000
8794		4453.125000
8795		4453.125000
8796		4453.125000
8797		4375.000000
8798		4375.000000
8799		4375.000000
8800		4375.000000
8801		4375.000000
8802		4375.000000
8803		4375.000000
8804		4375.000000
8805		4296.875000
8806		4296.875000
8807		4296.875000
8808		4296.875000
8809		4296.875000
8810		4296.875000
8811		4296.875000
8812		4296.875000
8813		4296.875000
8814		4296.875000
8815		4296.875000
8816		4218.750000
8817		4218.750000
8818		4218.750000
8819		4218.750000
8820		4218.750000
8821		4218.750000
8822		4218.750000
8823		4218.750000
8824		4218.750000
8825		4218.750000
8826		4140.625000
8827		4140.625000
8828		4140.625000
8829		4140.625000
8830		4140.625000
8831		4140.625000
8832		4140.625000
8833		4140.625000
8834		4140.625000
8835		4062.500000
8836		4062.500000
8837		4062.500000
8838		4062.500000
8839		4062.500000
8840		4062.500000
8841		4062.500000
8842		4062.500000
8843		4062.500000
8844		4062.500000
8845		4062.500000
8846		4062.500000
8847		3984.375000
8848		3984.375000
8849		3984.375000
8850		3984.375000
8851		3984.375000
8852		3984.375000
8853		3984.375000
8854		3984.375000
8855		3984.375000
8856		3984.375000
8857		3906.250000
8858		3906.250000
8859		3906.250000
8860		3906.250000
8861		3906.250000
8862		3906.250000
8863		3906.250000
8864		3906.250000
8865		3906.250000
8866		3906.250000
8867		3906.250000
8868		3828.125000
8869		3828.125000
8870		3828.125000
8871		3828.125000
8872		3828.125000
8873		3828.125000
8874		3828.125000
8875		3828.125000
8876		3828.125000
8877		3828.125000
8878		3828.125000
8879		3828.125000
8880		3828.125000
8881		3750.000000
8882		3750.000000
8883		3750.000000
8884		3750.000000
8885		3750.000000
8886		3750.000000
8887		3750.000000
8888		3750.000000
8889		3750.000000
8890		3671.875000
8891		3671.875000
8892		3671.875000
8893		3671.875000
8894		3671.875000
8895		3671.875000
8896		3671.875000
8897		3671.875000
8898		3671.875000
8899		3671.875000
8900		3671.875000
8901		3671.875000
8902		3671.875000
8903		3671.875000
8904		3593.750000
8905		3593.750000
8906		3593.750000
8907		3593.750000
8908		3593.750000
8909		3593.750000
8910		3593.750000
8911		3593.750000
8912		3593.750000
8913		3593.750000
8914		3593.750000
8915		3593.750000
8916		3593.750000
8917		3593.750000
8918		3515.625000
8919		3515.625000
8920		3515.625000
8921		3515.625000
8922		3515.625000
8923		3515.625000
8924		3515.625000
8925		3515.625000
8926		3515.625000
8927		3515.625000
8928		3515.625000
8929		3515.625000
8930		3437.500000
8931		3437.500000
8932		3437.500000
8933		3437.500000
8934		3437.500000
8935		3437.500000
8936		3437.500000
8937		3437.500000
8938		3437.500000
8939		3437.500000
8940		3437.500000
8941		3437.500000
8942		3437.500000
8943		3437.500000
8944		3437.500000
8945		3359.375000
8946		3359.375000
8947		3359.375000
8948		3359.375000
8949		3359.375000
8950		3359.375000
8951		3359.375000
8952		3359.375000
8953		3359.375000
8954		3359.375000
8955		3359.375000
8956		3359.375000
8957		3359.375000
8958		3359.375000
8959		3359.375000
8960		3359.375000
8961		3281.250000
8962		3281.250000
8963		3281.250000
8964		3281.250000
8965		3281.250000
8966		3281.250000
8967		3281.250000
8968		3281.250000
8969		3281.250000
8970		3281.250000
8971		3281.250000
8972		3281.250000
8973		3281.250000
8974		3281.250000
8975		3281.250000
8976		3281.250000
8977		3281.250000
8978		3203.125000
8979		3203.125000
8980		3203.125000
8981		3203.125000
8982		3203.125000
8983		3203.125000
8984		3203.125000
8985		3203.125000
8986		3203.125000
8987		3203.125000
8988		3203.125000
8989		3203.125000
8990		3203.125000
8991		3203.125000
8992		3203.125000
8993		3203.125000
8994		3203.125000
8995		3203.125000
8996		3125.000000
8997		3125.000000
8998		3125.000000
8999		3125.000000
9000		3125.000000
9001		3125.000000
9002		3125.000000
9003		3125.000000
9004		3125.000000
9005		3125.000000
9006		3125.000000
9007		3125.000000
9008		3125.000000
9009		3125.000000
9010		3125.000000
9011		3125.000000
9012		3125.000000
9013		3125.000000
9014		3125.000000
9015		3125.000000
9016		3125.000000
9017		3046.875000
9018		3046.875000
9019		3046.875000
9020		3046.875000
9021		3046.875000
9022		3046.875000
9023		3046.875000
9024		3046.875000
9025		3046.875000
9026		3046.875000
9027		3046.875000
9028		3046.875000
9029		3046.875000
9030		3046.875000
9031		3046.875000
9032		3046.875000
9033		3046.875000
9034		3046.875000
9035		3046.875000
9036		3046.875000
9037		2968.750000
9038		2968.750000
9039		2968.750000
9040		2968.750000
9041		2968.750000
9042		2968.750000
9043		2968.750000
9044		2968.750000
9045		2968.750000
9046		2968.750000
9047		2968.750000
9048		2968.750000
9049		2968.750000
9050		2968.750000
9051		2968.750000
9052		2968.750000
9053		2968.750000
9054		2968.750000
9055		2968.750000
9056		2968.750000
9057		2968.750000
9058		2968.750000
9059		2968.750000
9060		2968.750000
9061		2890.625000
9062		2890.625000
9063		2890.625000
9064		2890.625000
9065		2890.625000
9066		2890.625000
9067		2890.625000
9068		2890.625000
9069		2890.625000
9070		2890.625000
9071		2890.625000
9072		2890.625000
9073		2890.625000
9074		2890.625000
9075		2890.625000
9076		2890.625000
9077		2890.625000
9078		2890.625000
9079		2890.625000
9080		2890.625000
9081		2890.625000
9082		2890.625000
9083		2890.625000
9084		2890.625000
9085		2890.625000
9086		2890.625000
9087		2812.500000
9088		2812.500000
9089		2812.500000
9090		2812.500000
9091		2812.500000
9092		2812.500000
9093		2812.500000
9094		2812.500000
9095		2812.500000
9096		2812.500000
9097		2812.500000
9098		2812.500000
9099		2812.500000
9100		2812.500000
9101		2812.500000
9102		2812.500000
9103		2812.500000
9104		2812.500000
9105		2812.500000
9106		2812.500000
9107		2812.500000
9108		2812.500000
9109		2812.500000
9110		2812.500000
9111		2812.500000
9112		2812.500000
9113		2812.500000
9114		2812.500000
9115		2812.500000
9116		2812.500000
9117		2812.500000
9118		2812.500000
9119		2812.500000
9120		2812.500000
9121		2812.500000
9122		2812.500000
9123		2734.375000
9124		2812.500000
9125		2734.375000
9126		2734.375000
9127		2734.375000
9128		2734.375000
9129		2734.375000
9130		2734.375000
9131		2734.375000
9132		2734.375000
9133		2734.375000
9134		2734.375000
9135		2734.375000
9136		2734.375000
9137		2734.375000
9138		2734.375000
9139		2734.375000
9140		2734.375000
9141		2734.375000
9142		2734.375000
9143		2734.375000
9144		2734.375000
9145		2734.375000
9146		2734.375000
9147		2734.375000
9148		2734.375000
9149		2734.375000
9150		2734.375000
9151		2734.375000
9152		2734.375000
9153		2734.375000
9154		2734.375000
9155		2734.375000
9156		2734.375000
9157		2734.375000
9158		2734.375000
9159		2734.375000
9160		2734.375000
9161		2734.375000
9162		2734.375000
9163		2734.375000
9164		2734.375000
9165		2656.250000
9166		2734.375000
9167		2734.375000
9168		2656.250000
9169		2734.375000
9170		2734.375000
9171		2656.250000
9172		2656.250000
9173		2656.250000
9174		2656.250000
9175		2656.250000
9176		2656.250000
9177		2656.250000
9178		2656.250000
9179		2656.250000
9180		2656.250000
9181		2656.250000
9182		2656.250000
9183		2656.250000
9184		2656.250000
9185		2656.250000
9186		2656.250000
9187		2656.250000
9188		2656.250000
9189		2656.250000
9190		2656.250000
9191		2656.250000
9192		2656.250000
9193		2656.250000
9194		2656.250000
9195		2656.250000
9196		2656.250000
9197		2656.250000
9198		2656.250000
9199		2656.250000
9200		2656.250000
9201		2656.250000
9202		2656.250000
9203		2656.250000
9204		2656.250000
9205		2656.250000
9206		2656.250000
9207		2656.250000
9208		2656.250000
9209		2656.250000
9210		2656.250000
9211		2656.250000
9212		2656.250000
9213		2656.250000
9214		2656.250000
9215		2656.250000
9216		2656.250000
9217		2656.250000
9218		2656.250000
9219		2656.250000
9220		2656.250000
9221		2656.250000
9222		2656.250000
9223		2656.250000
9224		2656.250000
9225		2656.250000
9226		2656.250000
9227		2656.250000
9228		2656.250000
9229		2656.250000
9230		2656.250000
9231		2656.250000
9232		2656.250000
9233		2656.250000
9234		2656.250000
9235		2656.250000
9236		2656.250000
9237		2656.250000
9238		2656.250000
9239		2656.250000
9240		2656.250000
9241		2656.250000
9242		2656.250000
9243		2656.250000
9244		2656.250000
9245		2656.250000
9246		2656.250000
9247		2656.250000
9248		2656.250000
9249		2656.250000
9250		2656.250000
9251		2656.250000
9252		2656.250000
9253		2656.250000
9254		2656.250000
9255		2656.250000
9256		2656.250000
9257		2656.250000
9258		2656.250000
9259		2656.250000
9260		2656.250000
9261		2656.250000
9262		2656.250000
9263		2656.250000
9264		2656.250000
9265		2656.250000
9266		2656.250000
9267		2656.250000
9268		2656.250000
9269		2578.125000
9270		2656.250000
9271		2656.250000
9272		2578.125000
9273		2578.125000
9274		2578.125000
9275		2578.125000
9276		2656.250000
9277		2656.250000
9278		2656.250000
9279		2656.250000
9280		2656.250000
9281		2656.250000
9282		2656.250000
9283		2656.250000
9284		2656.250000
9285		2656.250000
9286		2656.250000
9287		2578.125000
9288		2578.125000
9289		2578.125000
9290		2578.125000
9291		2578.125000
9292		2578.125000
9293		2656.250000
9294		2656.250000
9295		2656.250000
9296		2656.250000
9297		2656.250000
9298		2656.250000
9299		2656.250000
9300		2656.250000
9301		2656.250000
9302		2656.250000
9303		2656.250000
9304		2656.250000
9305		2656.250000
9306		2656.250000
9307		2578.125000
9308		2578.125000
9309		2656.250000
9310		2656.250000
9311		2656.250000
9312		2656.250000
9313		2656.250000
9314		2656.250000
9315		2656.250000
9316		2656.250000
9317		2656.250000
9318		2656.250000
9319		2656.250000
9320		2656.250000
9321		2656.250000
9322		2656.250000
9323		2656.250000
9324		2656.250000
9325		2656.250000
9326		2656.250000
9327		2656.250000
9328		2656.250000
9329		2656.250000
9330		2656.250000
9331		2656.250000
9332		2656.250000
9333		2656.250000
9334		2656.250000
9335		2656.250000
9336		2656.250000
9337		2656.250000
9338		2656.250000
9339		2656.250000
9340		2656.250000
9341		2656.250000
9342		2656.250000
9343		2656.250000
9344		2656.250000
9345		2656.250000
9346		2656.250000
9347		2656.250000
9348		2656.250000
9349		2656.250000
9350		2656.250000
9351		2656.250000
9352		2656.250000
9353		2656.250000
9354		2656.250000
9355		2656.250000
9356		2656.250000
9357		2656.250000
9358		2656.250000
9359		2656.250000
9360		2656.250000
9361		2656.250000
9362		2656.250000
9363		2656.250000
9364		2656.250000
9365		2656.250000
9366		2656.250000
9367		2656.250000
9368		2656.250000
9369		2656.250000
9370		2656.250000
9371		2656.250000
9372		2656.250000
9373		2656.250000
9374		2656.250000
9375		2656.250000
9376		2656.250000
9377		2656.250000
9378		2656.250000
9379		2656.250000
9380		2656.250000
9381		2656.250000
9382		2656.250000
9383		2656.250000
9384		2656.250000
9385		2656.250000
9386		2656.250000
9387		2656.250000
9388		2656.250000
9389		2656.250000
9390		2734.375000
9391		2734.375000
9392		2656.250000
9393		2734.375000
9394		2734.375000
9395		2734.375000
9396		2734.375000
9397		2734.375000
9398		2734.375000
9399		2734.375000
9400		2734.375000
9401		2734.375000
9402		2734.375000
9403		2734.375000
9404		2734.375000
9405		2734.375000
9406		2734.375000
9407		2734.375000
9408		2734.375000
9409		2734.375000
9410		2734.375000
9411		2734.375000
9412		2734.375000
9413		2734.375000
9414		2734.375000
9415		2734.375000
9416		2734.375000
9417		2734.375000
9418		2734.375000
9419		2734.375000
9420		2734.375000
9421		2734.375000
9422		2734.375000
9423		2734.375000
9424		2734.375000
9425		2734.375000
9426		2734.375000
9427		2734.375000
9428		2734.375000
9429		2734.375000
9430		2734.375000
9431		2734.375000
9432		2734.375000
9433		2734.375000
9434		2812.500000
9435		2734.375000
9436		2812.500000
9437		2812.500000
9438		2812.500000
9439		2812.500000
9440		2812.500000
9441		2812.500000
9442		2812.500000
9443		2812.500000
9444		2812.500000
9445		2812.500000
9446		2812.500000
9447		2812.500000
9448		2812.500000
9449		2812.500000
9450		2812.500000
9451		2812.500000
9452		2812.500000
9453		2812.500000
9454		2812.500000
9455		2812.500000
9456		2812.500000
9457		2812.500000
9458		2812.500000
9459		2812.500000
9460		2812.500000
9461		2812.500000
9462		2890.625000
9463		2812.500000
9464		2890.625000
9465		2890.625000
9466		2890.625000
9467		2890.625000
9468		2890.625000
9469		2890.625000
9470		2890.625000
9471		2890.625000
9472		2890.625000
9473		2890.625000
9474		2890.625000
9475		2890.625000
9476		2890.625000
9477		2890.625000
9478		2890.625000
9479		2890.625000
9480		2890.625000
9481		2890.625000
9482		2890.625000
9483		2890.625000
9484		2890.625000
9485		2890.625000
9486		2890.625000
9487		2890.625000
9488		2890.625000
9489		2890.625000
9490		2890.625000
9491		2890.625000
9492		2968.750000
9493		2968.750000
9494		2890.625000
9495		2968.750000
9496		2968.750000
9497		2968.750000
9498		2968.750000
9499		2968.750000
9500		2968.750000
9501		2968.750000
9502		2968.750000
9503		2968.750000
9504		2968.750000
9505		2968.750000
9506		2968.750000
9507		2968.750000
9508		2968.750000
9509		2968.750000
9510		2968.750000
9511		2968.750000
9512		2968.750000
9513		2968.750000
9514		3046.875000
9515		3046.875000
9516		3046.875000
9517		3046.875000
9518		3046.875000
9519		3046.875000
9520		3046.875000
9521		3046.875000
9522		3046.875000
9523		3046.875000
9524		3046.875000
9525		3046.875000
9526		3046.875000
9527		3046.875000
9528		3046.875000
9529		3046.875000
9530		3046.875000
9531		3046.875000
9532		3046.875000
9533		3046.875000
9534		3125.000000
9535		3125.000000
9536		3125.000000
9537		3125.000000
9538		3125.000000
9539		3125.000000
9540		3125.000000
9541		3125.000000
9542		3125.000000
9543		3125.000000
9544		3125.000000
9545		3125.000000
9546		3125.000000
9547		3125.000000
9548		3125.000000
9549		3125.000000
9550		3125.000000
9551		3125.000000
9552		3125.000000
9553		3203.125000
9554		3125.000000
9555		3203.125000
9556		3203.125000
9557		3203.125000
9558		3203.125000
9559		3203.125000
9560		3203.125000
9561		3203.125000
9562		3203.125000
9563		3203.125000
9564		3203.125000
9565		3203.125000
9566		3203.125000
9567		3203.125000
9568		3203.125000
9569		3203.125000
9570		3281.250000
9571		3281.250000
9572		3281.250000
9573		3281.250000
9574		3281.250000
9575		3281.250000
9576		3281.250000
9577		3281.250000
9578		3281.250000
9579		3281.250000
9580		3281.250000
9581		3281.250000
9582		3281.250000
9583		3281.250000
9584		3281.250000
9585		3359.375000
9586		3359.375000
9587		3359.375000
9588		3359.375000
9589		3359.375000
9590		3359.375000
9591		3359.375000
9592		3359.375000
9593		3359.375000
9594		3359.375000
9595		3359.375000
9596		3359.375000
9597		3437.500000
9598		3359.375000
9599		3437.500000
9600		3437.500000
9601		3437.500000
9602		3437.500000
9603		3437.500000
9604		3437.500000
9605		3437.500000
9606		3437.500000
9607		3437.500000
9608		3437.500000
9609		3437.500000
9610		3515.625000
9611		3515.625000
9612		3515.625000
9613		3515.625000
9614		3515.625000
9615		3515.625000
9616		3515.625000
9617		3515.625000
9618		3515.625000
9619		3515.625000
9620		3515.625000
9621		3515.625000
9622		3515.625000
9623		3593.750000
9624		3593.750000
9625		3593.750000
9626		3593.750000
9627		3593.750000
9628		3593.750000
9629		3593.750000
9630		3593.750000
9631		3593.750000
9632		3593.750000
9633		3593.750000
9634		3593.750000
9635		3671.875000
9636		3671.875000
9637		3671.875000
9638		3671.875000
9639		3671.875000
9640		3671.875000
9641		3671.875000
9642		3671.875000
9643		3671.875000
9644		3671.875000
9645		3671.875000
9646		3671.875000
9647		3671.875000
9648		3750.000000
9649		3750.000000
9650		3750.000000
9651		3750.000000
9652		3750.000000
9653		3750.000000
9654		3750.000000
9655		3750.000000
9656		3750.000000
9657		3828.125000
9658		3828.125000
9659		3828.125000
9660		3828.125000
9661		3828.125000
9662		3828.125000
9663		3828.125000
9664		3828.125000
9665		3828.125000
9666		3828.125000
9667		3828.125000
9668		3828.125000
9669		3906.250000
9670		3906.250000
9671		3906.250000
9672		3906.250000
9673		3906.250000
9674		3906.250000
9675		3906.250000
9676		3906.250000
9677		3984.375000
9678		3984.375000
9679		3984.375000
9680		3984.375000
9681		3984.375000
9682		3984.375000
9683		3984.375000
9684		3984.375000
9685		3984.375000
9686		3984.375000
9687		3984.375000
9688		4062.500000
9689		4062.500000
9690		4062.500000
9691		4062.500000
9692		4062.500000
9693		4062.500000
9694		4062.500000
9695		4062.500000
9696		4062.500000
9697		4140.625000
9698		4140.625000
9699		4140.625000
9700		4140.625000
9701		4140.625000
9702		4140.625000
9703		4140.625000
9704		4140.625000
9705		4140.625000
9706		4140.625000
9707		4140.625000
9708		4218.750000
9709		4218.750000
9710		4218.750000
9711		4218.750000
9712		4218.750000
9713		4218.750000
9714		4218.750000
9715		4296.875000
9716		4296.875000
9717		4296.875000
9718		4296.875000
9719		4296.875000
9720		4296.875000
9721		4296.875000
9722		4296.875000
9723		4296.875000
9724		4296.875000
9725		4375.000000
9726		4375.000000
9727		4375.000000
9728		4375.000000
9729		4375.000000
9730		4375.000000
9731		4375.000000
9732		4375.000000
9733		4453.125000
9734		4453.125000
9735		4453.125000
9736		4453.125000
9737		4453.125000
9738		4453.125000
9739		4453.125000
9740		4453.125000
9741		4453.125000
9742		4453.125000
9743		4531.250000
9744		4531.250000
9745		4531.250000
9746		4531.250000
9747		4531.250000
9748		4531.250000
9749		4531.250000
9750		4531.250000
9751		4609.375000
9752		4609.375000
9753		4609.375000
9754		4609.375000
9755		4609.375000
9756		4609.375000
9757		4609.375000
9758		4609.375000
9759		4609.375000
9760		4687.500000
9761		4687.500000
9762		4687.500000
9763		4687.500000
9764		4687.500000
9765		4687.500000
9766		4687.500000
9767		4687.500000
9768		4687.500000
9769		4687.500000
9770		4765.625000
9771		4765.625000
9772		4765.625000
9773		4765.625000
9774		4765.625000
9775		4765.625000
9776		4765.625000
9777		4765.625000
9778		4765.625000
9779		4843.750000
9780		4843.750000
9781		4843.750000
9782		4843.750000
9783		4843.750000
9784		4843.750000
9785		4843.750000
9786		4843.750000
9787		4843.750000
9788		4921.875000
9789		4921.875000
9790		4921.875000
9791		4921.875000
9792		4921.875000
9793		4921.875000
9794		4921.875000
9795		4921.875000
9796		4921.875000
9797		4921.875000
9798		5000.000000
9799		5000.000000
9800		5000.000000
9801		5000.000000
9802		5000.000000
9803		5000.000000
9804		5000.000000
9805		5000.000000
9806		5000.000000
9807		5078.125000
9808		5078.125000
9809		5078.125000
9810		5078.125000
9811		5078.125000
9812		5078.125000
9813		5078.125000
9814		5078.125000
9815		5078.125000
9816		5156.250000
9817		5156.250000
9818		5156.250000
9819		5156.250000
9820		5156.250000
9821		5156.250000
9822		5156.250000
9823		5156.250000
9824		5156.250000
9825		5156.250000
9826		5156.250000
9827		5156.250000
9828		5234.375000
9829		5234.375000
9830		5234.375000
9831		5234.375000
9832		5234.375000
9833		5234.375000
9834		5234.375000
9835		5234.375000
9836		5234.375000
9837		5312.500000
9838		5234.375000
9839		5312.500000
9840		5312.500000
9841		5312.500000
9842		5312.500000
9843		5312.500000
9844		5312.500000
9845		5312.500000
9846		5312.500000
9847		5312.500000
9848		5312.500000
9849		5312.500000
9850		5312.500000
9851		5390.625000
9852		5390.625000
9853		5390.625000
9854		5390.625000
9855		5390.625000
9856		5390.625000
9857		5390.625000
9858		5390.625000
9859		5390.625000
9860		5390.625000
9861		5468.750000
9862		5390.625000
9863		5468.750000
9864		5468.750000
9865		5468.750000
9866		5468.750000
9867		5468.750000
9868		5468.750000
9869		5468.750000
9870		5468.750000
9871		5468.750000
9872		5468.750000
9873		5468.750000
9874		5468.750000
9875		5468.750000
9876		5468.750000
9877		5546.875000
9878		5546.875000
9879		5546.875000
9880		5546.875000
9881		5546.875000
9882		5546.875000
9883		5546.875000
9884		5546.875000
9885		5546.875000
9886		5546.875000
9887		5546.875000
9888		5546.875000
9889		5546.875000
9890		5546.875000
9891		5546.875000
9892		5546.875000
9893		5625.000000
9894		5625.000000
9895		5625.000000
9896		5625.000000
9897		5625.000000
9898		5625.000000
9899		5625.000000
9900		5625.000000
9901		5625.000000
9902		5625.000000
9903		5625.000000
9904		5625.000000
9905		5625.000000
9906		5625.000000
9907		5625.000000
9908		5625.000000
9909		5625.000000
9910		5625.000000
9911		5625.000000
9912		5625.000000
9913		5625.000000
9914		5703.125000
9915		5703.125000
9916		5703.125000
9917		5703.125000
9918		5703.125000
9919		5703.125000
9920		5703.125000
9921		5703.125000
9922		5703.125000
9923		5703.125000
9924		5703.125000
9925		5703.125000
9926		5703.125000
9927		5703.125000
9928		5703.125000
9929		5703.125000
9930		5703.125000
9931		5703.125000
9932		5703.125000
9933		5703.125000
9934		5703.125000
9935		5703.125000
9936		5703.125000
9937		5703.125000
9938		5703.125000
9939		5703.125000
9940		5703.125000
9941		5703.125000
9942		5703.125000
9943		5703.125000
9944		5703.125000
9945		5703.125000
9946		5703.125000
9947		5703.125000
9948		5703.125000
9949		5703.125000
9950		5703.125000
9951		5703.125000
9952		5703.125000
9953		5703.125000
9954		5703.125000
9955		5703.125000
9956		5703.125000
9957		5703.125000
9958		5703.125000
9959		5703.125000
9960		5703.125000
9961		5703.125000
9962		5703.125000
9963		5703.125000
9964		5703.125000
9965		5703.125000
9966		5703.125000
9967		5703.125000
9968		5703.125000
9969		5703.125000
9970		5703.125000
9971		5703.125000
9972		5703.125000
9973		5703.125000
9974		5703.125000
9975		5703.125000
9976		5703.125000
9977		5703.125000
9978		5703.125000
9979		5703.125000
9980		5703.125000
9981		5703.125000
9982		5703.125000
9983		5703.125000
9984		5703.125000
9985		5703.125000
9986		5703.125000
9987		5703.125000
9988		5703.125000
9989		5703.125000
9990		5703.125000
9991		5703.125000
9992		5703.125000
9993		5703.125000
9994		5703.125000
9995		5703.125000
9996		5703.125000
9997		5703.125000
9998		5703.125000
9999		5703.125000
10000		5703.125000
