Channel              :		CH1
Frequency            :		  ?
Period               :		  ?
PK-PK                :		3.047V
Probe attenuation    :		1X
Voltage per ADC value:		4.882813mV
Time interval        :		1000.00000us

index		CH1_Voltage(mV)
1		4140.625000
2		4140.625000
3		4140.625000
4		4140.625000
5		4140.625000
6		4140.625000
7		4140.625000
8		4140.625000
9		4140.625000
10		4140.625000
11		4062.500000
12		4062.500000
13		4062.500000
14		4062.500000
15		4062.500000
16		4062.500000
17		4062.500000
18		4062.500000
19		4062.500000
20		4062.500000
21		3984.375000
22		3984.375000
23		3984.375000
24		3984.375000
25		3984.375000
26		3984.375000
27		3984.375000
28		3984.375000
29		3984.375000
30		3984.375000
31		3984.375000
32		3906.250000
33		3906.250000
34		3906.250000
35		3906.250000
36		3906.250000
37		3906.250000
38		3906.250000
39		3906.250000
40		3906.250000
41		3906.250000
42		3906.250000
43		3828.125000
44		3828.125000
45		3828.125000
46		3828.125000
47		3828.125000
48		3828.125000
49		3828.125000
50		3828.125000
51		3828.125000
52		3828.125000
53		3750.000000
54		3750.000000
55		3828.125000
56		3750.000000
57		3750.000000
58		3750.000000
59		3750.000000
60		3750.000000
61		3750.000000
62		3750.000000
63		3750.000000
64		3750.000000
65		3750.000000
66		3671.875000
67		3671.875000
68		3671.875000
69		3671.875000
70		3671.875000
71		3671.875000
72		3671.875000
73		3671.875000
74		3671.875000
75		3671.875000
76		3671.875000
77		3671.875000
78		3671.875000
79		3671.875000
80		3593.750000
81		3593.750000
82		3593.750000
83		3593.750000
84		3593.750000
85		3593.750000
86		3593.750000
87		3593.750000
88		3593.750000
89		3593.750000
90		3515.625000
91		3515.625000
92		3515.625000
93		3515.625000
94		3515.625000
95		3515.625000
96		3515.625000
97		3515.625000
98		3515.625000
99		3515.625000
100		3515.625000
101		3515.625000
102		3515.625000
103		3515.625000
104		3437.500000
105		3437.500000
106		3437.500000
107		3437.500000
108		3437.500000
109		3437.500000
110		3437.500000
111		3437.500000
112		3437.500000
113		3437.500000
114		3437.500000
115		3437.500000
116		3437.500000
117		3437.500000
118		3437.500000
119		3359.375000
120		3359.375000
121		3359.375000
122		3359.375000
123		3359.375000
124		3359.375000
125		3359.375000
126		3359.375000
127		3359.375000
128		3359.375000
129		3359.375000
130		3359.375000
131		3359.375000
132		3359.375000
133		3359.375000
134		3359.375000
135		3359.375000
136		3281.250000
137		3281.250000
138		3281.250000
139		3281.250000
140		3281.250000
141		3281.250000
142		3281.250000
143		3281.250000
144		3281.250000
145		3281.250000
146		3281.250000
147		3281.250000
148		3281.250000
149		3281.250000
150		3281.250000
151		3203.125000
152		3203.125000
153		3203.125000
154		3203.125000
155		3203.125000
156		3203.125000
157		3203.125000
158		3203.125000
159		3203.125000
160		3203.125000
161		3203.125000
162		3203.125000
163		3203.125000
164		3203.125000
165		3203.125000
166		3203.125000
167		3203.125000
168		3203.125000
169		3125.000000
170		3125.000000
171		3125.000000
172		3125.000000
173		3125.000000
174		3125.000000
175		3125.000000
176		3125.000000
177		3125.000000
178		3125.000000
179		3125.000000
180		3125.000000
181		3125.000000
182		3125.000000
183		3125.000000
184		3125.000000
185		3125.000000
186		3125.000000
187		3125.000000
188		3046.875000
189		3046.875000
190		3046.875000
191		3046.875000
192		3046.875000
193		3046.875000
194		3046.875000
195		3046.875000
196		3046.875000
197		3046.875000
198		3046.875000
199		3046.875000
200		3046.875000
201		3046.875000
202		3046.875000
203		3046.875000
204		3046.875000
205		3046.875000
206		3046.875000
207		3046.875000
208		3046.875000
209		3046.875000
210		3046.875000
211		3046.875000
212		2968.750000
213		2968.750000
214		2968.750000
215		2968.750000
216		2968.750000
217		2968.750000
218		2968.750000
219		2968.750000
220		2968.750000
221		2968.750000
222		2968.750000
223		2968.750000
224		2968.750000
225		2968.750000
226		2968.750000
227		2968.750000
228		2968.750000
229		2968.750000
230		2968.750000
231		2968.750000
232		2968.750000
233		2890.625000
234		2968.750000
235		2890.625000
236		2968.750000
237		2890.625000
238		2890.625000
239		2890.625000
240		2890.625000
241		2890.625000
242		2890.625000
243		2890.625000
244		2890.625000
245		2890.625000
246		2890.625000
247		2890.625000
248		2890.625000
249		2890.625000
250		2890.625000
251		2890.625000
252		2890.625000
253		2890.625000
254		2890.625000
255		2890.625000
256		2890.625000
257		2890.625000
258		2890.625000
259		2890.625000
260		2890.625000
261		2890.625000
262		2890.625000
263		2890.625000
264		2890.625000
265		2812.500000
266		2812.500000
267		2812.500000
268		2812.500000
269		2812.500000
270		2812.500000
271		2812.500000
272		2812.500000
273		2812.500000
274		2812.500000
275		2812.500000
276		2812.500000
277		2812.500000
278		2812.500000
279		2812.500000
280		2812.500000
281		2812.500000
282		2812.500000
283		2812.500000
284		2812.500000
285		2812.500000
286		2812.500000
287		2812.500000
288		2812.500000
289		2812.500000
290		2812.500000
291		2812.500000
292		2812.500000
293		2812.500000
294		2812.500000
295		2812.500000
296		2812.500000
297		2812.500000
298		2812.500000
299		2812.500000
300		2812.500000
301		2812.500000
302		2812.500000
303		2812.500000
304		2812.500000
305		2734.375000
306		2734.375000
307		2734.375000
308		2734.375000
309		2734.375000
310		2734.375000
311		2734.375000
312		2734.375000
313		2734.375000
314		2734.375000
315		2734.375000
316		2734.375000
317		2734.375000
318		2734.375000
319		2734.375000
320		2734.375000
321		2734.375000
322		2734.375000
323		2734.375000
324		2734.375000
325		2734.375000
326		2734.375000
327		2734.375000
328		2734.375000
329		2734.375000
330		2734.375000
331		2734.375000
332		2734.375000
333		2734.375000
334		2734.375000
335		2734.375000
336		2734.375000
337		2734.375000
338		2734.375000
339		2734.375000
340		2734.375000
341		2734.375000
342		2734.375000
343		2734.375000
344		2734.375000
345		2734.375000
346		2734.375000
347		2734.375000
348		2734.375000
349		2734.375000
350		2734.375000
351		2734.375000
352		2734.375000
353		2734.375000
354		2734.375000
355		2734.375000
356		2734.375000
357		2734.375000
358		2734.375000
359		2734.375000
360		2734.375000
361		2734.375000
362		2734.375000
363		2734.375000
364		2734.375000
365		2734.375000
366		2734.375000
367		2734.375000
368		2734.375000
369		2734.375000
370		2734.375000
371		2734.375000
372		2734.375000
373		2734.375000
374		2734.375000
375		2734.375000
376		2734.375000
377		2734.375000
378		2734.375000
379		2734.375000
380		2734.375000
381		2734.375000
382		2734.375000
383		2734.375000
384		2734.375000
385		2734.375000
386		2734.375000
387		2734.375000
388		2734.375000
389		2734.375000
390		2656.250000
391		2734.375000
392		2734.375000
393		2734.375000
394		2734.375000
395		2734.375000
396		2734.375000
397		2734.375000
398		2734.375000
399		2734.375000
400		2734.375000
401		2734.375000
402		2734.375000
403		2734.375000
404		2734.375000
405		2734.375000
406		2734.375000
407		2734.375000
408		2734.375000
409		2734.375000
410		2734.375000
411		2734.375000
412		2734.375000
413		2734.375000
414		2734.375000
415		2734.375000
416		2734.375000
417		2734.375000
418		2734.375000
419		2734.375000
420		2734.375000
421		2734.375000
422		2734.375000
423		2734.375000
424		2734.375000
425		2734.375000
426		2734.375000
427		2734.375000
428		2734.375000
429		2734.375000
430		2734.375000
431		2734.375000
432		2734.375000
433		2734.375000
434		2734.375000
435		2734.375000
436		2734.375000
437		2734.375000
438		2734.375000
439		2734.375000
440		2734.375000
441		2734.375000
442		2734.375000
443		2734.375000
444		2734.375000
445		2734.375000
446		2734.375000
447		2734.375000
448		2734.375000
449		2734.375000
450		2734.375000
451		2734.375000
452		2734.375000
453		2734.375000
454		2734.375000
455		2734.375000
456		2734.375000
457		2734.375000
458		2734.375000
459		2734.375000
460		2734.375000
461		2734.375000
462		2734.375000
463		2734.375000
464		2734.375000
465		2734.375000
466		2734.375000
467		2734.375000
468		2734.375000
469		2734.375000
470		2734.375000
471		2734.375000
472		2734.375000
473		2734.375000
474		2734.375000
475		2734.375000
476		2734.375000
477		2734.375000
478		2734.375000
479		2734.375000
480		2734.375000
481		2734.375000
482		2734.375000
483		2734.375000
484		2734.375000
485		2734.375000
486		2734.375000
487		2734.375000
488		2734.375000
489		2734.375000
490		2734.375000
491		2734.375000
492		2734.375000
493		2812.500000
494		2812.500000
495		2812.500000
496		2812.500000
497		2812.500000
498		2812.500000
499		2812.500000
500		2812.500000
501		2812.500000
502		2812.500000
503		2812.500000
504		2812.500000
505		2812.500000
506		2812.500000
507		2812.500000
508		2812.500000
509		2812.500000
510		2812.500000
511		2812.500000
512		2812.500000
513		2812.500000
514		2812.500000
515		2812.500000
516		2812.500000
517		2812.500000
518		2812.500000
519		2812.500000
520		2812.500000
521		2812.500000
522		2812.500000
523		2812.500000
524		2812.500000
525		2812.500000
526		2812.500000
527		2812.500000
528		2812.500000
529		2812.500000
530		2812.500000
531		2812.500000
532		2812.500000
533		2812.500000
534		2890.625000
535		2890.625000
536		2890.625000
537		2890.625000
538		2890.625000
539		2890.625000
540		2890.625000
541		2890.625000
542		2890.625000
543		2890.625000
544		2890.625000
545		2890.625000
546		2890.625000
547		2890.625000
548		2890.625000
549		2890.625000
550		2890.625000
551		2890.625000
552		2890.625000
553		2890.625000
554		2890.625000
555		2890.625000
556		2890.625000
557		2890.625000
558		2890.625000
559		2890.625000
560		2890.625000
561		2890.625000
562		2890.625000
563		2890.625000
564		2890.625000
565		2890.625000
566		2968.750000
567		2968.750000
568		2968.750000
569		2968.750000
570		2968.750000
571		2968.750000
572		2968.750000
573		2968.750000
574		2968.750000
575		2968.750000
576		2968.750000
577		2968.750000
578		2968.750000
579		2968.750000
580		2968.750000
581		2968.750000
582		2968.750000
583		2968.750000
584		2968.750000
585		2968.750000
586		2968.750000
587		2968.750000
588		2968.750000
589		2968.750000
590		3046.875000
591		3046.875000
592		3046.875000
593		3046.875000
594		3046.875000
595		3046.875000
596		3046.875000
597		3046.875000
598		3046.875000
599		3046.875000
600		3046.875000
601		3046.875000
602		3046.875000
603		3046.875000
604		3046.875000
605		3046.875000
606		3046.875000
607		3046.875000
608		3125.000000
609		3125.000000
610		3125.000000
611		3125.000000
612		3125.000000
613		3125.000000
614		3125.000000
615		3125.000000
616		3125.000000
617		3125.000000
618		3125.000000
619		3125.000000
620		3125.000000
621		3125.000000
622		3125.000000
623		3125.000000
624		3125.000000
625		3125.000000
626		3125.000000
627		3125.000000
628		3203.125000
629		3203.125000
630		3203.125000
631		3203.125000
632		3203.125000
633		3203.125000
634		3203.125000
635		3203.125000
636		3203.125000
637		3203.125000
638		3203.125000
639		3203.125000
640		3203.125000
641		3203.125000
642		3281.250000
643		3281.250000
644		3281.250000
645		3281.250000
646		3281.250000
647		3281.250000
648		3281.250000
649		3281.250000
650		3281.250000
651		3281.250000
652		3281.250000
653		3281.250000
654		3281.250000
655		3281.250000
656		3281.250000
657		3359.375000
658		3359.375000
659		3359.375000
660		3359.375000
661		3359.375000
662		3359.375000
663		3359.375000
664		3359.375000
665		3359.375000
666		3359.375000
667		3359.375000
668		3359.375000
669		3359.375000
670		3359.375000
671		3359.375000
672		3437.500000
673		3437.500000
674		3437.500000
675		3437.500000
676		3437.500000
677		3437.500000
678		3437.500000
679		3437.500000
680		3437.500000
681		3437.500000
682		3437.500000
683		3515.625000
684		3515.625000
685		3515.625000
686		3515.625000
687		3515.625000
688		3515.625000
689		3515.625000
690		3515.625000
691		3515.625000
692		3515.625000
693		3515.625000
694		3515.625000
695		3593.750000
696		3593.750000
697		3593.750000
698		3593.750000
699		3593.750000
700		3593.750000
701		3593.750000
702		3593.750000
703		3593.750000
704		3593.750000
705		3593.750000
706		3671.875000
707		3671.875000
708		3671.875000
709		3671.875000
710		3671.875000
711		3671.875000
712		3671.875000
713		3671.875000
714		3671.875000
715		3671.875000
716		3750.000000
717		3750.000000
718		3750.000000
719		3750.000000
720		3750.000000
721		3750.000000
722		3750.000000
723		3750.000000
724		3750.000000
725		3750.000000
726		3828.125000
727		3828.125000
728		3828.125000
729		3828.125000
730		3828.125000
731		3828.125000
732		3828.125000
733		3828.125000
734		3828.125000
735		3906.250000
736		3906.250000
737		3906.250000
738		3906.250000
739		3906.250000
740		3906.250000
741		3906.250000
742		3906.250000
743		3906.250000
744		3906.250000
745		3906.250000
746		3906.250000
747		3984.375000
748		3906.250000
749		3984.375000
750		3984.375000
751		3984.375000
752		3984.375000
753		3984.375000
754		3984.375000
755		4062.500000
756		4062.500000
757		4062.500000
758		4062.500000
759		4062.500000
760		4062.500000
761		4062.500000
762		4062.500000
763		4062.500000
764		4062.500000
765		4140.625000
766		4140.625000
767		4140.625000
768		4140.625000
769		4140.625000
770		4140.625000
771		4140.625000
772		4140.625000
773		4218.750000
774		4218.750000
775		4218.750000
776		4218.750000
777		4218.750000
778		4218.750000
779		4218.750000
780		4218.750000
781		4218.750000
782		4296.875000
783		4296.875000
784		4296.875000
785		4296.875000
786		4296.875000
787		4296.875000
788		4296.875000
789		4296.875000
790		4296.875000
791		4375.000000
792		4375.000000
793		4375.000000
794		4375.000000
795		4375.000000
796		4375.000000
797		4375.000000
798		4375.000000
799		4453.125000
800		4453.125000
801		4453.125000
802		4453.125000
803		4453.125000
804		4453.125000
805		4453.125000
806		4453.125000
807		4453.125000
808		4531.250000
809		4531.250000
810		4531.250000
811		4531.250000
812		4531.250000
813		4531.250000
814		4531.250000
815		4531.250000
816		4531.250000
817		4609.375000
818		4609.375000
819		4609.375000
820		4609.375000
821		4609.375000
822		4609.375000
823		4609.375000
824		4609.375000
825		4609.375000
826		4609.375000
827		4609.375000
828		4687.500000
829		4687.500000
830		4687.500000
831		4687.500000
832		4687.500000
833		4687.500000
834		4687.500000
835		4687.500000
836		4765.625000
837		4765.625000
838		4765.625000
839		4765.625000
840		4765.625000
841		4765.625000
842		4765.625000
843		4765.625000
844		4765.625000
845		4843.750000
846		4765.625000
847		4843.750000
848		4843.750000
849		4843.750000
850		4843.750000
851		4843.750000
852		4843.750000
853		4843.750000
854		4843.750000
855		4921.875000
856		4921.875000
857		4921.875000
858		4921.875000
859		4921.875000
860		4921.875000
861		4921.875000
862		4921.875000
863		4921.875000
864		4921.875000
865		5000.000000
866		5000.000000
867		5000.000000
868		5000.000000
869		5000.000000
870		5000.000000
871		5000.000000
872		5000.000000
873		5000.000000
874		5000.000000
875		5000.000000
876		5000.000000
877		5078.125000
878		5078.125000
879		5078.125000
880		5078.125000
881		5078.125000
882		5078.125000
883		5078.125000
884		5078.125000
885		5078.125000
886		5078.125000
887		5078.125000
888		5078.125000
889		5156.250000
890		5156.250000
891		5156.250000
892		5156.250000
893		5156.250000
894		5156.250000
895		5156.250000
896		5156.250000
897		5156.250000
898		5234.375000
899		5234.375000
900		5234.375000
901		5234.375000
902		5234.375000
903		5234.375000
904		5234.375000
905		5234.375000
906		5234.375000
907		5234.375000
908		5234.375000
909		5234.375000
910		5234.375000
911		5234.375000
912		5234.375000
913		5312.500000
914		5312.500000
915		5312.500000
916		5312.500000
917		5312.500000
918		5312.500000
919		5312.500000
920		5312.500000
921		5312.500000
922		5312.500000
923		5312.500000
924		5312.500000
925		5312.500000
926		5312.500000
927		5312.500000
928		5312.500000
929		5312.500000
930		5390.625000
931		5390.625000
932		5390.625000
933		5390.625000
934		5390.625000
935		5390.625000
936		5390.625000
937		5390.625000
938		5390.625000
939		5390.625000
940		5390.625000
941		5390.625000
942		5390.625000
943		5390.625000
944		5390.625000
945		5390.625000
946		5390.625000
947		5390.625000
948		5390.625000
949		5390.625000
950		5468.750000
951		5468.750000
952		5468.750000
953		5468.750000
954		5468.750000
955		5468.750000
956		5468.750000
957		5468.750000
958		5468.750000
959		5468.750000
960		5468.750000
961		5468.750000
962		5468.750000
963		5468.750000
964		5468.750000
965		5468.750000
966		5468.750000
967		5468.750000
968		5468.750000
969		5468.750000
970		5468.750000
971		5468.750000
972		5468.750000
973		5468.750000
974		5468.750000
975		5468.750000
976		5468.750000
977		5468.750000
978		5468.750000
979		5468.750000
980		5468.750000
981		5468.750000
982		5468.750000
983		5468.750000
984		5468.750000
985		5468.750000
986		5468.750000
987		5468.750000
988		5468.750000
989		5546.875000
990		5468.750000
991		5468.750000
992		5468.750000
993		5468.750000
994		5468.750000
995		5468.750000
996		5546.875000
997		5468.750000
998		5468.750000
999		5546.875000
1000		5468.750000
1001		5468.750000
1002		5468.750000
1003		5468.750000
1004		5546.875000
1005		5546.875000
1006		5468.750000
1007		5468.750000
1008		5468.750000
1009		5468.750000
1010		5468.750000
1011		5468.750000
1012		5468.750000
1013		5468.750000
1014		5468.750000
1015		5468.750000
1016		5468.750000
1017		5468.750000
1018		5468.750000
1019		5468.750000
1020		5468.750000
1021		5468.750000
1022		5468.750000
1023		5468.750000
1024		5468.750000
1025		5468.750000
1026		5468.750000
1027		5468.750000
1028		5468.750000
1029		5468.750000
1030		5468.750000
1031		5468.750000
1032		5468.750000
1033		5468.750000
1034		5468.750000
1035		5468.750000
1036		5468.750000
1037		5468.750000
1038		5468.750000
1039		5468.750000
1040		5468.750000
1041		5468.750000
1042		5390.625000
1043		5468.750000
1044		5390.625000
1045		5390.625000
1046		5390.625000
1047		5390.625000
1048		5390.625000
1049		5390.625000
1050		5390.625000
1051		5390.625000
1052		5390.625000
1053		5390.625000
1054		5390.625000
1055		5390.625000
1056		5390.625000
1057		5390.625000
1058		5390.625000
1059		5390.625000
1060		5390.625000
1061		5390.625000
1062		5390.625000
1063		5390.625000
1064		5312.500000
1065		5312.500000
1066		5312.500000
1067		5312.500000
1068		5312.500000
1069		5312.500000
1070		5312.500000
1071		5312.500000
1072		5312.500000
1073		5312.500000
1074		5312.500000
1075		5312.500000
1076		5312.500000
1077		5312.500000
1078		5312.500000
1079		5312.500000
1080		5312.500000
1081		5234.375000
1082		5234.375000
1083		5234.375000
1084		5234.375000
1085		5234.375000
1086		5234.375000
1087		5234.375000
1088		5234.375000
1089		5234.375000
1090		5234.375000
1091		5234.375000
1092		5234.375000
1093		5234.375000
1094		5234.375000
1095		5234.375000
1096		5156.250000
1097		5156.250000
1098		5156.250000
1099		5156.250000
1100		5156.250000
1101		5156.250000
1102		5156.250000
1103		5156.250000
1104		5156.250000
1105		5156.250000
1106		5156.250000
1107		5156.250000
1108		5078.125000
1109		5078.125000
1110		5078.125000
1111		5078.125000
1112		5078.125000
1113		5078.125000
1114		5078.125000
1115		5078.125000
1116		5078.125000
1117		5078.125000
1118		5078.125000
1119		5000.000000
1120		5000.000000
1121		5000.000000
1122		5000.000000
1123		5000.000000
1124		5000.000000
1125		5000.000000
1126		5000.000000
1127		5000.000000
1128		5000.000000
1129		5000.000000
1130		5000.000000
1131		4921.875000
1132		4921.875000
1133		4921.875000
1134		4921.875000
1135		4921.875000
1136		4921.875000
1137		4921.875000
1138		4921.875000
1139		4921.875000
1140		4921.875000
1141		4921.875000
1142		4843.750000
1143		4843.750000
1144		4843.750000
1145		4843.750000
1146		4843.750000
1147		4843.750000
1148		4843.750000
1149		4843.750000
1150		4843.750000
1151		4843.750000
1152		4765.625000
1153		4765.625000
1154		4765.625000
1155		4765.625000
1156		4765.625000
1157		4765.625000
1158		4765.625000
1159		4765.625000
1160		4765.625000
1161		4765.625000
1162		4687.500000
1163		4687.500000
1164		4687.500000
1165		4687.500000
1166		4687.500000
1167		4687.500000
1168		4687.500000
1169		4687.500000
1170		4687.500000
1171		4687.500000
1172		4687.500000
1173		4609.375000
1174		4609.375000
1175		4609.375000
1176		4609.375000
1177		4609.375000
1178		4609.375000
1179		4609.375000
1180		4609.375000
1181		4609.375000
1182		4609.375000
1183		4531.250000
1184		4531.250000
1185		4531.250000
1186		4531.250000
1187		4531.250000
1188		4531.250000
1189		4531.250000
1190		4531.250000
1191		4531.250000
1192		4453.125000
1193		4453.125000
1194		4453.125000
1195		4453.125000
1196		4453.125000
1197		4453.125000
1198		4453.125000
1199		4453.125000
1200		4453.125000
1201		4453.125000
1202		4453.125000
1203		4453.125000
1204		4375.000000
1205		4375.000000
1206		4375.000000
1207		4375.000000
1208		4375.000000
1209		4375.000000
1210		4375.000000
1211		4375.000000
1212		4375.000000
1213		4296.875000
1214		4296.875000
1215		4296.875000
1216		4296.875000
1217		4296.875000
1218		4296.875000
1219		4296.875000
1220		4296.875000
1221		4296.875000
1222		4296.875000
1223		4218.750000
1224		4218.750000
1225		4218.750000
1226		4218.750000
1227		4218.750000
1228		4218.750000
1229		4218.750000
1230		4218.750000
1231		4218.750000
1232		4218.750000
1233		4140.625000
1234		4140.625000
1235		4140.625000
1236		4140.625000
1237		4140.625000
1238		4140.625000
1239		4140.625000
1240		4140.625000
1241		4140.625000
1242		4140.625000
1243		4062.500000
1244		4062.500000
1245		4062.500000
1246		4062.500000
1247		4062.500000
1248		4062.500000
1249		4062.500000
1250		4062.500000
1251		4062.500000
1252		3984.375000
1253		4062.500000
1254		3984.375000
1255		3984.375000
1256		3984.375000
1257		3984.375000
1258		3984.375000
1259		3984.375000
1260		3984.375000
1261		3984.375000
1262		3984.375000
1263		3984.375000
1264		3906.250000
1265		3906.250000
1266		3906.250000
1267		3906.250000
1268		3906.250000
1269		3906.250000
1270		3906.250000
1271		3906.250000
1272		3906.250000
1273		3906.250000
1274		3906.250000
1275		3906.250000
1276		3906.250000
1277		3828.125000
1278		3828.125000
1279		3828.125000
1280		3828.125000
1281		3828.125000
1282		3828.125000
1283		3828.125000
1284		3828.125000
1285		3828.125000
1286		3750.000000
1287		3828.125000
1288		3750.000000
1289		3750.000000
1290		3750.000000
1291		3750.000000
1292		3750.000000
1293		3750.000000
1294		3750.000000
1295		3750.000000
1296		3750.000000
1297		3750.000000
1298		3750.000000
1299		3750.000000
1300		3671.875000
1301		3671.875000
1302		3671.875000
1303		3671.875000
1304		3671.875000
1305		3671.875000
1306		3671.875000
1307		3671.875000
1308		3671.875000
1309		3671.875000
1310		3671.875000
1311		3671.875000
1312		3593.750000
1313		3593.750000
1314		3593.750000
1315		3593.750000
1316		3593.750000
1317		3593.750000
1318		3593.750000
1319		3593.750000
1320		3593.750000
1321		3593.750000
1322		3515.625000
1323		3515.625000
1324		3515.625000
1325		3515.625000
1326		3515.625000
1327		3515.625000
1328		3515.625000
1329		3515.625000
1330		3515.625000
1331		3515.625000
1332		3515.625000
1333		3515.625000
1334		3515.625000
1335		3515.625000
1336		3515.625000
1337		3437.500000
1338		3437.500000
1339		3437.500000
1340		3437.500000
1341		3437.500000
1342		3437.500000
1343		3437.500000
1344		3437.500000
1345		3437.500000
1346		3437.500000
1347		3437.500000
1348		3437.500000
1349		3437.500000
1350		3437.500000
1351		3359.375000
1352		3359.375000
1353		3359.375000
1354		3359.375000
1355		3359.375000
1356		3359.375000
1357		3359.375000
1358		3359.375000
1359		3359.375000
1360		3359.375000
1361		3359.375000
1362		3359.375000
1363		3359.375000
1364		3359.375000
1365		3359.375000
1366		3281.250000
1367		3281.250000
1368		3281.250000
1369		3281.250000
1370		3281.250000
1371		3281.250000
1372		3281.250000
1373		3281.250000
1374		3281.250000
1375		3281.250000
1376		3281.250000
1377		3281.250000
1378		3281.250000
1379		3281.250000
1380		3281.250000
1381		3281.250000
1382		3281.250000
1383		3203.125000
1384		3203.125000
1385		3203.125000
1386		3203.125000
1387		3203.125000
1388		3203.125000
1389		3203.125000
1390		3203.125000
1391		3203.125000
1392		3203.125000
1393		3203.125000
1394		3203.125000
1395		3203.125000
1396		3203.125000
1397		3203.125000
1398		3203.125000
1399		3203.125000
1400		3203.125000
1401		3125.000000
1402		3125.000000
1403		3125.000000
1404		3125.000000
1405		3125.000000
1406		3125.000000
1407		3125.000000
1408		3125.000000
1409		3125.000000
1410		3125.000000
1411		3125.000000
1412		3125.000000
1413		3125.000000
1414		3125.000000
1415		3125.000000
1416		3125.000000
1417		3125.000000
1418		3125.000000
1419		3046.875000
1420		3046.875000
1421		3046.875000
1422		3046.875000
1423		3046.875000
1424		3046.875000
1425		3046.875000
1426		3046.875000
1427		3046.875000
1428		3046.875000
1429		3046.875000
1430		3046.875000
1431		3046.875000
1432		3046.875000
1433		3046.875000
1434		3046.875000
1435		3046.875000
1436		3046.875000
1437		3046.875000
1438		3046.875000
1439		3046.875000
1440		3046.875000
1441		3046.875000
1442		2968.750000
1443		2968.750000
1444		2968.750000
1445		2968.750000
1446		2968.750000
1447		2968.750000
1448		2968.750000
1449		2968.750000
1450		2968.750000
1451		2968.750000
1452		2968.750000
1453		2968.750000
1454		2968.750000
1455		2968.750000
1456		2968.750000
1457		2968.750000
1458		2968.750000
1459		2968.750000
1460		2968.750000
1461		2968.750000
1462		2968.750000
1463		2968.750000
1464		2890.625000
1465		2890.625000
1466		2890.625000
1467		2890.625000
1468		2890.625000
1469		2890.625000
1470		2890.625000
1471		2890.625000
1472		2890.625000
1473		2890.625000
1474		2890.625000
1475		2890.625000
1476		2890.625000
1477		2890.625000
1478		2890.625000
1479		2890.625000
1480		2890.625000
1481		2890.625000
1482		2890.625000
1483		2890.625000
1484		2890.625000
1485		2890.625000
1486		2890.625000
1487		2890.625000
1488		2890.625000
1489		2890.625000
1490		2890.625000
1491		2890.625000
1492		2812.500000
1493		2890.625000
1494		2890.625000
1495		2890.625000
1496		2890.625000
1497		2812.500000
1498		2812.500000
1499		2812.500000
1500		2812.500000
1501		2812.500000
1502		2812.500000
1503		2812.500000
1504		2812.500000
1505		2812.500000
1506		2812.500000
1507		2812.500000
1508		2812.500000
1509		2812.500000
1510		2812.500000
1511		2812.500000
1512		2812.500000
1513		2812.500000
1514		2812.500000
1515		2812.500000
1516		2812.500000
1517		2812.500000
1518		2812.500000
1519		2812.500000
1520		2734.375000
1521		2812.500000
1522		2812.500000
1523		2812.500000
1524		2812.500000
1525		2812.500000
1526		2812.500000
1527		2812.500000
1528		2812.500000
1529		2734.375000
1530		2812.500000
1531		2812.500000
1532		2734.375000
1533		2734.375000
1534		2734.375000
1535		2734.375000
1536		2734.375000
1537		2734.375000
1538		2734.375000
1539		2734.375000
1540		2734.375000
1541		2734.375000
1542		2734.375000
1543		2734.375000
1544		2734.375000
1545		2734.375000
1546		2734.375000
1547		2734.375000
1548		2734.375000
1549		2734.375000
1550		2734.375000
1551		2734.375000
1552		2734.375000
1553		2734.375000
1554		2734.375000
1555		2734.375000
1556		2734.375000
1557		2734.375000
1558		2734.375000
1559		2734.375000
1560		2734.375000
1561		2734.375000
1562		2734.375000
1563		2734.375000
1564		2734.375000
1565		2734.375000
1566		2734.375000
1567		2734.375000
1568		2734.375000
1569		2734.375000
1570		2734.375000
1571		2734.375000
1572		2734.375000
1573		2734.375000
1574		2734.375000
1575		2734.375000
1576		2734.375000
1577		2734.375000
1578		2734.375000
1579		2734.375000
1580		2734.375000
1581		2734.375000
1582		2734.375000
1583		2734.375000
1584		2734.375000
1585		2734.375000
1586		2734.375000
1587		2734.375000
1588		2734.375000
1589		2734.375000
1590		2656.250000
1591		2734.375000
1592		2656.250000
1593		2656.250000
1594		2734.375000
1595		2734.375000
1596		2734.375000
1597		2734.375000
1598		2734.375000
1599		2734.375000
1600		2734.375000
1601		2734.375000
1602		2734.375000
1603		2656.250000
1604		2734.375000
1605		2656.250000
1606		2656.250000
1607		2656.250000
1608		2656.250000
1609		2656.250000
1610		2656.250000
1611		2656.250000
1612		2656.250000
1613		2656.250000
1614		2656.250000
1615		2656.250000
1616		2656.250000
1617		2656.250000
1618		2656.250000
1619		2656.250000
1620		2656.250000
1621		2656.250000
1622		2656.250000
1623		2656.250000
1624		2656.250000
1625		2656.250000
1626		2656.250000
1627		2656.250000
1628		2656.250000
1629		2656.250000
1630		2656.250000
1631		2656.250000
1632		2656.250000
1633		2656.250000
1634		2656.250000
1635		2656.250000
1636		2656.250000
1637		2656.250000
1638		2656.250000
1639		2656.250000
1640		2656.250000
1641		2656.250000
1642		2656.250000
1643		2656.250000
1644		2656.250000
1645		2656.250000
1646		2656.250000
1647		2656.250000
1648		2656.250000
1649		2656.250000
1650		2656.250000
1651		2656.250000
1652		2656.250000
1653		2656.250000
1654		2656.250000
1655		2656.250000
1656		2656.250000
1657		2656.250000
1658		2656.250000
1659		2656.250000
1660		2656.250000
1661		2656.250000
1662		2656.250000
1663		2656.250000
1664		2656.250000
1665		2656.250000
1666		2656.250000
1667		2656.250000
1668		2656.250000
1669		2656.250000
1670		2656.250000
1671		2656.250000
1672		2656.250000
1673		2656.250000
1674		2656.250000
1675		2656.250000
1676		2656.250000
1677		2734.375000
1678		2656.250000
1679		2656.250000
1680		2656.250000
1681		2656.250000
1682		2656.250000
1683		2656.250000
1684		2656.250000
1685		2656.250000
1686		2656.250000
1687		2734.375000
1688		2656.250000
1689		2734.375000
1690		2734.375000
1691		2734.375000
1692		2656.250000
1693		2734.375000
1694		2734.375000
1695		2734.375000
1696		2734.375000
1697		2734.375000
1698		2734.375000
1699		2734.375000
1700		2734.375000
1701		2656.250000
1702		2734.375000
1703		2734.375000
1704		2734.375000
1705		2734.375000
1706		2734.375000
1707		2734.375000
1708		2734.375000
1709		2734.375000
1710		2734.375000
1711		2734.375000
1712		2734.375000
1713		2734.375000
1714		2734.375000
1715		2734.375000
1716		2734.375000
1717		2734.375000
1718		2734.375000
1719		2734.375000
1720		2734.375000
1721		2734.375000
1722		2734.375000
1723		2734.375000
1724		2734.375000
1725		2734.375000
1726		2734.375000
1727		2734.375000
1728		2734.375000
1729		2734.375000
1730		2734.375000
1731		2734.375000
1732		2734.375000
1733		2734.375000
1734		2734.375000
1735		2734.375000
1736		2734.375000
1737		2734.375000
1738		2734.375000
1739		2734.375000
1740		2734.375000
1741		2734.375000
1742		2734.375000
1743		2734.375000
1744		2734.375000
1745		2734.375000
1746		2734.375000
1747		2812.500000
1748		2734.375000
1749		2812.500000
1750		2812.500000
1751		2734.375000
1752		2812.500000
1753		2812.500000
1754		2812.500000
1755		2812.500000
1756		2812.500000
1757		2812.500000
1758		2812.500000
1759		2812.500000
1760		2812.500000
1761		2812.500000
1762		2812.500000
1763		2812.500000
1764		2812.500000
1765		2812.500000
1766		2812.500000
1767		2812.500000
1768		2812.500000
1769		2812.500000
1770		2812.500000
1771		2812.500000
1772		2812.500000
1773		2812.500000
1774		2812.500000
1775		2812.500000
1776		2812.500000
1777		2812.500000
1778		2812.500000
1779		2812.500000
1780		2812.500000
1781		2812.500000
1782		2812.500000
1783		2890.625000
1784		2812.500000
1785		2890.625000
1786		2890.625000
1787		2890.625000
1788		2890.625000
1789		2890.625000
1790		2890.625000
1791		2890.625000
1792		2890.625000
1793		2890.625000
1794		2890.625000
1795		2890.625000
1796		2890.625000
1797		2890.625000
1798		2890.625000
1799		2890.625000
1800		2890.625000
1801		2890.625000
1802		2890.625000
1803		2890.625000
1804		2890.625000
1805		2890.625000
1806		2890.625000
1807		2890.625000
1808		2890.625000
1809		2890.625000
1810		2890.625000
1811		2890.625000
1812		2968.750000
1813		2968.750000
1814		2968.750000
1815		2968.750000
1816		2968.750000
1817		2968.750000
1818		2968.750000
1819		2968.750000
1820		2968.750000
1821		2968.750000
1822		2968.750000
1823		2968.750000
1824		2968.750000
1825		2968.750000
1826		2968.750000
1827		2968.750000
1828		2968.750000
1829		2968.750000
1830		2968.750000
1831		2968.750000
1832		2968.750000
1833		3046.875000
1834		3046.875000
1835		3046.875000
1836		3046.875000
1837		3046.875000
1838		3046.875000
1839		3046.875000
1840		3046.875000
1841		3046.875000
1842		3046.875000
1843		3046.875000
1844		3046.875000
1845		3046.875000
1846		3046.875000
1847		3046.875000
1848		3046.875000
1849		3046.875000
1850		3046.875000
1851		3046.875000
1852		3046.875000
1853		3125.000000
1854		3125.000000
1855		3125.000000
1856		3125.000000
1857		3125.000000
1858		3125.000000
1859		3125.000000
1860		3125.000000
1861		3125.000000
1862		3125.000000
1863		3125.000000
1864		3125.000000
1865		3125.000000
1866		3125.000000
1867		3125.000000
1868		3125.000000
1869		3125.000000
1870		3125.000000
1871		3203.125000
1872		3203.125000
1873		3203.125000
1874		3203.125000
1875		3203.125000
1876		3203.125000
1877		3203.125000
1878		3203.125000
1879		3203.125000
1880		3203.125000
1881		3203.125000
1882		3203.125000
1883		3203.125000
1884		3203.125000
1885		3203.125000
1886		3281.250000
1887		3281.250000
1888		3281.250000
1889		3281.250000
1890		3281.250000
1891		3281.250000
1892		3281.250000
1893		3281.250000
1894		3281.250000
1895		3281.250000
1896		3281.250000
1897		3281.250000
1898		3359.375000
1899		3359.375000
1900		3359.375000
1901		3359.375000
1902		3359.375000
1903		3359.375000
1904		3359.375000
1905		3359.375000
1906		3359.375000
1907		3359.375000
1908		3359.375000
1909		3359.375000
1910		3359.375000
1911		3437.500000
1912		3437.500000
1913		3437.500000
1914		3437.500000
1915		3437.500000
1916		3437.500000
1917		3437.500000
1918		3437.500000
1919		3437.500000
1920		3437.500000
1921		3437.500000
1922		3437.500000
1923		3437.500000
1924		3437.500000
1925		3515.625000
1926		3515.625000
1927		3515.625000
1928		3515.625000
1929		3515.625000
1930		3515.625000
1931		3515.625000
1932		3515.625000
1933		3515.625000
1934		3515.625000
1935		3515.625000
1936		3593.750000
1937		3593.750000
1938		3593.750000
1939		3593.750000
1940		3593.750000
1941		3593.750000
1942		3593.750000
1943		3593.750000
1944		3593.750000
1945		3593.750000
1946		3671.875000
1947		3671.875000
1948		3671.875000
1949		3671.875000
1950		3671.875000
1951		3671.875000
1952		3671.875000
1953		3671.875000
1954		3671.875000
1955		3671.875000
1956		3671.875000
1957		3750.000000
1958		3750.000000
1959		3750.000000
1960		3750.000000
1961		3750.000000
1962		3750.000000
1963		3750.000000
1964		3750.000000
1965		3750.000000
1966		3828.125000
1967		3828.125000
1968		3828.125000
1969		3828.125000
1970		3828.125000
1971		3828.125000
1972		3828.125000
1973		3828.125000
1974		3828.125000
1975		3828.125000
1976		3906.250000
1977		3906.250000
1978		3906.250000
1979		3906.250000
1980		3906.250000
1981		3906.250000
1982		3906.250000
1983		3906.250000
1984		3906.250000
1985		3906.250000
1986		3984.375000
1987		3984.375000
1988		3984.375000
1989		3984.375000
1990		3984.375000
1991		3984.375000
1992		3984.375000
1993		3984.375000
1994		3984.375000
1995		4062.500000
1996		4062.500000
1997		4062.500000
1998		4062.500000
1999		4062.500000
2000		4062.500000
2001		4062.500000
2002		4062.500000
2003		4140.625000
2004		4140.625000
2005		4140.625000
2006		4140.625000
2007		4140.625000
2008		4140.625000
2009		4140.625000
2010		4140.625000
2011		4140.625000
2012		4140.625000
2013		4218.750000
2014		4218.750000
2015		4218.750000
2016		4218.750000
2017		4218.750000
2018		4218.750000
2019		4218.750000
2020		4218.750000
2021		4218.750000
2022		4296.875000
2023		4296.875000
2024		4296.875000
2025		4296.875000
2026		4296.875000
2027		4296.875000
2028		4296.875000
2029		4296.875000
2030		4296.875000
2031		4296.875000
2032		4375.000000
2033		4375.000000
2034		4375.000000
2035		4375.000000
2036		4375.000000
2037		4375.000000
2038		4375.000000
2039		4453.125000
2040		4453.125000
2041		4453.125000
2042		4453.125000
2043		4453.125000
2044		4453.125000
2045		4453.125000
2046		4453.125000
2047		4453.125000
2048		4453.125000
2049		4453.125000
2050		4531.250000
2051		4531.250000
2052		4531.250000
2053		4531.250000
2054		4531.250000
2055		4531.250000
2056		4531.250000
2057		4531.250000
2058		4609.375000
2059		4609.375000
2060		4609.375000
2061		4609.375000
2062		4609.375000
2063		4609.375000
2064		4609.375000
2065		4609.375000
2066		4609.375000
2067		4687.500000
2068		4687.500000
2069		4687.500000
2070		4687.500000
2071		4687.500000
2072		4687.500000
2073		4687.500000
2074		4687.500000
2075		4765.625000
2076		4765.625000
2077		4765.625000
2078		4765.625000
2079		4765.625000
2080		4765.625000
2081		4765.625000
2082		4765.625000
2083		4765.625000
2084		4765.625000
2085		4765.625000
2086		4843.750000
2087		4843.750000
2088		4843.750000
2089		4843.750000
2090		4843.750000
2091		4843.750000
2092		4843.750000
2093		4843.750000
2094		4843.750000
2095		4921.875000
2096		4921.875000
2097		4921.875000
2098		4921.875000
2099		4921.875000
2100		4921.875000
2101		4921.875000
2102		4921.875000
2103		4921.875000
2104		4921.875000
2105		4921.875000
2106		4921.875000
2107		5000.000000
2108		5000.000000
2109		5000.000000
2110		5000.000000
2111		5000.000000
2112		5000.000000
2113		5000.000000
2114		5000.000000
2115		5000.000000
2116		5000.000000
2117		5078.125000
2118		5078.125000
2119		5078.125000
2120		5078.125000
2121		5078.125000
2122		5078.125000
2123		5078.125000
2124		5078.125000
2125		5078.125000
2126		5078.125000
2127		5156.250000
2128		5078.125000
2129		5156.250000
2130		5156.250000
2131		5156.250000
2132		5156.250000
2133		5156.250000
2134		5156.250000
2135		5156.250000
2136		5156.250000
2137		5156.250000
2138		5156.250000
2139		5156.250000
2140		5156.250000
2141		5234.375000
2142		5234.375000
2143		5234.375000
2144		5234.375000
2145		5234.375000
2146		5234.375000
2147		5234.375000
2148		5234.375000
2149		5234.375000
2150		5234.375000
2151		5234.375000
2152		5234.375000
2153		5234.375000
2154		5312.500000
2155		5312.500000
2156		5312.500000
2157		5312.500000
2158		5312.500000
2159		5312.500000
2160		5312.500000
2161		5312.500000
2162		5312.500000
2163		5312.500000
2164		5312.500000
2165		5312.500000
2166		5312.500000
2167		5312.500000
2168		5312.500000
2169		5312.500000
2170		5312.500000
2171		5312.500000
2172		5312.500000
2173		5312.500000
2174		5390.625000
2175		5390.625000
2176		5390.625000
2177		5390.625000
2178		5390.625000
2179		5390.625000
2180		5390.625000
2181		5390.625000
2182		5390.625000
2183		5390.625000
2184		5390.625000
2185		5390.625000
2186		5390.625000
2187		5390.625000
2188		5390.625000
2189		5390.625000
2190		5390.625000
2191		5390.625000
2192		5390.625000
2193		5390.625000
2194		5390.625000
2195		5468.750000
2196		5468.750000
2197		5468.750000
2198		5468.750000
2199		5468.750000
2200		5468.750000
2201		5468.750000
2202		5468.750000
2203		5468.750000
2204		5468.750000
2205		5468.750000
2206		5468.750000
2207		5468.750000
2208		5468.750000
2209		5468.750000
2210		5468.750000
2211		5468.750000
2212		5468.750000
2213		5468.750000
2214		5468.750000
2215		5468.750000
2216		5468.750000
2217		5468.750000
2218		5468.750000
2219		5468.750000
2220		5468.750000
2221		5468.750000
2222		5468.750000
2223		5468.750000
2224		5468.750000
2225		5468.750000
2226		5468.750000
2227		5468.750000
2228		5468.750000
2229		5468.750000
2230		5468.750000
2231		5468.750000
2232		5468.750000
2233		5468.750000
2234		5468.750000
2235		5468.750000
2236		5468.750000
2237		5468.750000
2238		5468.750000
2239		5468.750000
2240		5468.750000
2241		5468.750000
2242		5468.750000
2243		5468.750000
2244		5390.625000
2245		5468.750000
2246		5468.750000
2247		5468.750000
2248		5468.750000
2249		5468.750000
2250		5468.750000
2251		5468.750000
2252		5468.750000
2253		5468.750000
2254		5468.750000
2255		5468.750000
2256		5468.750000
2257		5468.750000
2258		5468.750000
2259		5468.750000
2260		5468.750000
2261		5468.750000
2262		5468.750000
2263		5468.750000
2264		5468.750000
2265		5468.750000
2266		5468.750000
2267		5390.625000
2268		5468.750000
2269		5468.750000
2270		5390.625000
2271		5390.625000
2272		5468.750000
2273		5390.625000
2274		5390.625000
2275		5390.625000
2276		5390.625000
2277		5390.625000
2278		5390.625000
2279		5390.625000
2280		5390.625000
2281		5390.625000
2282		5390.625000
2283		5390.625000
2284		5390.625000
2285		5390.625000
2286		5390.625000
2287		5390.625000
2288		5390.625000
2289		5390.625000
2290		5390.625000
2291		5390.625000
2292		5390.625000
2293		5390.625000
2294		5390.625000
2295		5390.625000
2296		5312.500000
2297		5312.500000
2298		5312.500000
2299		5312.500000
2300		5312.500000
2301		5312.500000
2302		5312.500000
2303		5312.500000
2304		5312.500000
2305		5312.500000
2306		5312.500000
2307		5312.500000
2308		5312.500000
2309		5312.500000
2310		5312.500000
2311		5312.500000
2312		5312.500000
2313		5312.500000
2314		5234.375000
2315		5234.375000
2316		5234.375000
2317		5234.375000
2318		5234.375000
2319		5234.375000
2320		5234.375000
2321		5234.375000
2322		5234.375000
2323		5234.375000
2324		5234.375000
2325		5234.375000
2326		5234.375000
2327		5234.375000
2328		5156.250000
2329		5156.250000
2330		5156.250000
2331		5156.250000
2332		5156.250000
2333		5156.250000
2334		5156.250000
2335		5156.250000
2336		5156.250000
2337		5156.250000
2338		5156.250000
2339		5156.250000
2340		5156.250000
2341		5156.250000
2342		5078.125000
2343		5078.125000
2344		5078.125000
2345		5078.125000
2346		5078.125000
2347		5078.125000
2348		5078.125000
2349		5078.125000
2350		5078.125000
2351		5078.125000
2352		5078.125000
2353		5000.000000
2354		5000.000000
2355		5000.000000
2356		5000.000000
2357		5000.000000
2358		5000.000000
2359		5000.000000
2360		5000.000000
2361		5000.000000
2362		5000.000000
2363		5000.000000
2364		5000.000000
2365		5000.000000
2366		4921.875000
2367		4921.875000
2368		4921.875000
2369		4921.875000
2370		4921.875000
2371		4921.875000
2372		4921.875000
2373		4921.875000
2374		4921.875000
2375		4921.875000
2376		4921.875000
2377		4921.875000
2378		4843.750000
2379		4843.750000
2380		4843.750000
2381		4843.750000
2382		4843.750000
2383		4843.750000
2384		4843.750000
2385		4843.750000
2386		4843.750000
2387		4765.625000
2388		4765.625000
2389		4765.625000
2390		4765.625000
2391		4765.625000
2392		4765.625000
2393		4765.625000
2394		4765.625000
2395		4765.625000
2396		4765.625000
2397		4765.625000
2398		4765.625000
2399		4687.500000
2400		4687.500000
2401		4687.500000
2402		4687.500000
2403		4687.500000
2404		4687.500000
2405		4687.500000
2406		4687.500000
2407		4609.375000
2408		4609.375000
2409		4609.375000
2410		4609.375000
2411		4609.375000
2412		4609.375000
2413		4609.375000
2414		4609.375000
2415		4609.375000
2416		4609.375000
2417		4609.375000
2418		4609.375000
2419		4609.375000
2420		4531.250000
2421		4531.250000
2422		4531.250000
2423		4531.250000
2424		4531.250000
2425		4531.250000
2426		4531.250000
2427		4531.250000
2428		4531.250000
2429		4531.250000
2430		4453.125000
2431		4453.125000
2432		4453.125000
2433		4453.125000
2434		4453.125000
2435		4453.125000
2436		4453.125000
2437		4453.125000
2438		4453.125000
2439		4375.000000
2440		4453.125000
2441		4375.000000
2442		4375.000000
2443		4375.000000
2444		4375.000000
2445		4375.000000
2446		4375.000000
2447		4375.000000
2448		4375.000000
2449		4296.875000
2450		4375.000000
2451		4296.875000
2452		4296.875000
2453		4296.875000
2454		4296.875000
2455		4296.875000
2456		4296.875000
2457		4296.875000
2458		4296.875000
2459		4218.750000
2460		4218.750000
2461		4218.750000
2462		4218.750000
2463		4218.750000
2464		4218.750000
2465		4218.750000
2466		4218.750000
2467		4218.750000
2468		4218.750000
2469		4140.625000
2470		4140.625000
2471		4140.625000
2472		4140.625000
2473		4140.625000
2474		4140.625000
2475		4140.625000
2476		4140.625000
2477		4140.625000
2478		4140.625000
2479		4062.500000
2480		4062.500000
2481		4062.500000
2482		4062.500000
2483		4062.500000
2484		4062.500000
2485		4062.500000
2486		4062.500000
2487		4062.500000
2488		4062.500000
2489		3984.375000
2490		3984.375000
2491		3984.375000
2492		3984.375000
2493		3984.375000
2494		3984.375000
2495		3984.375000
2496		3984.375000
2497		3984.375000
2498		3984.375000
2499		3984.375000
2500		3984.375000
2501		3906.250000
2502		3906.250000
2503		3906.250000
2504		3906.250000
2505		3906.250000
2506		3906.250000
2507		3906.250000
2508		3906.250000
2509		3906.250000
2510		3906.250000
2511		3906.250000
2512		3828.125000
2513		3828.125000
2514		3828.125000
2515		3828.125000
2516		3828.125000
2517		3828.125000
2518		3828.125000
2519		3828.125000
2520		3828.125000
2521		3828.125000
2522		3828.125000
2523		3828.125000
2524		3750.000000
2525		3750.000000
2526		3750.000000
2527		3750.000000
2528		3750.000000
2529		3750.000000
2530		3750.000000
2531		3750.000000
2532		3750.000000
2533		3750.000000
2534		3750.000000
2535		3671.875000
2536		3671.875000
2537		3671.875000
2538		3671.875000
2539		3671.875000
2540		3671.875000
2541		3671.875000
2542		3671.875000
2543		3671.875000
2544		3671.875000
2545		3671.875000
2546		3671.875000
2547		3593.750000
2548		3593.750000
2549		3593.750000
2550		3593.750000
2551		3593.750000
2552		3593.750000
2553		3593.750000
2554		3593.750000
2555		3593.750000
2556		3593.750000
2557		3593.750000
2558		3593.750000
2559		3593.750000
2560		3593.750000
2561		3515.625000
2562		3515.625000
2563		3515.625000
2564		3515.625000
2565		3515.625000
2566		3515.625000
2567		3515.625000
2568		3515.625000
2569		3515.625000
2570		3515.625000
2571		3515.625000
2572		3515.625000
2573		3515.625000
2574		3515.625000
2575		3437.500000
2576		3437.500000
2577		3437.500000
2578		3437.500000
2579		3437.500000
2580		3437.500000
2581		3437.500000
2582		3437.500000
2583		3437.500000
2584		3437.500000
2585		3437.500000
2586		3437.500000
2587		3359.375000
2588		3359.375000
2589		3359.375000
2590		3359.375000
2591		3359.375000
2592		3359.375000
2593		3359.375000
2594		3359.375000
2595		3359.375000
2596		3359.375000
2597		3359.375000
2598		3359.375000
2599		3359.375000
2600		3359.375000
2601		3359.375000
2602		3359.375000
2603		3281.250000
2604		3281.250000
2605		3281.250000
2606		3281.250000
2607		3281.250000
2608		3281.250000
2609		3281.250000
2610		3281.250000
2611		3281.250000
2612		3281.250000
2613		3281.250000
2614		3281.250000
2615		3281.250000
2616		3281.250000
2617		3281.250000
2618		3281.250000
2619		3281.250000
2620		3203.125000
2621		3203.125000
2622		3203.125000
2623		3203.125000
2624		3203.125000
2625		3203.125000
2626		3203.125000
2627		3203.125000
2628		3203.125000
2629		3203.125000
2630		3203.125000
2631		3203.125000
2632		3203.125000
2633		3203.125000
2634		3203.125000
2635		3203.125000
2636		3203.125000
2637		3203.125000
2638		3125.000000
2639		3125.000000
2640		3125.000000
2641		3125.000000
2642		3125.000000
2643		3125.000000
2644		3125.000000
2645		3125.000000
2646		3125.000000
2647		3125.000000
2648		3125.000000
2649		3125.000000
2650		3125.000000
2651		3125.000000
2652		3125.000000
2653		3125.000000
2654		3125.000000
2655		3125.000000
2656		3125.000000
2657		3046.875000
2658		3046.875000
2659		3046.875000
2660		3046.875000
2661		3046.875000
2662		3046.875000
2663		3046.875000
2664		3046.875000
2665		3046.875000
2666		3046.875000
2667		3046.875000
2668		3046.875000
2669		3046.875000
2670		3046.875000
2671		3046.875000
2672		3046.875000
2673		3046.875000
2674		3046.875000
2675		3046.875000
2676		3046.875000
2677		2968.750000
2678		2968.750000
2679		2968.750000
2680		2968.750000
2681		2968.750000
2682		2968.750000
2683		2968.750000
2684		2968.750000
2685		2968.750000
2686		2968.750000
2687		2968.750000
2688		2968.750000
2689		2968.750000
2690		2968.750000
2691		2968.750000
2692		2968.750000
2693		2968.750000
2694		2968.750000
2695		2968.750000
2696		2968.750000
2697		2968.750000
2698		2968.750000
2699		2968.750000
2700		2968.750000
2701		2968.750000
2702		2968.750000
2703		2968.750000
2704		2890.625000
2705		2890.625000
2706		2890.625000
2707		2890.625000
2708		2890.625000
2709		2890.625000
2710		2890.625000
2711		2890.625000
2712		2890.625000
2713		2890.625000
2714		2890.625000
2715		2890.625000
2716		2890.625000
2717		2890.625000
2718		2890.625000
2719		2890.625000
2720		2890.625000
2721		2890.625000
2722		2890.625000
2723		2890.625000
2724		2890.625000
2725		2890.625000
2726		2890.625000
2727		2890.625000
2728		2890.625000
2729		2890.625000
2730		2812.500000
2731		2812.500000
2732		2812.500000
2733		2812.500000
2734		2812.500000
2735		2812.500000
2736		2812.500000
2737		2812.500000
2738		2812.500000
2739		2812.500000
2740		2812.500000
2741		2812.500000
2742		2812.500000
2743		2812.500000
2744		2812.500000
2745		2812.500000
2746		2812.500000
2747		2812.500000
2748		2812.500000
2749		2812.500000
2750		2812.500000
2751		2812.500000
2752		2812.500000
2753		2812.500000
2754		2812.500000
2755		2812.500000
2756		2812.500000
2757		2812.500000
2758		2812.500000
2759		2812.500000
2760		2812.500000
2761		2812.500000
2762		2812.500000
2763		2812.500000
2764		2812.500000
2765		2734.375000
2766		2812.500000
2767		2734.375000
2768		2812.500000
2769		2734.375000
2770		2734.375000
2771		2734.375000
2772		2734.375000
2773		2734.375000
2774		2734.375000
2775		2812.500000
2776		2734.375000
2777		2812.500000
2778		2734.375000
2779		2734.375000
2780		2734.375000
2781		2734.375000
2782		2734.375000
2783		2734.375000
2784		2734.375000
2785		2734.375000
2786		2734.375000
2787		2734.375000
2788		2734.375000
2789		2734.375000
2790		2734.375000
2791		2734.375000
2792		2734.375000
2793		2734.375000
2794		2734.375000
2795		2734.375000
2796		2734.375000
2797		2734.375000
2798		2734.375000
2799		2734.375000
2800		2734.375000
2801		2734.375000
2802		2734.375000
2803		2734.375000
2804		2734.375000
2805		2734.375000
2806		2734.375000
2807		2734.375000
2808		2734.375000
2809		2734.375000
2810		2734.375000
2811		2734.375000
2812		2734.375000
2813		2734.375000
2814		2734.375000
2815		2734.375000
2816		2734.375000
2817		2734.375000
2818		2734.375000
2819		2734.375000
2820		2734.375000
2821		2734.375000
2822		2734.375000
2823		2734.375000
2824		2734.375000
2825		2656.250000
2826		2734.375000
2827		2734.375000
2828		2656.250000
2829		2734.375000
2830		2734.375000
2831		2656.250000
2832		2734.375000
2833		2734.375000
2834		2734.375000
2835		2734.375000
2836		2734.375000
2837		2734.375000
2838		2734.375000
2839		2656.250000
2840		2656.250000
2841		2656.250000
2842		2656.250000
2843		2656.250000
2844		2656.250000
2845		2656.250000
2846		2656.250000
2847		2656.250000
2848		2656.250000
2849		2656.250000
2850		2656.250000
2851		2656.250000
2852		2656.250000
2853		2656.250000
2854		2656.250000
2855		2656.250000
2856		2734.375000
2857		2656.250000
2858		2656.250000
2859		2656.250000
2860		2656.250000
2861		2656.250000
2862		2656.250000
2863		2656.250000
2864		2656.250000
2865		2656.250000
2866		2656.250000
2867		2656.250000
2868		2656.250000
2869		2656.250000
2870		2656.250000
2871		2656.250000
2872		2656.250000
2873		2656.250000
2874		2656.250000
2875		2656.250000
2876		2656.250000
2877		2656.250000
2878		2656.250000
2879		2656.250000
2880		2656.250000
2881		2656.250000
2882		2656.250000
2883		2656.250000
2884		2656.250000
2885		2656.250000
2886		2656.250000
2887		2656.250000
2888		2656.250000
2889		2656.250000
2890		2656.250000
2891		2656.250000
2892		2656.250000
2893		2656.250000
2894		2656.250000
2895		2656.250000
2896		2656.250000
2897		2656.250000
2898		2656.250000
2899		2656.250000
2900		2656.250000
2901		2656.250000
2902		2656.250000
2903		2656.250000
2904		2656.250000
2905		2656.250000
2906		2656.250000
2907		2656.250000
2908		2656.250000
2909		2656.250000
2910		2656.250000
2911		2656.250000
2912		2656.250000
2913		2656.250000
2914		2656.250000
2915		2656.250000
2916		2734.375000
2917		2734.375000
2918		2734.375000
2919		2734.375000
2920		2734.375000
2921		2734.375000
2922		2734.375000
2923		2734.375000
2924		2734.375000
2925		2734.375000
2926		2734.375000
2927		2734.375000
2928		2734.375000
2929		2734.375000
2930		2734.375000
2931		2734.375000
2932		2734.375000
2933		2734.375000
2934		2734.375000
2935		2734.375000
2936		2734.375000
2937		2734.375000
2938		2734.375000
2939		2734.375000
2940		2734.375000
2941		2734.375000
2942		2734.375000
2943		2734.375000
2944		2734.375000
2945		2734.375000
2946		2734.375000
2947		2734.375000
2948		2734.375000
2949		2734.375000
2950		2734.375000
2951		2734.375000
2952		2734.375000
2953		2734.375000
2954		2734.375000
2955		2734.375000
2956		2734.375000
2957		2734.375000
2958		2734.375000
2959		2734.375000
2960		2734.375000
2961		2734.375000
2962		2734.375000
2963		2734.375000
2964		2734.375000
2965		2734.375000
2966		2734.375000
2967		2734.375000
2968		2734.375000
2969		2734.375000
2970		2734.375000
2971		2734.375000
2972		2734.375000
2973		2734.375000
2974		2734.375000
2975		2812.500000
2976		2734.375000
2977		2812.500000
2978		2812.500000
2979		2734.375000
2980		2812.500000
2981		2812.500000
2982		2734.375000
2983		2734.375000
2984		2812.500000
2985		2734.375000
2986		2734.375000
2987		2812.500000
2988		2812.500000
2989		2812.500000
2990		2812.500000
2991		2812.500000
2992		2812.500000
2993		2812.500000
2994		2812.500000
2995		2812.500000
2996		2812.500000
2997		2812.500000
2998		2812.500000
2999		2812.500000
3000		2812.500000
3001		2812.500000
3002		2812.500000
3003		2812.500000
3004		2812.500000
3005		2812.500000
3006		2812.500000
3007		2812.500000
3008		2812.500000
3009		2812.500000
3010		2812.500000
3011		2812.500000
3012		2812.500000
3013		2890.625000
3014		2812.500000
3015		2812.500000
3016		2890.625000
3017		2890.625000
3018		2890.625000
3019		2890.625000
3020		2890.625000
3021		2890.625000
3022		2890.625000
3023		2890.625000
3024		2890.625000
3025		2890.625000
3026		2890.625000
3027		2890.625000
3028		2890.625000
3029		2890.625000
3030		2890.625000
3031		2890.625000
3032		2890.625000
3033		2890.625000
3034		2890.625000
3035		2890.625000
3036		2890.625000
3037		2890.625000
3038		2890.625000
3039		2890.625000
3040		2890.625000
3041		2890.625000
3042		2890.625000
3043		2890.625000
3044		2890.625000
3045		2890.625000
3046		2968.750000
3047		2968.750000
3048		2968.750000
3049		2968.750000
3050		2968.750000
3051		2968.750000
3052		2968.750000
3053		2968.750000
3054		2968.750000
3055		2968.750000
3056		2968.750000
3057		2968.750000
3058		2968.750000
3059		2968.750000
3060		2968.750000
3061		2968.750000
3062		2968.750000
3063		2968.750000
3064		2968.750000
3065		2968.750000
3066		2968.750000
3067		2968.750000
3068		3046.875000
3069		3046.875000
3070		3046.875000
3071		3046.875000
3072		3046.875000
3073		3046.875000
3074		3046.875000
3075		3046.875000
3076		3046.875000
3077		3046.875000
3078		3046.875000
3079		3046.875000
3080		3046.875000
3081		3046.875000
3082		3046.875000
3083		3046.875000
3084		3046.875000
3085		3046.875000
3086		3046.875000
3087		3046.875000
3088		3125.000000
3089		3125.000000
3090		3125.000000
3091		3125.000000
3092		3125.000000
3093		3125.000000
3094		3125.000000
3095		3125.000000
3096		3125.000000
3097		3125.000000
3098		3125.000000
3099		3125.000000
3100		3125.000000
3101		3125.000000
3102		3125.000000
3103		3125.000000
3104		3125.000000
3105		3125.000000
3106		3203.125000
3107		3203.125000
3108		3203.125000
3109		3203.125000
3110		3203.125000
3111		3203.125000
3112		3203.125000
3113		3203.125000
3114		3203.125000
3115		3203.125000
3116		3203.125000
3117		3203.125000
3118		3203.125000
3119		3203.125000
3120		3203.125000
3121		3281.250000
3122		3281.250000
3123		3281.250000
3124		3281.250000
3125		3281.250000
3126		3281.250000
3127		3281.250000
3128		3281.250000
3129		3281.250000
3130		3281.250000
3131		3281.250000
3132		3281.250000
3133		3281.250000
3134		3281.250000
3135		3359.375000
3136		3359.375000
3137		3359.375000
3138		3359.375000
3139		3359.375000
3140		3359.375000
3141		3359.375000
3142		3359.375000
3143		3359.375000
3144		3359.375000
3145		3359.375000
3146		3359.375000
3147		3359.375000
3148		3359.375000
3149		3359.375000
3150		3437.500000
3151		3437.500000
3152		3437.500000
3153		3437.500000
3154		3437.500000
3155		3437.500000
3156		3437.500000
3157		3437.500000
3158		3437.500000
3159		3437.500000
3160		3515.625000
3161		3515.625000
3162		3515.625000
3163		3515.625000
3164		3515.625000
3165		3515.625000
3166		3515.625000
3167		3515.625000
3168		3515.625000
3169		3515.625000
3170		3515.625000
3171		3515.625000
3172		3593.750000
3173		3593.750000
3174		3593.750000
3175		3593.750000
3176		3593.750000
3177		3593.750000
3178		3593.750000
3179		3593.750000
3180		3593.750000
3181		3593.750000
3182		3593.750000
3183		3593.750000
3184		3593.750000
3185		3671.875000
3186		3671.875000
3187		3671.875000
3188		3671.875000
3189		3671.875000
3190		3671.875000
3191		3671.875000
3192		3671.875000
3193		3750.000000
3194		3750.000000
3195		3750.000000
3196		3750.000000
3197		3750.000000
3198		3750.000000
3199		3750.000000
3200		3750.000000
3201		3750.000000
3202		3750.000000
3203		3750.000000
3204		3750.000000
3205		3750.000000
3206		3828.125000
3207		3828.125000
3208		3828.125000
3209		3828.125000
3210		3828.125000
3211		3828.125000
3212		3828.125000
3213		3906.250000
3214		3906.250000
3215		3906.250000
3216		3906.250000
3217		3906.250000
3218		3906.250000
3219		3906.250000
3220		3906.250000
3221		3906.250000
3222		3906.250000
3223		3906.250000
3224		3984.375000
3225		3984.375000
3226		3984.375000
3227		3984.375000
3228		3984.375000
3229		3984.375000
3230		3984.375000
3231		3984.375000
3232		4062.500000
3233		4062.500000
3234		4062.500000
3235		4062.500000
3236		4062.500000
3237		4062.500000
3238		4062.500000
3239		4062.500000
3240		4062.500000
3241		4062.500000
3242		4062.500000
3243		4140.625000
3244		4140.625000
3245		4140.625000
3246		4140.625000
3247		4140.625000
3248		4140.625000
3249		4140.625000
3250		4218.750000
3251		4218.750000
3252		4218.750000
3253		4218.750000
3254		4218.750000
3255		4218.750000
3256		4218.750000
3257		4218.750000
3258		4218.750000
3259		4218.750000
3260		4296.875000
3261		4296.875000
3262		4296.875000
3263		4296.875000
3264		4296.875000
3265		4296.875000
3266		4296.875000
3267		4296.875000
3268		4375.000000
3269		4375.000000
3270		4375.000000
3271		4375.000000
3272		4375.000000
3273		4375.000000
3274		4375.000000
3275		4375.000000
3276		4375.000000
3277		4453.125000
3278		4453.125000
3279		4453.125000
3280		4453.125000
3281		4453.125000
3282		4453.125000
3283		4453.125000
3284		4453.125000
3285		4453.125000
3286		4453.125000
3287		4531.250000
3288		4531.250000
3289		4531.250000
3290		4531.250000
3291		4531.250000
3292		4531.250000
3293		4531.250000
3294		4531.250000
3295		4531.250000
3296		4609.375000
3297		4609.375000
3298		4609.375000
3299		4609.375000
3300		4609.375000
3301		4609.375000
3302		4609.375000
3303		4609.375000
3304		4609.375000
3305		4687.500000
3306		4609.375000
3307		4687.500000
3308		4687.500000
3309		4687.500000
3310		4687.500000
3311		4687.500000
3312		4687.500000
3313		4687.500000
3314		4687.500000
3315		4765.625000
3316		4765.625000
3317		4765.625000
3318		4765.625000
3319		4765.625000
3320		4765.625000
3321		4765.625000
3322		4765.625000
3323		4765.625000
3324		4765.625000
3325		4843.750000
3326		4843.750000
3327		4843.750000
3328		4843.750000
3329		4843.750000
3330		4843.750000
3331		4843.750000
3332		4843.750000
3333		4843.750000
3334		4843.750000
3335		4843.750000
3336		4921.875000
3337		4921.875000
3338		4921.875000
3339		4921.875000
3340		4921.875000
3341		4921.875000
3342		4921.875000
3343		4921.875000
3344		4921.875000
3345		4921.875000
3346		5000.000000
3347		5000.000000
3348		5000.000000
3349		5000.000000
3350		5000.000000
3351		5000.000000
3352		5000.000000
3353		5000.000000
3354		5000.000000
3355		5000.000000
3356		5000.000000
3357		5078.125000
3358		5078.125000
3359		5078.125000
3360		5078.125000
3361		5078.125000
3362		5078.125000
3363		5078.125000
3364		5078.125000
3365		5078.125000
3366		5078.125000
3367		5078.125000
3368		5078.125000
3369		5156.250000
3370		5078.125000
3371		5156.250000
3372		5156.250000
3373		5156.250000
3374		5156.250000
3375		5156.250000
3376		5156.250000
3377		5156.250000
3378		5156.250000
3379		5156.250000
3380		5156.250000
3381		5156.250000
3382		5156.250000
3383		5156.250000
3384		5234.375000
3385		5234.375000
3386		5234.375000
3387		5234.375000
3388		5234.375000
3389		5234.375000
3390		5234.375000
3391		5234.375000
3392		5234.375000
3393		5234.375000
3394		5234.375000
3395		5234.375000
3396		5234.375000
3397		5234.375000
3398		5312.500000
3399		5312.500000
3400		5312.500000
3401		5312.500000
3402		5312.500000
3403		5312.500000
3404		5312.500000
3405		5312.500000
3406		5312.500000
3407		5312.500000
3408		5312.500000
3409		5312.500000
3410		5312.500000
3411		5312.500000
3412		5312.500000
3413		5312.500000
3414		5312.500000
3415		5312.500000
3416		5312.500000
3417		5390.625000
3418		5390.625000
3419		5390.625000
3420		5390.625000
3421		5390.625000
3422		5390.625000
3423		5390.625000
3424		5390.625000
3425		5390.625000
3426		5390.625000
3427		5390.625000
3428		5390.625000
3429		5390.625000
3430		5390.625000
3431		5390.625000
3432		5390.625000
3433		5390.625000
3434		5390.625000
3435		5390.625000
3436		5390.625000
3437		5390.625000
3438		5390.625000
3439		5390.625000
3440		5390.625000
3441		5390.625000
3442		5390.625000
3443		5390.625000
3444		5390.625000
3445		5390.625000
3446		5390.625000
3447		5390.625000
3448		5390.625000
3449		5468.750000
3450		5468.750000
3451		5468.750000
3452		5468.750000
3453		5468.750000
3454		5468.750000
3455		5468.750000
3456		5468.750000
3457		5468.750000
3458		5468.750000
3459		5468.750000
3460		5468.750000
3461		5468.750000
3462		5468.750000
3463		5468.750000
3464		5468.750000
3465		5468.750000
3466		5468.750000
3467		5468.750000
3468		5468.750000
3469		5390.625000
3470		5468.750000
3471		5468.750000
3472		5468.750000
3473		5468.750000
3474		5468.750000
3475		5468.750000
3476		5468.750000
3477		5468.750000
3478		5468.750000
3479		5468.750000
3480		5468.750000
3481		5468.750000
3482		5468.750000
3483		5468.750000
3484		5468.750000
3485		5468.750000
3486		5468.750000
3487		5468.750000
3488		5468.750000
3489		5468.750000
3490		5468.750000
3491		5390.625000
3492		5390.625000
3493		5390.625000
3494		5468.750000
3495		5390.625000
3496		5390.625000
3497		5390.625000
3498		5390.625000
3499		5390.625000
3500		5390.625000
3501		5390.625000
3502		5390.625000
3503		5390.625000
3504		5390.625000
3505		5390.625000
3506		5390.625000
3507		5390.625000
3508		5390.625000
3509		5390.625000
3510		5390.625000
3511		5390.625000
3512		5390.625000
3513		5390.625000
3514		5390.625000
3515		5390.625000
3516		5390.625000
3517		5390.625000
3518		5390.625000
3519		5390.625000
3520		5390.625000
3521		5390.625000
3522		5390.625000
3523		5390.625000
3524		5390.625000
3525		5312.500000
3526		5312.500000
3527		5312.500000
3528		5312.500000
3529		5312.500000
3530		5312.500000
3531		5312.500000
3532		5312.500000
3533		5312.500000
3534		5312.500000
3535		5312.500000
3536		5312.500000
3537		5312.500000
3538		5312.500000
3539		5312.500000
3540		5312.500000
3541		5312.500000
3542		5312.500000
3543		5234.375000
3544		5234.375000
3545		5234.375000
3546		5234.375000
3547		5234.375000
3548		5234.375000
3549		5234.375000
3550		5234.375000
3551		5234.375000
3552		5234.375000
3553		5234.375000
3554		5234.375000
3555		5234.375000
3556		5234.375000
3557		5234.375000
3558		5234.375000
3559		5234.375000
3560		5234.375000
3561		5156.250000
3562		5156.250000
3563		5156.250000
3564		5156.250000
3565		5156.250000
3566		5156.250000
3567		5156.250000
3568		5156.250000
3569		5156.250000
3570		5156.250000
3571		5156.250000
3572		5156.250000
3573		5156.250000
3574		5156.250000
3575		5156.250000
3576		5078.125000
3577		5078.125000
3578		5078.125000
3579		5078.125000
3580		5078.125000
3581		5078.125000
3582		5078.125000
3583		5078.125000
3584		5078.125000
3585		5078.125000
3586		5000.000000
3587		5000.000000
3588		5000.000000
3589		5000.000000
3590		5000.000000
3591		5000.000000
3592		5000.000000
3593		5000.000000
3594		5000.000000
3595		5000.000000
3596		5000.000000
3597		5000.000000
3598		5000.000000
3599		4921.875000
3600		4921.875000
3601		4921.875000
3602		4921.875000
3603		4921.875000
3604		4921.875000
3605		4921.875000
3606		4921.875000
3607		4921.875000
3608		4921.875000
3609		4921.875000
3610		4921.875000
3611		4921.875000
3612		4843.750000
3613		4843.750000
3614		4843.750000
3615		4843.750000
3616		4843.750000
3617		4843.750000
3618		4843.750000
3619		4843.750000
3620		4843.750000
3621		4843.750000
3622		4765.625000
3623		4765.625000
3624		4765.625000
3625		4765.625000
3626		4765.625000
3627		4765.625000
3628		4765.625000
3629		4765.625000
3630		4765.625000
3631		4765.625000
3632		4765.625000
3633		4687.500000
3634		4687.500000
3635		4687.500000
3636		4687.500000
3637		4687.500000
3638		4687.500000
3639		4687.500000
3640		4687.500000
3641		4687.500000
3642		4609.375000
3643		4609.375000
3644		4609.375000
3645		4609.375000
3646		4609.375000
3647		4609.375000
3648		4609.375000
3649		4609.375000
3650		4609.375000
3651		4609.375000
3652		4609.375000
3653		4609.375000
3654		4531.250000
3655		4531.250000
3656		4531.250000
3657		4531.250000
3658		4531.250000
3659		4531.250000
3660		4531.250000
3661		4531.250000
3662		4531.250000
3663		4531.250000
3664		4453.125000
3665		4453.125000
3666		4453.125000
3667		4453.125000
3668		4453.125000
3669		4453.125000
3670		4453.125000
3671		4453.125000
3672		4453.125000
3673		4375.000000
3674		4375.000000
3675		4375.000000
3676		4375.000000
3677		4375.000000
3678		4375.000000
3679		4375.000000
3680		4375.000000
3681		4375.000000
3682		4375.000000
3683		4375.000000
3684		4375.000000
3685		4296.875000
3686		4296.875000
3687		4296.875000
3688		4296.875000
3689		4296.875000
3690		4296.875000
3691		4296.875000
3692		4296.875000
3693		4218.750000
3694		4218.750000
3695		4218.750000
3696		4218.750000
3697		4218.750000
3698		4218.750000
3699		4218.750000
3700		4218.750000
3701		4218.750000
3702		4218.750000
3703		4218.750000
3704		4140.625000
3705		4140.625000
3706		4140.625000
3707		4140.625000
3708		4140.625000
3709		4140.625000
3710		4140.625000
3711		4140.625000
3712		4140.625000
3713		4140.625000
3714		4140.625000
3715		4062.500000
3716		4062.500000
3717		4062.500000
3718		4062.500000
3719		4062.500000
3720		4062.500000
3721		4062.500000
3722		4062.500000
3723		4062.500000
3724		3984.375000
3725		4062.500000
3726		3984.375000
3727		3984.375000
3728		3984.375000
3729		3984.375000
3730		3984.375000
3731		3984.375000
3732		3984.375000
3733		3984.375000
3734		3984.375000
3735		3984.375000
3736		3906.250000
3737		3906.250000
3738		3906.250000
3739		3906.250000
3740		3906.250000
3741		3906.250000
3742		3906.250000
3743		3906.250000
3744		3906.250000
3745		3906.250000
3746		3906.250000
3747		3828.125000
3748		3828.125000
3749		3828.125000
3750		3828.125000
3751		3828.125000
3752		3828.125000
3753		3828.125000
3754		3828.125000
3755		3828.125000
3756		3828.125000
3757		3828.125000
3758		3828.125000
3759		3828.125000
3760		3750.000000
3761		3750.000000
3762		3750.000000
3763		3750.000000
3764		3750.000000
3765		3750.000000
3766		3750.000000
3767		3750.000000
3768		3750.000000
3769		3750.000000
3770		3750.000000
3771		3671.875000
3772		3671.875000
3773		3671.875000
3774		3671.875000
3775		3671.875000
3776		3671.875000
3777		3671.875000
3778		3671.875000
3779		3671.875000
3780		3671.875000
3781		3671.875000
3782		3671.875000
3783		3593.750000
3784		3593.750000
3785		3593.750000
3786		3593.750000
3787		3593.750000
3788		3593.750000
3789		3593.750000
3790		3593.750000
3791		3593.750000
3792		3593.750000
3793		3593.750000
3794		3593.750000
3795		3593.750000
3796		3515.625000
3797		3515.625000
3798		3515.625000
3799		3515.625000
3800		3515.625000
3801		3515.625000
3802		3515.625000
3803		3515.625000
3804		3515.625000
3805		3515.625000
3806		3515.625000
3807		3515.625000
3808		3515.625000
3809		3515.625000
3810		3437.500000
3811		3437.500000
3812		3437.500000
3813		3437.500000
3814		3437.500000
3815		3437.500000
3816		3437.500000
3817		3437.500000
3818		3437.500000
3819		3437.500000
3820		3437.500000
3821		3437.500000
3822		3437.500000
3823		3359.375000
3824		3359.375000
3825		3359.375000
3826		3359.375000
3827		3359.375000
3828		3359.375000
3829		3359.375000
3830		3359.375000
3831		3359.375000
3832		3359.375000
3833		3359.375000
3834		3359.375000
3835		3359.375000
3836		3359.375000
3837		3359.375000
3838		3359.375000
3839		3359.375000
3840		3281.250000
3841		3281.250000
3842		3281.250000
3843		3281.250000
3844		3281.250000
3845		3281.250000
3846		3281.250000
3847		3281.250000
3848		3281.250000
3849		3281.250000
3850		3281.250000
3851		3281.250000
3852		3281.250000
3853		3281.250000
3854		3281.250000
3855		3203.125000
3856		3203.125000
3857		3203.125000
3858		3203.125000
3859		3203.125000
3860		3203.125000
3861		3203.125000
3862		3203.125000
3863		3203.125000
3864		3203.125000
3865		3203.125000
3866		3203.125000
3867		3203.125000
3868		3203.125000
3869		3203.125000
3870		3203.125000
3871		3203.125000
3872		3203.125000
3873		3125.000000
3874		3125.000000
3875		3125.000000
3876		3125.000000
3877		3125.000000
3878		3125.000000
3879		3125.000000
3880		3125.000000
3881		3125.000000
3882		3125.000000
3883		3125.000000
3884		3125.000000
3885		3125.000000
3886		3125.000000
3887		3125.000000
3888		3125.000000
3889		3125.000000
3890		3125.000000
3891		3125.000000
3892		3046.875000
3893		3046.875000
3894		3046.875000
3895		3046.875000
3896		3046.875000
3897		3046.875000
3898		3046.875000
3899		3046.875000
3900		3046.875000
3901		3046.875000
3902		3046.875000
3903		3046.875000
3904		3046.875000
3905		3046.875000
3906		3046.875000
3907		3046.875000
3908		3046.875000
3909		3046.875000
3910		3046.875000
3911		2968.750000
3912		3046.875000
3913		3046.875000
3914		2968.750000
3915		3046.875000
3916		2968.750000
3917		2968.750000
3918		2968.750000
3919		2968.750000
3920		2968.750000
3921		2968.750000
3922		2968.750000
3923		2968.750000
3924		2968.750000
3925		2968.750000
3926		2968.750000
3927		2968.750000
3928		2968.750000
3929		2968.750000
3930		2968.750000
3931		2968.750000
3932		2968.750000
3933		2968.750000
3934		2968.750000
3935		2968.750000
3936		2968.750000
3937		2968.750000
3938		2968.750000
3939		2968.750000
3940		2890.625000
3941		2890.625000
3942		2890.625000
3943		2890.625000
3944		2890.625000
3945		2890.625000
3946		2890.625000
3947		2890.625000
3948		2890.625000
3949		2890.625000
3950		2890.625000
3951		2890.625000
3952		2890.625000
3953		2890.625000
3954		2890.625000
3955		2890.625000
3956		2890.625000
3957		2890.625000
3958		2890.625000
3959		2890.625000
3960		2890.625000
3961		2890.625000
3962		2890.625000
3963		2890.625000
3964		2812.500000
3965		2812.500000
3966		2812.500000
3967		2812.500000
3968		2812.500000
3969		2812.500000
3970		2812.500000
3971		2812.500000
3972		2812.500000
3973		2812.500000
3974		2812.500000
3975		2812.500000
3976		2812.500000
3977		2812.500000
3978		2812.500000
3979		2812.500000
3980		2812.500000
3981		2812.500000
3982		2812.500000
3983		2812.500000
3984		2812.500000
3985		2812.500000
3986		2812.500000
3987		2812.500000
3988		2812.500000
3989		2812.500000
3990		2812.500000
3991		2812.500000
3992		2812.500000
3993		2812.500000
3994		2812.500000
3995		2812.500000
3996		2812.500000
3997		2812.500000
3998		2812.500000
3999		2734.375000
4000		2812.500000
4001		2734.375000
4002		2734.375000
4003		2734.375000
4004		2734.375000
4005		2734.375000
4006		2734.375000
4007		2734.375000
4008		2734.375000
4009		2734.375000
4010		2734.375000
4011		2734.375000
4012		2734.375000
4013		2734.375000
4014		2734.375000
4015		2734.375000
4016		2734.375000
4017		2734.375000
4018		2734.375000
4019		2734.375000
4020		2734.375000
4021		2734.375000
4022		2734.375000
4023		2734.375000
4024		2734.375000
4025		2734.375000
4026		2734.375000
4027		2734.375000
4028		2734.375000
4029		2734.375000
4030		2734.375000
4031		2734.375000
4032		2734.375000
4033		2734.375000
4034		2734.375000
4035		2734.375000
4036		2734.375000
4037		2734.375000
4038		2734.375000
4039		2734.375000
4040		2734.375000
4041		2734.375000
4042		2734.375000
4043		2734.375000
4044		2734.375000
4045		2734.375000
4046		2734.375000
4047		2734.375000
4048		2734.375000
4049		2734.375000
4050		2734.375000
4051		2734.375000
4052		2734.375000
4053		2734.375000
4054		2734.375000
4055		2734.375000
4056		2734.375000
4057		2734.375000
4058		2734.375000
4059		2656.250000
4060		2656.250000
4061		2656.250000
4062		2734.375000
4063		2656.250000
4064		2656.250000
4065		2656.250000
4066		2656.250000
4067		2656.250000
4068		2656.250000
4069		2656.250000
4070		2656.250000
4071		2656.250000
4072		2656.250000
4073		2656.250000
4074		2656.250000
4075		2656.250000
4076		2656.250000
4077		2656.250000
4078		2656.250000
4079		2656.250000
4080		2656.250000
4081		2656.250000
4082		2656.250000
4083		2656.250000
4084		2656.250000
4085		2656.250000
4086		2656.250000
4087		2656.250000
4088		2656.250000
4089		2656.250000
4090		2656.250000
4091		2656.250000
4092		2656.250000
4093		2656.250000
4094		2656.250000
4095		2656.250000
4096		2656.250000
4097		2656.250000
4098		2656.250000
4099		2656.250000
4100		2656.250000
4101		2656.250000
4102		2656.250000
4103		2656.250000
4104		2656.250000
4105		2656.250000
4106		2656.250000
4107		2656.250000
4108		2656.250000
4109		2656.250000
4110		2656.250000
4111		2656.250000
4112		2656.250000
4113		2656.250000
4114		2656.250000
4115		2656.250000
4116		2656.250000
4117		2656.250000
4118		2656.250000
4119		2656.250000
4120		2656.250000
4121		2656.250000
4122		2656.250000
4123		2656.250000
4124		2656.250000
4125		2656.250000
4126		2656.250000
4127		2656.250000
4128		2656.250000
4129		2656.250000
4130		2656.250000
4131		2656.250000
4132		2656.250000
4133		2656.250000
4134		2656.250000
4135		2656.250000
4136		2656.250000
4137		2656.250000
4138		2656.250000
4139		2656.250000
4140		2656.250000
4141		2656.250000
4142		2656.250000
4143		2656.250000
4144		2656.250000
4145		2656.250000
4146		2656.250000
4147		2656.250000
4148		2656.250000
4149		2656.250000
4150		2656.250000
4151		2656.250000
4152		2656.250000
4153		2656.250000
4154		2656.250000
4155		2656.250000
4156		2734.375000
4157		2656.250000
4158		2656.250000
4159		2656.250000
4160		2656.250000
4161		2656.250000
4162		2656.250000
4163		2656.250000
4164		2656.250000
4165		2734.375000
4166		2656.250000
4167		2656.250000
4168		2734.375000
4169		2656.250000
4170		2734.375000
4171		2734.375000
4172		2734.375000
4173		2734.375000
4174		2734.375000
4175		2734.375000
4176		2734.375000
4177		2734.375000
4178		2734.375000
4179		2734.375000
4180		2734.375000
4181		2734.375000
4182		2734.375000
4183		2734.375000
4184		2734.375000
4185		2734.375000
4186		2734.375000
4187		2734.375000
4188		2734.375000
4189		2734.375000
4190		2734.375000
4191		2734.375000
4192		2734.375000
4193		2734.375000
4194		2734.375000
4195		2734.375000
4196		2734.375000
4197		2734.375000
4198		2734.375000
4199		2734.375000
4200		2734.375000
4201		2734.375000
4202		2734.375000
4203		2734.375000
4204		2734.375000
4205		2734.375000
4206		2734.375000
4207		2734.375000
4208		2734.375000
4209		2734.375000
4210		2734.375000
4211		2734.375000
4212		2734.375000
4213		2734.375000
4214		2734.375000
4215		2734.375000
4216		2734.375000
4217		2734.375000
4218		2734.375000
4219		2734.375000
4220		2734.375000
4221		2734.375000
4222		2734.375000
4223		2812.500000
4224		2812.500000
4225		2812.500000
4226		2812.500000
4227		2812.500000
4228		2812.500000
4229		2812.500000
4230		2812.500000
4231		2812.500000
4232		2812.500000
4233		2812.500000
4234		2812.500000
4235		2812.500000
4236		2812.500000
4237		2812.500000
4238		2812.500000
4239		2812.500000
4240		2812.500000
4241		2812.500000
4242		2812.500000
4243		2812.500000
4244		2812.500000
4245		2812.500000
4246		2812.500000
4247		2812.500000
4248		2812.500000
4249		2812.500000
4250		2812.500000
4251		2812.500000
4252		2812.500000
4253		2812.500000
4254		2812.500000
4255		2812.500000
4256		2812.500000
4257		2890.625000
4258		2890.625000
4259		2890.625000
4260		2890.625000
4261		2890.625000
4262		2890.625000
4263		2890.625000
4264		2890.625000
4265		2890.625000
4266		2890.625000
4267		2890.625000
4268		2890.625000
4269		2890.625000
4270		2890.625000
4271		2890.625000
4272		2890.625000
4273		2890.625000
4274		2890.625000
4275		2890.625000
4276		2890.625000
4277		2890.625000
4278		2890.625000
4279		2890.625000
4280		2890.625000
4281		2890.625000
4282		2890.625000
4283		2890.625000
4284		2890.625000
4285		2890.625000
4286		2968.750000
4287		2968.750000
4288		2968.750000
4289		2968.750000
4290		2968.750000
4291		2968.750000
4292		2968.750000
4293		2968.750000
4294		2968.750000
4295		2968.750000
4296		2968.750000
4297		2968.750000
4298		2968.750000
4299		2968.750000
4300		2968.750000
4301		2968.750000
4302		2968.750000
4303		2968.750000
4304		2968.750000
4305		2968.750000
4306		2968.750000
4307		2968.750000
4308		2968.750000
4309		2968.750000
4310		3046.875000
4311		3046.875000
4312		3046.875000
4313		3046.875000
4314		3046.875000
4315		3046.875000
4316		3046.875000
4317		3046.875000
4318		3046.875000
4319		3046.875000
4320		3046.875000
4321		3046.875000
4322		3046.875000
4323		3046.875000
4324		3046.875000
4325		3046.875000
4326		3046.875000
4327		3046.875000
4328		3125.000000
4329		3125.000000
4330		3125.000000
4331		3125.000000
4332		3125.000000
4333		3125.000000
4334		3125.000000
4335		3125.000000
4336		3125.000000
4337		3125.000000
4338		3125.000000
4339		3125.000000
4340		3125.000000
4341		3125.000000
4342		3125.000000
4343		3125.000000
4344		3125.000000
4345		3125.000000
4346		3203.125000
4347		3203.125000
4348		3203.125000
4349		3203.125000
4350		3203.125000
4351		3203.125000
4352		3203.125000
4353		3203.125000
4354		3203.125000
4355		3203.125000
4356		3203.125000
4357		3203.125000
4358		3203.125000
4359		3203.125000
4360		3281.250000
4361		3281.250000
4362		3281.250000
4363		3281.250000
4364		3281.250000
4365		3281.250000
4366		3281.250000
4367		3281.250000
4368		3281.250000
4369		3281.250000
4370		3281.250000
4371		3281.250000
4372		3281.250000
4373		3359.375000
4374		3359.375000
4375		3359.375000
4376		3359.375000
4377		3359.375000
4378		3359.375000
4379		3359.375000
4380		3359.375000
4381		3359.375000
4382		3359.375000
4383		3359.375000
4384		3359.375000
4385		3359.375000
4386		3359.375000
4387		3437.500000
4388		3437.500000
4389		3437.500000
4390		3437.500000
4391		3437.500000
4392		3437.500000
4393		3437.500000
4394		3437.500000
4395		3437.500000
4396		3437.500000
4397		3437.500000
4398		3437.500000
4399		3515.625000
4400		3515.625000
4401		3515.625000
4402		3515.625000
4403		3515.625000
4404		3515.625000
4405		3515.625000
4406		3515.625000
4407		3515.625000
4408		3515.625000
4409		3515.625000
4410		3593.750000
4411		3593.750000
4412		3593.750000
4413		3593.750000
4414		3593.750000
4415		3593.750000
4416		3593.750000
4417		3593.750000
4418		3593.750000
4419		3593.750000
4420		3593.750000
4421		3671.875000
4422		3671.875000
4423		3671.875000
4424		3671.875000
4425		3671.875000
4426		3671.875000
4427		3671.875000
4428		3671.875000
4429		3671.875000
4430		3671.875000
4431		3671.875000
4432		3750.000000
4433		3750.000000
4434		3750.000000
4435		3750.000000
4436		3750.000000
4437		3750.000000
4438		3750.000000
4439		3750.000000
4440		3750.000000
4441		3828.125000
4442		3828.125000
4443		3828.125000
4444		3828.125000
4445		3828.125000
4446		3828.125000
4447		3828.125000
4448		3828.125000
4449		3828.125000
4450		3828.125000
4451		3828.125000
4452		3906.250000
4453		3906.250000
4454		3906.250000
4455		3906.250000
4456		3906.250000
4457		3906.250000
4458		3906.250000
4459		3906.250000
4460		3984.375000
4461		3984.375000
4462		3984.375000
4463		3984.375000
4464		3984.375000
4465		3984.375000
4466		3984.375000
4467		3984.375000
4468		3984.375000
4469		3984.375000
4470		4062.500000
4471		4062.500000
4472		4062.500000
4473		4062.500000
4474		4062.500000
4475		4062.500000
4476		4062.500000
4477		4062.500000
4478		4140.625000
4479		4140.625000
4480		4140.625000
4481		4140.625000
4482		4140.625000
4483		4140.625000
4484		4140.625000
4485		4140.625000
4486		4140.625000
4487		4140.625000
4488		4140.625000
4489		4140.625000
4490		4218.750000
4491		4218.750000
4492		4218.750000
4493		4218.750000
4494		4218.750000
4495		4218.750000
4496		4218.750000
4497		4296.875000
4498		4296.875000
4499		4296.875000
4500		4296.875000
4501		4296.875000
4502		4296.875000
4503		4296.875000
4504		4296.875000
4505		4296.875000
4506		4296.875000
4507		4296.875000
4508		4375.000000
4509		4375.000000
4510		4375.000000
4511		4375.000000
4512		4375.000000
4513		4375.000000
4514		4375.000000
4515		4453.125000
4516		4453.125000
4517		4375.000000
4518		4453.125000
4519		4453.125000
4520		4453.125000
4521		4453.125000
4522		4453.125000
4523		4453.125000
4524		4453.125000
4525		4453.125000
4526		4531.250000
4527		4531.250000
4528		4531.250000
4529		4531.250000
4530		4531.250000
4531		4531.250000
4532		4531.250000
4533		4609.375000
4534		4609.375000
4535		4609.375000
4536		4609.375000
4537		4609.375000
4538		4609.375000
4539		4609.375000
4540		4609.375000
4541		4609.375000
4542		4609.375000
4543		4609.375000
4544		4687.500000
4545		4687.500000
4546		4687.500000
4547		4687.500000
4548		4687.500000
4549		4687.500000
4550		4687.500000
4551		4687.500000
4552		4687.500000
4553		4765.625000
4554		4765.625000
4555		4765.625000
4556		4765.625000
4557		4765.625000
4558		4765.625000
4559		4765.625000
4560		4765.625000
4561		4765.625000
4562		4765.625000
4563		4765.625000
4564		4843.750000
4565		4843.750000
4566		4843.750000
4567		4843.750000
4568		4843.750000
4569		4843.750000
4570		4843.750000
4571		4843.750000
4572		4921.875000
4573		4921.875000
4574		4921.875000
4575		4921.875000
4576		4921.875000
4577		4921.875000
4578		4921.875000
4579		4921.875000
4580		4921.875000
4581		4921.875000
4582		4921.875000
4583		4921.875000
4584		4921.875000
4585		5000.000000
4586		5000.000000
4587		5000.000000
4588		5000.000000
4589		5000.000000
4590		5000.000000
4591		5000.000000
4592		5000.000000
4593		5000.000000
4594		5000.000000
4595		5078.125000
4596		5078.125000
4597		5078.125000
4598		5078.125000
4599		5078.125000
4600		5078.125000
4601		5078.125000
4602		5078.125000
4603		5078.125000
4604		5078.125000
4605		5078.125000
4606		5078.125000
4607		5156.250000
4608		5156.250000
4609		5156.250000
4610		5156.250000
4611		5156.250000
4612		5156.250000
4613		5156.250000
4614		5156.250000
4615		5156.250000
4616		5156.250000
4617		5156.250000
4618		5156.250000
4619		5156.250000
4620		5156.250000
4621		5234.375000
4622		5234.375000
4623		5234.375000
4624		5234.375000
4625		5234.375000
4626		5234.375000
4627		5234.375000
4628		5234.375000
4629		5234.375000
4630		5234.375000
4631		5234.375000
4632		5234.375000
4633		5234.375000
4634		5234.375000
4635		5234.375000
4636		5312.500000
4637		5312.500000
4638		5312.500000
4639		5312.500000
4640		5312.500000
4641		5312.500000
4642		5312.500000
4643		5312.500000
4644		5312.500000
4645		5312.500000
4646		5312.500000
4647		5312.500000
4648		5312.500000
4649		5312.500000
4650		5312.500000
4651		5312.500000
4652		5312.500000
4653		5312.500000
4654		5312.500000
4655		5312.500000
4656		5312.500000
4657		5390.625000
4658		5390.625000
4659		5390.625000
4660		5390.625000
4661		5390.625000
4662		5390.625000
4663		5390.625000
4664		5390.625000
4665		5390.625000
4666		5390.625000
4667		5390.625000
4668		5390.625000
4669		5390.625000
4670		5390.625000
4671		5390.625000
4672		5390.625000
4673		5390.625000
4674		5390.625000
4675		5390.625000
4676		5390.625000
4677		5390.625000
4678		5390.625000
4679		5390.625000
4680		5390.625000
4681		5390.625000
4682		5390.625000
4683		5390.625000
4684		5390.625000
4685		5390.625000
4686		5390.625000
4687		5390.625000
4688		5390.625000
4689		5390.625000
4690		5390.625000
4691		5390.625000
4692		5390.625000
4693		5390.625000
4694		5390.625000
4695		5390.625000
4696		5468.750000
4697		5468.750000
4698		5468.750000
4699		5468.750000
4700		5468.750000
4701		5468.750000
4702		5468.750000
4703		5468.750000
4704		5390.625000
4705		5390.625000
4706		5390.625000
4707		5390.625000
4708		5390.625000
4709		5390.625000
4710		5390.625000
4711		5468.750000
4712		5468.750000
4713		5468.750000
4714		5468.750000
4715		5468.750000
4716		5390.625000
4717		5468.750000
4718		5468.750000
4719		5390.625000
4720		5468.750000
4721		5390.625000
4722		5390.625000
4723		5390.625000
4724		5390.625000
4725		5390.625000
4726		5390.625000
4727		5390.625000
4728		5390.625000
4729		5390.625000
4730		5390.625000
4731		5390.625000
4732		5390.625000
4733		5390.625000
4734		5390.625000
4735		5390.625000
4736		5390.625000
4737		5390.625000
4738		5390.625000
4739		5390.625000
4740		5390.625000
4741		5390.625000
4742		5390.625000
4743		5390.625000
4744		5390.625000
4745		5390.625000
4746		5390.625000
4747		5390.625000
4748		5390.625000
4749		5390.625000
4750		5390.625000
4751		5390.625000
4752		5390.625000
4753		5390.625000
4754		5390.625000
4755		5390.625000
4756		5390.625000
4757		5312.500000
4758		5312.500000
4759		5312.500000
4760		5312.500000
4761		5312.500000
4762		5312.500000
4763		5312.500000
4764		5312.500000
4765		5312.500000
4766		5312.500000
4767		5312.500000
4768		5312.500000
4769		5312.500000
4770		5312.500000
4771		5312.500000
4772		5312.500000
4773		5312.500000
4774		5312.500000
4775		5312.500000
4776		5312.500000
4777		5234.375000
4778		5234.375000
4779		5234.375000
4780		5234.375000
4781		5234.375000
4782		5234.375000
4783		5234.375000
4784		5234.375000
4785		5234.375000
4786		5234.375000
4787		5234.375000
4788		5234.375000
4789		5234.375000
4790		5234.375000
4791		5234.375000
4792		5234.375000
4793		5234.375000
4794		5234.375000
4795		5156.250000
4796		5156.250000
4797		5156.250000
4798		5156.250000
4799		5156.250000
4800		5156.250000
4801		5156.250000
4802		5156.250000
4803		5156.250000
4804		5156.250000
4805		5156.250000
4806		5156.250000
4807		5156.250000
4808		5156.250000
4809		5078.125000
4810		5078.125000
4811		5078.125000
4812		5078.125000
4813		5078.125000
4814		5078.125000
4815		5078.125000
4816		5078.125000
4817		5078.125000
4818		5078.125000
4819		5078.125000
4820		5078.125000
4821		5078.125000
4822		5000.000000
4823		5000.000000
4824		5000.000000
4825		5000.000000
4826		5000.000000
4827		5000.000000
4828		5000.000000
4829		5000.000000
4830		5000.000000
4831		5000.000000
4832		5000.000000
4833		4921.875000
4834		4921.875000
4835		4921.875000
4836		4921.875000
4837		4921.875000
4838		4921.875000
4839		4921.875000
4840		4921.875000
4841		4921.875000
4842		4921.875000
4843		4921.875000
4844		4921.875000
4845		4843.750000
4846		4843.750000
4847		4843.750000
4848		4843.750000
4849		4843.750000
4850		4843.750000
4851		4843.750000
4852		4843.750000
4853		4843.750000
4854		4843.750000
4855		4843.750000
4856		4843.750000
4857		4765.625000
4858		4765.625000
4859		4765.625000
4860		4765.625000
4861		4765.625000
4862		4765.625000
4863		4765.625000
4864		4765.625000
4865		4765.625000
4866		4687.500000
4867		4687.500000
4868		4687.500000
4869		4687.500000
4870		4687.500000
4871		4687.500000
4872		4687.500000
4873		4687.500000
4874		4687.500000
4875		4687.500000
4876		4687.500000
4877		4687.500000
4878		4687.500000
4879		4609.375000
4880		4609.375000
4881		4609.375000
4882		4609.375000
4883		4609.375000
4884		4609.375000
4885		4609.375000
4886		4609.375000
4887		4609.375000
4888		4531.250000
4889		4531.250000
4890		4531.250000
4891		4531.250000
4892		4531.250000
4893		4531.250000
4894		4531.250000
4895		4531.250000
4896		4531.250000
4897		4531.250000
4898		4531.250000
4899		4531.250000
4900		4453.125000
4901		4453.125000
4902		4453.125000
4903		4453.125000
4904		4453.125000
4905		4453.125000
4906		4453.125000
4907		4453.125000
4908		4453.125000
4909		4375.000000
4910		4375.000000
4911		4375.000000
4912		4375.000000
4913		4375.000000
4914		4375.000000
4915		4375.000000
4916		4375.000000
4917		4375.000000
4918		4375.000000
4919		4375.000000
4920		4296.875000
4921		4296.875000
4922		4296.875000
4923		4296.875000
4924		4296.875000
4925		4296.875000
4926		4296.875000
4927		4296.875000
4928		4296.875000
4929		4296.875000
4930		4218.750000
4931		4218.750000
4932		4218.750000
4933		4218.750000
4934		4218.750000
4935		4218.750000
4936		4218.750000
4937		4218.750000
4938		4218.750000
4939		4218.750000
4940		4140.625000
4941		4140.625000
4942		4140.625000
4943		4140.625000
4944		4140.625000
4945		4140.625000
4946		4140.625000
4947		4140.625000
4948		4140.625000
4949		4140.625000
4950		4140.625000
4951		4140.625000
4952		4062.500000
4953		4062.500000
4954		4062.500000
4955		4062.500000
4956		4062.500000
4957		4062.500000
4958		4062.500000
4959		4062.500000
4960		4062.500000
4961		3984.375000
4962		3984.375000
4963		3984.375000
4964		3984.375000
4965		3984.375000
4966		3984.375000
4967		3984.375000
4968		3984.375000
4969		3984.375000
4970		3984.375000
4971		3984.375000
4972		3984.375000
4973		3906.250000
4974		3906.250000
4975		3906.250000
4976		3906.250000
4977		3906.250000
4978		3906.250000
4979		3906.250000
4980		3906.250000
4981		3906.250000
4982		3906.250000
4983		3828.125000
4984		3828.125000
4985		3828.125000
4986		3828.125000
4987		3828.125000
4988		3828.125000
4989		3828.125000
4990		3828.125000
4991		3828.125000
4992		3828.125000
4993		3828.125000
4994		3828.125000
4995		3828.125000
4996		3750.000000
4997		3750.000000
4998		3750.000000
4999		3750.000000
5000		3750.000000
5001		3750.000000
5002		3750.000000
5003		3750.000000
5004		3750.000000
5005		3750.000000
5006		3750.000000
5007		3750.000000
5008		3671.875000
5009		3671.875000
5010		3671.875000
5011		3671.875000
5012		3671.875000
5013		3671.875000
5014		3671.875000
5015		3671.875000
5016		3671.875000
5017		3671.875000
5018		3671.875000
5019		3671.875000
5020		3593.750000
5021		3593.750000
5022		3593.750000
5023		3593.750000
5024		3593.750000
5025		3593.750000
5026		3593.750000
5027		3593.750000
5028		3593.750000
5029		3593.750000
5030		3593.750000
5031		3593.750000
5032		3515.625000
5033		3515.625000
5034		3515.625000
5035		3515.625000
5036		3515.625000
5037		3515.625000
5038		3515.625000
5039		3515.625000
5040		3515.625000
5041		3515.625000
5042		3515.625000
5043		3515.625000
5044		3515.625000
5045		3515.625000
5046		3515.625000
5047		3437.500000
5048		3437.500000
5049		3437.500000
5050		3437.500000
5051		3437.500000
5052		3437.500000
5053		3437.500000
5054		3437.500000
5055		3437.500000
5056		3437.500000
5057		3437.500000
5058		3437.500000
5059		3437.500000
5060		3437.500000
5061		3437.500000
5062		3359.375000
5063		3359.375000
5064		3359.375000
5065		3359.375000
5066		3359.375000
5067		3359.375000
5068		3359.375000
5069		3359.375000
5070		3359.375000
5071		3359.375000
5072		3359.375000
5073		3359.375000
5074		3359.375000
5075		3359.375000
5076		3359.375000
5077		3281.250000
5078		3281.250000
5079		3281.250000
5080		3281.250000
5081		3281.250000
5082		3281.250000
5083		3281.250000
5084		3281.250000
5085		3281.250000
5086		3281.250000
5087		3281.250000
5088		3281.250000
5089		3281.250000
5090		3281.250000
5091		3281.250000
5092		3203.125000
5093		3203.125000
5094		3203.125000
5095		3203.125000
5096		3203.125000
5097		3203.125000
5098		3203.125000
5099		3203.125000
5100		3203.125000
5101		3203.125000
5102		3203.125000
5103		3203.125000
5104		3203.125000
5105		3203.125000
5106		3203.125000
5107		3125.000000
5108		3125.000000
5109		3125.000000
5110		3125.000000
5111		3125.000000
5112		3125.000000
5113		3125.000000
5114		3125.000000
5115		3125.000000
5116		3125.000000
5117		3125.000000
5118		3125.000000
5119		3125.000000
5120		3125.000000
5121		3125.000000
5122		3125.000000
5123		3125.000000
5124		3125.000000
5125		3046.875000
5126		3046.875000
5127		3046.875000
5128		3046.875000
5129		3046.875000
5130		3046.875000
5131		3046.875000
5132		3046.875000
5133		3046.875000
5134		3046.875000
5135		3046.875000
5136		3046.875000
5137		3046.875000
5138		3046.875000
5139		3046.875000
5140		3046.875000
5141		3046.875000
5142		3046.875000
5143		3046.875000
5144		3046.875000
5145		3046.875000
5146		3046.875000
5147		3046.875000
5148		2968.750000
5149		2968.750000
5150		2968.750000
5151		2968.750000
5152		2968.750000
5153		2968.750000
5154		2968.750000
5155		2968.750000
5156		2968.750000
5157		2968.750000
5158		2968.750000
5159		2968.750000
5160		2968.750000
5161		2968.750000
5162		2968.750000
5163		2968.750000
5164		2968.750000
5165		2968.750000
5166		2968.750000
5167		2968.750000
5168		2968.750000
5169		2968.750000
5170		2968.750000
5171		2968.750000
5172		2968.750000
5173		2890.625000
5174		2890.625000
5175		2890.625000
5176		2890.625000
5177		2890.625000
5178		2890.625000
5179		2890.625000
5180		2890.625000
5181		2890.625000
5182		2890.625000
5183		2890.625000
5184		2890.625000
5185		2890.625000
5186		2890.625000
5187		2890.625000
5188		2890.625000
5189		2890.625000
5190		2890.625000
5191		2890.625000
5192		2890.625000
5193		2890.625000
5194		2890.625000
5195		2890.625000
5196		2890.625000
5197		2890.625000
5198		2890.625000
5199		2890.625000
5200		2890.625000
5201		2890.625000
5202		2812.500000
5203		2812.500000
5204		2812.500000
5205		2812.500000
5206		2812.500000
5207		2812.500000
5208		2812.500000
5209		2812.500000
5210		2812.500000
5211		2812.500000
5212		2812.500000
5213		2812.500000
5214		2812.500000
5215		2812.500000
5216		2812.500000
5217		2812.500000
5218		2812.500000
5219		2812.500000
5220		2812.500000
5221		2812.500000
5222		2812.500000
5223		2812.500000
5224		2812.500000
5225		2812.500000
5226		2812.500000
5227		2812.500000
5228		2812.500000
5229		2812.500000
5230		2812.500000
5231		2812.500000
5232		2812.500000
5233		2812.500000
5234		2812.500000
5235		2812.500000
5236		2812.500000
5237		2812.500000
5238		2812.500000
5239		2812.500000
5240		2734.375000
5241		2734.375000
5242		2734.375000
5243		2734.375000
5244		2734.375000
5245		2734.375000
5246		2734.375000
5247		2734.375000
5248		2734.375000
5249		2734.375000
5250		2734.375000
5251		2734.375000
5252		2734.375000
5253		2734.375000
5254		2734.375000
5255		2734.375000
5256		2734.375000
5257		2734.375000
5258		2734.375000
5259		2734.375000
5260		2734.375000
5261		2734.375000
5262		2734.375000
5263		2734.375000
5264		2734.375000
5265		2734.375000
5266		2734.375000
5267		2734.375000
5268		2734.375000
5269		2734.375000
5270		2734.375000
5271		2734.375000
5272		2734.375000
5273		2734.375000
5274		2734.375000
5275		2734.375000
5276		2734.375000
5277		2734.375000
5278		2734.375000
5279		2734.375000
5280		2734.375000
5281		2734.375000
5282		2734.375000
5283		2734.375000
5284		2734.375000
5285		2734.375000
5286		2734.375000
5287		2734.375000
5288		2734.375000
5289		2734.375000
5290		2734.375000
5291		2734.375000
5292		2734.375000
5293		2734.375000
5294		2734.375000
5295		2734.375000
5296		2734.375000
5297		2734.375000
5298		2656.250000
5299		2656.250000
5300		2656.250000
5301		2656.250000
5302		2656.250000
5303		2656.250000
5304		2656.250000
5305		2656.250000
5306		2656.250000
5307		2656.250000
5308		2656.250000
5309		2656.250000
5310		2656.250000
5311		2734.375000
5312		2656.250000
5313		2656.250000
5314		2656.250000
5315		2656.250000
5316		2656.250000
5317		2656.250000
5318		2656.250000
5319		2656.250000
5320		2656.250000
5321		2656.250000
5322		2656.250000
5323		2656.250000
5324		2656.250000
5325		2656.250000
5326		2656.250000
5327		2656.250000
5328		2656.250000
5329		2656.250000
5330		2656.250000
5331		2656.250000
5332		2656.250000
5333		2656.250000
5334		2656.250000
5335		2656.250000
5336		2656.250000
5337		2656.250000
5338		2656.250000
5339		2656.250000
5340		2656.250000
5341		2656.250000
5342		2656.250000
5343		2656.250000
5344		2656.250000
5345		2656.250000
5346		2656.250000
5347		2656.250000
5348		2656.250000
5349		2656.250000
5350		2656.250000
5351		2656.250000
5352		2656.250000
5353		2656.250000
5354		2656.250000
5355		2656.250000
5356		2656.250000
5357		2656.250000
5358		2656.250000
5359		2656.250000
5360		2656.250000
5361		2656.250000
5362		2656.250000
5363		2656.250000
5364		2656.250000
5365		2656.250000
5366		2656.250000
5367		2656.250000
5368		2656.250000
5369		2656.250000
5370		2656.250000
5371		2656.250000
5372		2656.250000
5373		2656.250000
5374		2656.250000
5375		2656.250000
5376		2656.250000
5377		2656.250000
5378		2656.250000
5379		2656.250000
5380		2656.250000
5381		2656.250000
5382		2656.250000
5383		2656.250000
5384		2656.250000
5385		2656.250000
5386		2656.250000
5387		2656.250000
5388		2656.250000
5389		2656.250000
5390		2656.250000
5391		2656.250000
5392		2656.250000
5393		2656.250000
5394		2656.250000
5395		2656.250000
5396		2656.250000
5397		2656.250000
5398		2656.250000
5399		2656.250000
5400		2656.250000
5401		2656.250000
5402		2656.250000
5403		2734.375000
5404		2656.250000
5405		2656.250000
5406		2656.250000
5407		2656.250000
5408		2656.250000
5409		2656.250000
5410		2734.375000
5411		2734.375000
5412		2734.375000
5413		2734.375000
5414		2734.375000
5415		2734.375000
5416		2734.375000
5417		2734.375000
5418		2734.375000
5419		2734.375000
5420		2734.375000
5421		2734.375000
5422		2734.375000
5423		2734.375000
5424		2734.375000
5425		2734.375000
5426		2734.375000
5427		2734.375000
5428		2734.375000
5429		2734.375000
5430		2734.375000
5431		2734.375000
5432		2734.375000
5433		2734.375000
5434		2734.375000
5435		2734.375000
5436		2734.375000
5437		2734.375000
5438		2734.375000
5439		2734.375000
5440		2734.375000
5441		2734.375000
5442		2734.375000
5443		2734.375000
5444		2734.375000
5445		2734.375000
5446		2734.375000
5447		2734.375000
5448		2734.375000
5449		2734.375000
5450		2734.375000
5451		2734.375000
5452		2734.375000
5453		2734.375000
5454		2734.375000
5455		2734.375000
5456		2734.375000
5457		2734.375000
5458		2734.375000
5459		2734.375000
5460		2734.375000
5461		2734.375000
5462		2734.375000
5463		2812.500000
5464		2734.375000
5465		2812.500000
5466		2734.375000
5467		2734.375000
5468		2812.500000
5469		2812.500000
5470		2812.500000
5471		2812.500000
5472		2812.500000
5473		2812.500000
5474		2812.500000
5475		2812.500000
5476		2812.500000
5477		2812.500000
5478		2812.500000
5479		2812.500000
5480		2812.500000
5481		2812.500000
5482		2812.500000
5483		2812.500000
5484		2812.500000
5485		2812.500000
5486		2812.500000
5487		2812.500000
5488		2812.500000
5489		2812.500000
5490		2812.500000
5491		2812.500000
5492		2812.500000
5493		2812.500000
5494		2890.625000
5495		2812.500000
5496		2890.625000
5497		2812.500000
5498		2890.625000
5499		2890.625000
5500		2890.625000
5501		2890.625000
5502		2890.625000
5503		2890.625000
5504		2890.625000
5505		2890.625000
5506		2890.625000
5507		2890.625000
5508		2890.625000
5509		2890.625000
5510		2890.625000
5511		2890.625000
5512		2890.625000
5513		2890.625000
5514		2890.625000
5515		2890.625000
5516		2890.625000
5517		2890.625000
5518		2890.625000
5519		2890.625000
5520		2890.625000
5521		2890.625000
5522		2890.625000
5523		2890.625000
5524		2968.750000
5525		2968.750000
5526		2968.750000
5527		2968.750000
5528		2968.750000
5529		2968.750000
5530		2968.750000
5531		2968.750000
5532		2968.750000
5533		2968.750000
5534		2968.750000
5535		2968.750000
5536		2968.750000
5537		2968.750000
5538		2968.750000
5539		2968.750000
5540		2968.750000
5541		2968.750000
5542		2968.750000
5543		2968.750000
5544		2968.750000
5545		2968.750000
5546		2968.750000
5547		2968.750000
5548		3046.875000
5549		3046.875000
5550		3046.875000
5551		3046.875000
5552		3046.875000
5553		3046.875000
5554		3046.875000
5555		3046.875000
5556		3046.875000
5557		3046.875000
5558		3046.875000
5559		3046.875000
5560		3046.875000
5561		3046.875000
5562		3046.875000
5563		3046.875000
5564		3046.875000
5565		3046.875000
5566		3125.000000
5567		3125.000000
5568		3125.000000
5569		3125.000000
5570		3125.000000
5571		3125.000000
5572		3125.000000
5573		3125.000000
5574		3125.000000
5575		3125.000000
5576		3125.000000
5577		3125.000000
5578		3125.000000
5579		3125.000000
5580		3125.000000
5581		3125.000000
5582		3125.000000
5583		3203.125000
5584		3203.125000
5585		3203.125000
5586		3203.125000
5587		3203.125000
5588		3203.125000
5589		3203.125000
5590		3203.125000
5591		3203.125000
5592		3203.125000
5593		3203.125000
5594		3203.125000
5595		3203.125000
5596		3203.125000
5597		3203.125000
5598		3281.250000
5599		3281.250000
5600		3281.250000
5601		3281.250000
5602		3281.250000
5603		3281.250000
5604		3281.250000
5605		3281.250000
5606		3281.250000
5607		3281.250000
5608		3281.250000
5609		3281.250000
5610		3281.250000
5611		3281.250000
5612		3281.250000
5613		3359.375000
5614		3359.375000
5615		3359.375000
5616		3359.375000
5617		3359.375000
5618		3359.375000
5619		3359.375000
5620		3359.375000
5621		3359.375000
5622		3359.375000
5623		3359.375000
5624		3359.375000
5625		3359.375000
5626		3437.500000
5627		3437.500000
5628		3437.500000
5629		3437.500000
5630		3437.500000
5631		3437.500000
5632		3437.500000
5633		3437.500000
5634		3437.500000
5635		3437.500000
5636		3515.625000
5637		3515.625000
5638		3515.625000
5639		3515.625000
5640		3515.625000
5641		3515.625000
5642		3515.625000
5643		3515.625000
5644		3515.625000
5645		3515.625000
5646		3515.625000
5647		3515.625000
5648		3515.625000
5649		3593.750000
5650		3593.750000
5651		3593.750000
5652		3593.750000
5653		3593.750000
5654		3593.750000
5655		3593.750000
5656		3593.750000
5657		3593.750000
5658		3671.875000
5659		3671.875000
5660		3671.875000
5661		3671.875000
5662		3671.875000
5663		3671.875000
5664		3671.875000
5665		3671.875000
5666		3671.875000
5667		3671.875000
5668		3671.875000
5669		3671.875000
5670		3750.000000
5671		3750.000000
5672		3750.000000
5673		3750.000000
5674		3750.000000
5675		3750.000000
5676		3750.000000
5677		3750.000000
5678		3750.000000
5679		3750.000000
5680		3828.125000
5681		3828.125000
5682		3828.125000
5683		3828.125000
5684		3828.125000
5685		3828.125000
5686		3828.125000
5687		3828.125000
5688		3828.125000
5689		3906.250000
5690		3906.250000
5691		3906.250000
5692		3906.250000
5693		3906.250000
5694		3906.250000
5695		3906.250000
5696		3906.250000
5697		3906.250000
5698		3906.250000
5699		3984.375000
5700		3984.375000
5701		3984.375000
5702		3984.375000
5703		3984.375000
5704		3984.375000
5705		3984.375000
5706		3984.375000
5707		3984.375000
5708		3984.375000
5709		4062.500000
5710		4062.500000
5711		4062.500000
5712		4062.500000
5713		4062.500000
5714		4062.500000
5715		4062.500000
5716		4062.500000
5717		4062.500000
5718		4140.625000
5719		4140.625000
5720		4140.625000
5721		4140.625000
5722		4140.625000
5723		4140.625000
5724		4140.625000
5725		4140.625000
5726		4218.750000
5727		4218.750000
5728		4218.750000
5729		4218.750000
5730		4218.750000
5731		4218.750000
5732		4218.750000
5733		4218.750000
5734		4218.750000
5735		4218.750000
5736		4296.875000
5737		4296.875000
5738		4296.875000
5739		4296.875000
5740		4296.875000
5741		4296.875000
5742		4296.875000
5743		4296.875000
5744		4296.875000
5745		4375.000000
5746		4375.000000
5747		4375.000000
5748		4375.000000
5749		4375.000000
5750		4375.000000
5751		4375.000000
5752		4375.000000
5753		4453.125000
5754		4453.125000
5755		4453.125000
5756		4453.125000
5757		4453.125000
5758		4453.125000
5759		4453.125000
5760		4453.125000
5761		4453.125000
5762		4531.250000
5763		4531.250000
5764		4531.250000
5765		4531.250000
5766		4531.250000
5767		4531.250000
5768		4531.250000
5769		4531.250000
5770		4531.250000
5771		4531.250000
5772		4531.250000
5773		4609.375000
5774		4609.375000
5775		4609.375000
5776		4609.375000
5777		4609.375000
5778		4609.375000
5779		4609.375000
5780		4609.375000
5781		4609.375000
5782		4687.500000
5783		4687.500000
5784		4687.500000
5785		4687.500000
5786		4687.500000
5787		4687.500000
5788		4687.500000
5789		4687.500000
5790		4687.500000
5791		4687.500000
5792		4765.625000
5793		4765.625000
5794		4765.625000
5795		4765.625000
5796		4765.625000
5797		4765.625000
5798		4765.625000
5799		4765.625000
5800		4843.750000
5801		4843.750000
5802		4843.750000
5803		4843.750000
5804		4843.750000
5805		4843.750000
5806		4843.750000
5807		4843.750000
5808		4843.750000
5809		4843.750000
5810		4843.750000
5811		4843.750000
5812		4921.875000
5813		4921.875000
5814		4921.875000
5815		4921.875000
5816		4921.875000
5817		4921.875000
5818		4921.875000
5819		4921.875000
5820		4921.875000
5821		4921.875000
5822		4921.875000
5823		4921.875000
5824		5000.000000
5825		5000.000000
5826		5000.000000
5827		5000.000000
5828		5000.000000
5829		5000.000000
5830		5000.000000
5831		5000.000000
5832		5000.000000
5833		5000.000000
5834		5078.125000
5835		5078.125000
5836		5078.125000
5837		5078.125000
5838		5078.125000
5839		5078.125000
5840		5078.125000
5841		5078.125000
5842		5078.125000
5843		5078.125000
5844		5078.125000
5845		5078.125000
5846		5078.125000
5847		5078.125000
5848		5156.250000
5849		5156.250000
5850		5156.250000
5851		5156.250000
5852		5156.250000
5853		5156.250000
5854		5156.250000
5855		5156.250000
5856		5156.250000
5857		5156.250000
5858		5156.250000
5859		5156.250000
5860		5156.250000
5861		5156.250000
5862		5156.250000
5863		5234.375000
5864		5234.375000
5865		5234.375000
5866		5234.375000
5867		5234.375000
5868		5234.375000
5869		5234.375000
5870		5234.375000
5871		5234.375000
5872		5234.375000
5873		5312.500000
5874		5312.500000
5875		5312.500000
5876		5312.500000
5877		5312.500000
5878		5234.375000
5879		5312.500000
5880		5312.500000
5881		5312.500000
5882		5312.500000
5883		5312.500000
5884		5312.500000
5885		5312.500000
5886		5312.500000
5887		5312.500000
5888		5312.500000
5889		5312.500000
5890		5312.500000
5891		5312.500000
5892		5312.500000
5893		5312.500000
5894		5312.500000
5895		5312.500000
5896		5312.500000
5897		5312.500000
5898		5312.500000
5899		5312.500000
5900		5312.500000
5901		5312.500000
5902		5390.625000
5903		5390.625000
5904		5390.625000
5905		5390.625000
5906		5390.625000
5907		5390.625000
5908		5390.625000
5909		5390.625000
5910		5390.625000
5911		5390.625000
5912		5390.625000
5913		5390.625000
5914		5390.625000
5915		5390.625000
5916		5390.625000
5917		5390.625000
5918		5390.625000
5919		5390.625000
5920		5390.625000
5921		5390.625000
5922		5390.625000
5923		5390.625000
5924		5390.625000
5925		5390.625000
5926		5390.625000
5927		5390.625000
5928		5390.625000
5929		5390.625000
5930		5390.625000
5931		5390.625000
5932		5390.625000
5933		5390.625000
5934		5390.625000
5935		5390.625000
5936		5390.625000
5937		5390.625000
5938		5390.625000
5939		5390.625000
5940		5390.625000
5941		5390.625000
5942		5390.625000
5943		5390.625000
5944		5390.625000
5945		5390.625000
5946		5390.625000
5947		5390.625000
5948		5390.625000
5949		5390.625000
5950		5390.625000
5951		5390.625000
5952		5390.625000
5953		5390.625000
5954		5390.625000
5955		5390.625000
5956		5390.625000
5957		5390.625000
5958		5390.625000
5959		5390.625000
5960		5390.625000
5961		5390.625000
5962		5390.625000
5963		5390.625000
5964		5390.625000
5965		5390.625000
5966		5390.625000
5967		5390.625000
5968		5390.625000
5969		5390.625000
5970		5390.625000
5971		5390.625000
5972		5390.625000
5973		5390.625000
5974		5390.625000
5975		5390.625000
5976		5390.625000
5977		5390.625000
5978		5390.625000
5979		5390.625000
5980		5390.625000
5981		5390.625000
5982		5390.625000
5983		5390.625000
5984		5390.625000
5985		5390.625000
5986		5312.500000
5987		5312.500000
5988		5312.500000
5989		5312.500000
5990		5312.500000
5991		5312.500000
5992		5312.500000
5993		5312.500000
5994		5312.500000
5995		5312.500000
5996		5312.500000
5997		5312.500000
5998		5312.500000
5999		5312.500000
6000		5312.500000
6001		5312.500000
6002		5312.500000
6003		5312.500000
6004		5312.500000
6005		5312.500000
6006		5312.500000
6007		5234.375000
6008		5234.375000
6009		5234.375000
6010		5234.375000
6011		5234.375000
6012		5234.375000
6013		5234.375000
6014		5234.375000
6015		5234.375000
6016		5234.375000
6017		5234.375000
6018		5234.375000
6019		5234.375000
6020		5234.375000
6021		5234.375000
6022		5234.375000
6023		5234.375000
6024		5234.375000
6025		5156.250000
6026		5156.250000
6027		5156.250000
6028		5156.250000
6029		5156.250000
6030		5156.250000
6031		5156.250000
6032		5156.250000
6033		5156.250000
6034		5156.250000
6035		5156.250000
6036		5156.250000
6037		5156.250000
6038		5156.250000
6039		5156.250000
6040		5156.250000
6041		5156.250000
6042		5078.125000
6043		5078.125000
6044		5078.125000
6045		5078.125000
6046		5078.125000
6047		5078.125000
6048		5078.125000
6049		5078.125000
6050		5078.125000
6051		5078.125000
6052		5078.125000
6053		5078.125000
6054		5078.125000
6055		5000.000000
6056		5000.000000
6057		5000.000000
6058		5000.000000
6059		5000.000000
6060		5000.000000
6061		5000.000000
6062		5000.000000
6063		5000.000000
6064		5000.000000
6065		5000.000000
6066		5000.000000
6067		4921.875000
6068		4921.875000
6069		4921.875000
6070		4921.875000
6071		4921.875000
6072		4921.875000
6073		4921.875000
6074		4921.875000
6075		4921.875000
6076		4921.875000
6077		4921.875000
6078		4921.875000
6079		4843.750000
6080		4843.750000
6081		4843.750000
6082		4843.750000
6083		4843.750000
6084		4843.750000
6085		4843.750000
6086		4843.750000
6087		4843.750000
6088		4843.750000
6089		4843.750000
6090		4843.750000
6091		4843.750000
6092		4765.625000
6093		4765.625000
6094		4765.625000
6095		4765.625000
6096		4765.625000
6097		4765.625000
6098		4765.625000
6099		4765.625000
6100		4765.625000
6101		4765.625000
6102		4687.500000
6103		4687.500000
6104		4687.500000
6105		4687.500000
6106		4687.500000
6107		4687.500000
6108		4687.500000
6109		4687.500000
6110		4687.500000
6111		4687.500000
6112		4687.500000
6113		4687.500000
6114		4609.375000
6115		4609.375000
6116		4609.375000
6117		4609.375000
6118		4609.375000
6119		4609.375000
6120		4609.375000
6121		4609.375000
6122		4609.375000
6123		4531.250000
6124		4531.250000
6125		4531.250000
6126		4531.250000
6127		4531.250000
6128		4531.250000
6129		4531.250000
6130		4531.250000
6131		4531.250000
6132		4531.250000
6133		4531.250000
6134		4453.125000
6135		4453.125000
6136		4453.125000
6137		4453.125000
6138		4453.125000
6139		4453.125000
6140		4453.125000
6141		4453.125000
6142		4453.125000
6143		4453.125000
6144		4375.000000
6145		4375.000000
6146		4375.000000
6147		4375.000000
6148		4375.000000
6149		4375.000000
6150		4375.000000
6151		4375.000000
6152		4375.000000
6153		4375.000000
6154		4296.875000
6155		4296.875000
6156		4296.875000
6157		4296.875000
6158		4296.875000
6159		4296.875000
6160		4296.875000
6161		4296.875000
6162		4296.875000
6163		4296.875000
6164		4218.750000
6165		4218.750000
6166		4218.750000
6167		4218.750000
6168		4218.750000
6169		4218.750000
6170		4218.750000
6171		4218.750000
6172		4218.750000
6173		4218.750000
6174		4140.625000
6175		4140.625000
6176		4140.625000
6177		4140.625000
6178		4140.625000
6179		4140.625000
6180		4140.625000
6181		4140.625000
6182		4140.625000
6183		4140.625000
6184		4140.625000
6185		4062.500000
6186		4062.500000
6187		4062.500000
6188		4062.500000
6189		4062.500000
6190		4062.500000
6191		4062.500000
6192		4062.500000
6193		4062.500000
6194		4062.500000
6195		4062.500000
6196		3984.375000
6197		3984.375000
6198		3984.375000
6199		3984.375000
6200		3984.375000
6201		3984.375000
6202		3984.375000
6203		3984.375000
6204		3984.375000
6205		3984.375000
6206		3906.250000
6207		3906.250000
6208		3906.250000
6209		3906.250000
6210		3906.250000
6211		3906.250000
6212		3906.250000
6213		3906.250000
6214		3906.250000
6215		3906.250000
6216		3906.250000
6217		3906.250000
6218		3906.250000
6219		3828.125000
6220		3828.125000
6221		3828.125000
6222		3828.125000
6223		3828.125000
6224		3828.125000
6225		3828.125000
6226		3828.125000
6227		3828.125000
6228		3828.125000
6229		3750.000000
6230		3750.000000
6231		3750.000000
6232		3750.000000
6233		3750.000000
6234		3750.000000
6235		3750.000000
6236		3750.000000
6237		3750.000000
6238		3750.000000
6239		3750.000000
6240		3750.000000
6241		3671.875000
6242		3671.875000
6243		3671.875000
6244		3671.875000
6245		3671.875000
6246		3671.875000
6247		3671.875000
6248		3671.875000
6249		3671.875000
6250		3671.875000
6251		3671.875000
6252		3671.875000
6253		3671.875000
6254		3593.750000
6255		3671.875000
6256		3593.750000
6257		3593.750000
6258		3593.750000
6259		3593.750000
6260		3593.750000
6261		3593.750000
6262		3593.750000
6263		3515.625000
6264		3593.750000
6265		3515.625000
6266		3515.625000
6267		3515.625000
6268		3515.625000
6269		3515.625000
6270		3515.625000
6271		3515.625000
6272		3515.625000
6273		3515.625000
6274		3515.625000
6275		3515.625000
6276		3515.625000
6277		3515.625000
6278		3515.625000
6279		3437.500000
6280		3437.500000
6281		3437.500000
6282		3437.500000
6283		3437.500000
6284		3437.500000
6285		3437.500000
6286		3437.500000
6287		3437.500000
6288		3437.500000
6289		3437.500000
6290		3437.500000
6291		3437.500000
6292		3437.500000
6293		3437.500000
6294		3437.500000
6295		3359.375000
6296		3359.375000
6297		3359.375000
6298		3359.375000
6299		3359.375000
6300		3359.375000
6301		3359.375000
6302		3359.375000
6303		3359.375000
6304		3359.375000
6305		3359.375000
6306		3359.375000
6307		3359.375000
6308		3359.375000
6309		3281.250000
6310		3281.250000
6311		3281.250000
6312		3281.250000
6313		3281.250000
6314		3281.250000
6315		3281.250000
6316		3281.250000
6317		3281.250000
6318		3281.250000
6319		3281.250000
6320		3281.250000
6321		3281.250000
6322		3281.250000
6323		3281.250000
6324		3281.250000
6325		3281.250000
6326		3203.125000
6327		3203.125000
6328		3203.125000
6329		3203.125000
6330		3203.125000
6331		3203.125000
6332		3203.125000
6333		3203.125000
6334		3203.125000
6335		3203.125000
6336		3203.125000
6337		3203.125000
6338		3203.125000
6339		3203.125000
6340		3203.125000
6341		3203.125000
6342		3203.125000
6343		3125.000000
6344		3125.000000
6345		3125.000000
6346		3125.000000
6347		3125.000000
6348		3125.000000
6349		3125.000000
6350		3125.000000
6351		3125.000000
6352		3125.000000
6353		3125.000000
6354		3125.000000
6355		3125.000000
6356		3125.000000
6357		3125.000000
6358		3125.000000
6359		3125.000000
6360		3125.000000
6361		3125.000000
6362		3125.000000
6363		3046.875000
6364		3046.875000
6365		3046.875000
6366		3046.875000
6367		3046.875000
6368		3046.875000
6369		3046.875000
6370		3046.875000
6371		3046.875000
6372		3046.875000
6373		3046.875000
6374		3046.875000
6375		3046.875000
6376		3046.875000
6377		3046.875000
6378		3046.875000
6379		3046.875000
6380		3046.875000
6381		3046.875000
6382		3046.875000
6383		3046.875000
6384		3046.875000
6385		2968.750000
6386		2968.750000
6387		2968.750000
6388		2968.750000
6389		2968.750000
6390		2968.750000
6391		2968.750000
6392		2968.750000
6393		2968.750000
6394		2968.750000
6395		2968.750000
6396		2968.750000
6397		2968.750000
6398		2968.750000
6399		2968.750000
6400		2968.750000
6401		2968.750000
6402		2968.750000
6403		2968.750000
6404		2968.750000
6405		2890.625000
6406		2968.750000
6407		2890.625000
6408		2890.625000
6409		2890.625000
6410		2890.625000
6411		2890.625000
6412		2890.625000
6413		2890.625000
6414		2890.625000
6415		2890.625000
6416		2890.625000
6417		2890.625000
6418		2890.625000
6419		2890.625000
6420		2890.625000
6421		2890.625000
6422		2890.625000
6423		2890.625000
6424		2890.625000
6425		2890.625000
6426		2890.625000
6427		2890.625000
6428		2890.625000
6429		2890.625000
6430		2890.625000
6431		2890.625000
6432		2890.625000
6433		2890.625000
6434		2890.625000
6435		2890.625000
6436		2890.625000
6437		2890.625000
6438		2812.500000
6439		2812.500000
6440		2812.500000
6441		2812.500000
6442		2812.500000
6443		2812.500000
6444		2812.500000
6445		2812.500000
6446		2812.500000
6447		2812.500000
6448		2812.500000
6449		2812.500000
6450		2812.500000
6451		2812.500000
6452		2812.500000
6453		2812.500000
6454		2812.500000
6455		2812.500000
6456		2812.500000
6457		2812.500000
6458		2812.500000
6459		2812.500000
6460		2812.500000
6461		2812.500000
6462		2812.500000
6463		2812.500000
6464		2812.500000
6465		2812.500000
6466		2734.375000
6467		2812.500000
6468		2812.500000
6469		2812.500000
6470		2812.500000
6471		2812.500000
6472		2734.375000
6473		2812.500000
6474		2812.500000
6475		2812.500000
6476		2812.500000
6477		2734.375000
6478		2734.375000
6479		2734.375000
6480		2734.375000
6481		2734.375000
6482		2734.375000
6483		2734.375000
6484		2734.375000
6485		2734.375000
6486		2734.375000
6487		2734.375000
6488		2734.375000
6489		2734.375000
6490		2734.375000
6491		2734.375000
6492		2734.375000
6493		2734.375000
6494		2734.375000
6495		2734.375000
6496		2734.375000
6497		2734.375000
6498		2734.375000
6499		2734.375000
6500		2734.375000
6501		2734.375000
6502		2734.375000
6503		2734.375000
6504		2734.375000
6505		2734.375000
6506		2734.375000
6507		2734.375000
6508		2734.375000
6509		2734.375000
6510		2734.375000
6511		2734.375000
6512		2734.375000
6513		2734.375000
6514		2734.375000
6515		2734.375000
6516		2734.375000
6517		2656.250000
6518		2734.375000
6519		2734.375000
6520		2656.250000
6521		2734.375000
6522		2656.250000
6523		2734.375000
6524		2656.250000
6525		2656.250000
6526		2656.250000
6527		2656.250000
6528		2734.375000
6529		2656.250000
6530		2656.250000
6531		2656.250000
6532		2656.250000
6533		2656.250000
6534		2656.250000
6535		2656.250000
6536		2656.250000
6537		2656.250000
6538		2656.250000
6539		2656.250000
6540		2656.250000
6541		2656.250000
6542		2656.250000
6543		2656.250000
6544		2656.250000
6545		2656.250000
6546		2656.250000
6547		2656.250000
6548		2656.250000
6549		2656.250000
6550		2656.250000
6551		2656.250000
6552		2656.250000
6553		2656.250000
6554		2656.250000
6555		2656.250000
6556		2656.250000
6557		2656.250000
6558		2656.250000
6559		2656.250000
6560		2656.250000
6561		2656.250000
6562		2656.250000
6563		2656.250000
6564		2656.250000
6565		2656.250000
6566		2656.250000
6567		2656.250000
6568		2656.250000
6569		2656.250000
6570		2656.250000
6571		2656.250000
6572		2656.250000
6573		2656.250000
6574		2656.250000
6575		2656.250000
6576		2656.250000
6577		2656.250000
6578		2656.250000
6579		2656.250000
6580		2656.250000
6581		2656.250000
6582		2656.250000
6583		2656.250000
6584		2656.250000
6585		2656.250000
6586		2656.250000
6587		2656.250000
6588		2656.250000
6589		2656.250000
6590		2656.250000
6591		2656.250000
6592		2656.250000
6593		2656.250000
6594		2656.250000
6595		2656.250000
6596		2656.250000
6597		2656.250000
6598		2656.250000
6599		2656.250000
6600		2656.250000
6601		2656.250000
6602		2656.250000
6603		2656.250000
6604		2656.250000
6605		2656.250000
6606		2656.250000
6607		2656.250000
6608		2656.250000
6609		2656.250000
6610		2656.250000
6611		2656.250000
6612		2656.250000
6613		2656.250000
6614		2656.250000
6615		2656.250000
6616		2656.250000
6617		2656.250000
6618		2656.250000
6619		2656.250000
6620		2656.250000
6621		2656.250000
6622		2656.250000
6623		2656.250000
6624		2656.250000
6625		2656.250000
6626		2656.250000
6627		2656.250000
6628		2656.250000
6629		2656.250000
6630		2656.250000
6631		2656.250000
6632		2656.250000
6633		2656.250000
6634		2656.250000
6635		2656.250000
6636		2656.250000
6637		2656.250000
6638		2656.250000
6639		2656.250000
6640		2656.250000
6641		2656.250000
6642		2656.250000
6643		2656.250000
6644		2656.250000
6645		2656.250000
6646		2656.250000
6647		2656.250000
6648		2656.250000
6649		2734.375000
6650		2734.375000
6651		2734.375000
6652		2734.375000
6653		2734.375000
6654		2734.375000
6655		2734.375000
6656		2734.375000
6657		2734.375000
6658		2734.375000
6659		2734.375000
6660		2734.375000
6661		2734.375000
6662		2734.375000
6663		2734.375000
6664		2734.375000
6665		2734.375000
6666		2734.375000
6667		2734.375000
6668		2734.375000
6669		2734.375000
6670		2734.375000
6671		2734.375000
6672		2734.375000
6673		2734.375000
6674		2734.375000
6675		2734.375000
6676		2734.375000
6677		2734.375000
6678		2734.375000
6679		2734.375000
6680		2734.375000
6681		2734.375000
6682		2734.375000
6683		2734.375000
6684		2734.375000
6685		2734.375000
6686		2734.375000
6687		2734.375000
6688		2734.375000
6689		2734.375000
6690		2734.375000
6691		2734.375000
6692		2734.375000
6693		2734.375000
6694		2734.375000
6695		2734.375000
6696		2734.375000
6697		2734.375000
6698		2734.375000
6699		2812.500000
6700		2734.375000
6701		2734.375000
6702		2812.500000
6703		2812.500000
6704		2812.500000
6705		2812.500000
6706		2812.500000
6707		2812.500000
6708		2812.500000
6709		2812.500000
6710		2812.500000
6711		2812.500000
6712		2812.500000
6713		2812.500000
6714		2812.500000
6715		2812.500000
6716		2812.500000
6717		2812.500000
6718		2812.500000
6719		2812.500000
6720		2812.500000
6721		2812.500000
6722		2812.500000
6723		2812.500000
6724		2812.500000
6725		2812.500000
6726		2812.500000
6727		2812.500000
6728		2812.500000
6729		2812.500000
6730		2812.500000
6731		2812.500000
6732		2812.500000
6733		2812.500000
6734		2812.500000
6735		2812.500000
6736		2812.500000
6737		2890.625000
6738		2890.625000
6739		2890.625000
6740		2890.625000
6741		2890.625000
6742		2890.625000
6743		2890.625000
6744		2890.625000
6745		2890.625000
6746		2890.625000
6747		2890.625000
6748		2890.625000
6749		2890.625000
6750		2890.625000
6751		2890.625000
6752		2890.625000
6753		2890.625000
6754		2890.625000
6755		2890.625000
6756		2890.625000
6757		2968.750000
6758		2890.625000
6759		2968.750000
6760		2890.625000
6761		2890.625000
6762		2968.750000
6763		2968.750000
6764		2968.750000
6765		2968.750000
6766		2968.750000
6767		2968.750000
6768		2968.750000
6769		2968.750000
6770		2968.750000
6771		2968.750000
6772		2968.750000
6773		2968.750000
6774		2968.750000
6775		2968.750000
6776		2968.750000
6777		2968.750000
6778		2968.750000
6779		2968.750000
6780		2968.750000
6781		2968.750000
6782		2968.750000
6783		2968.750000
6784		3046.875000
6785		3046.875000
6786		3046.875000
6787		3046.875000
6788		3046.875000
6789		3046.875000
6790		3046.875000
6791		3046.875000
6792		3046.875000
6793		3046.875000
6794		3046.875000
6795		3046.875000
6796		3046.875000
6797		3046.875000
6798		3046.875000
6799		3046.875000
6800		3046.875000
6801		3046.875000
6802		3046.875000
6803		3125.000000
6804		3046.875000
6805		3125.000000
6806		3125.000000
6807		3125.000000
6808		3125.000000
6809		3125.000000
6810		3125.000000
6811		3125.000000
6812		3125.000000
6813		3125.000000
6814		3125.000000
6815		3125.000000
6816		3125.000000
6817		3125.000000
6818		3125.000000
6819		3125.000000
6820		3125.000000
6821		3203.125000
6822		3203.125000
6823		3203.125000
6824		3203.125000
6825		3203.125000
6826		3203.125000
6827		3203.125000
6828		3203.125000
6829		3203.125000
6830		3203.125000
6831		3203.125000
6832		3203.125000
6833		3203.125000
6834		3203.125000
6835		3281.250000
6836		3281.250000
6837		3281.250000
6838		3281.250000
6839		3281.250000
6840		3281.250000
6841		3281.250000
6842		3281.250000
6843		3281.250000
6844		3281.250000
6845		3281.250000
6846		3281.250000
6847		3281.250000
6848		3281.250000
6849		3359.375000
6850		3359.375000
6851		3359.375000
6852		3359.375000
6853		3359.375000
6854		3359.375000
6855		3359.375000
6856		3359.375000
6857		3359.375000
6858		3359.375000
6859		3359.375000
6860		3359.375000
6861		3359.375000
6862		3359.375000
6863		3359.375000
6864		3437.500000
6865		3437.500000
6866		3437.500000
6867		3437.500000
6868		3437.500000
6869		3437.500000
6870		3437.500000
6871		3437.500000
6872		3437.500000
6873		3437.500000
6874		3515.625000
6875		3515.625000
6876		3515.625000
6877		3515.625000
6878		3515.625000
6879		3515.625000
6880		3515.625000
6881		3515.625000
6882		3515.625000
6883		3515.625000
6884		3515.625000
6885		3515.625000
6886		3593.750000
6887		3593.750000
6888		3593.750000
6889		3593.750000
6890		3593.750000
6891		3593.750000
6892		3593.750000
6893		3593.750000
6894		3593.750000
6895		3593.750000
6896		3671.875000
6897		3671.875000
6898		3671.875000
6899		3671.875000
6900		3671.875000
6901		3671.875000
6902		3671.875000
6903		3671.875000
6904		3671.875000
6905		3671.875000
6906		3671.875000
6907		3671.875000
6908		3750.000000
6909		3750.000000
6910		3750.000000
6911		3750.000000
6912		3750.000000
6913		3750.000000
6914		3750.000000
6915		3750.000000
6916		3750.000000
6917		3828.125000
6918		3828.125000
6919		3828.125000
6920		3828.125000
6921		3828.125000
6922		3828.125000
6923		3828.125000
6924		3828.125000
6925		3828.125000
6926		3906.250000
6927		3906.250000
6928		3906.250000
6929		3906.250000
6930		3906.250000
6931		3906.250000
6932		3906.250000
6933		3906.250000
6934		3906.250000
6935		3906.250000
6936		3906.250000
6937		3984.375000
6938		3984.375000
6939		3984.375000
6940		3984.375000
6941		3984.375000
6942		3984.375000
6943		3984.375000
6944		3984.375000
6945		3984.375000
6946		4062.500000
6947		4062.500000
6948		4062.500000
6949		4062.500000
6950		4062.500000
6951		4062.500000
6952		4062.500000
6953		4062.500000
6954		4062.500000
6955		4140.625000
6956		4140.625000
6957		4140.625000
6958		4140.625000
6959		4140.625000
6960		4140.625000
6961		4140.625000
6962		4140.625000
6963		4140.625000
6964		4140.625000
6965		4218.750000
6966		4218.750000
6967		4218.750000
6968		4218.750000
6969		4218.750000
6970		4218.750000
6971		4218.750000
6972		4218.750000
6973		4296.875000
6974		4296.875000
6975		4296.875000
6976		4296.875000
6977		4296.875000
6978		4296.875000
6979		4296.875000
6980		4296.875000
6981		4296.875000
6982		4296.875000
6983		4375.000000
6984		4375.000000
6985		4375.000000
6986		4375.000000
6987		4375.000000
6988		4375.000000
6989		4375.000000
6990		4375.000000
6991		4453.125000
6992		4453.125000
6993		4453.125000
6994		4453.125000
6995		4453.125000
6996		4453.125000
6997		4453.125000
6998		4453.125000
6999		4453.125000
7000		4531.250000
7001		4531.250000
7002		4531.250000
7003		4531.250000
7004		4531.250000
7005		4531.250000
7006		4531.250000
7007		4531.250000
7008		4531.250000
7009		4609.375000
7010		4609.375000
7011		4609.375000
7012		4609.375000
7013		4609.375000
7014		4609.375000
7015		4609.375000
7016		4609.375000
7017		4609.375000
7018		4687.500000
7019		4687.500000
7020		4687.500000
7021		4687.500000
7022		4687.500000
7023		4687.500000
7024		4687.500000
7025		4687.500000
7026		4687.500000
7027		4687.500000
7028		4687.500000
7029		4765.625000
7030		4765.625000
7031		4765.625000
7032		4765.625000
7033		4765.625000
7034		4765.625000
7035		4765.625000
7036		4765.625000
7037		4765.625000
7038		4765.625000
7039		4843.750000
7040		4843.750000
7041		4843.750000
7042		4843.750000
7043		4843.750000
7044		4843.750000
7045		4843.750000
7046		4843.750000
7047		4843.750000
7048		4843.750000
7049		4921.875000
7050		4921.875000
7051		4921.875000
7052		4921.875000
7053		4921.875000
7054		4921.875000
7055		4921.875000
7056		4921.875000
7057		4921.875000
7058		4921.875000
7059		4921.875000
7060		4921.875000
7061		5000.000000
7062		5000.000000
7063		5000.000000
7064		5000.000000
7065		5000.000000
7066		5000.000000
7067		5000.000000
7068		5000.000000
7069		5000.000000
7070		5000.000000
7071		5000.000000
7072		5000.000000
7073		5078.125000
7074		5078.125000
7075		5078.125000
7076		5078.125000
7077		5078.125000
7078		5078.125000
7079		5078.125000
7080		5078.125000
7081		5078.125000
7082		5078.125000
7083		5078.125000
7084		5078.125000
7085		5156.250000
7086		5156.250000
7087		5156.250000
7088		5156.250000
7089		5156.250000
7090		5156.250000
7091		5156.250000
7092		5156.250000
7093		5156.250000
7094		5156.250000
7095		5156.250000
7096		5156.250000
7097		5156.250000
7098		5234.375000
7099		5156.250000
7100		5234.375000
7101		5234.375000
7102		5234.375000
7103		5234.375000
7104		5234.375000
7105		5234.375000
7106		5234.375000
7107		5234.375000
7108		5234.375000
7109		5234.375000
7110		5234.375000
7111		5234.375000
7112		5234.375000
7113		5234.375000
7114		5234.375000
7115		5234.375000
7116		5234.375000
7117		5312.500000
7118		5312.500000
7119		5312.500000
7120		5312.500000
7121		5312.500000
7122		5312.500000
7123		5312.500000
7124		5312.500000
7125		5312.500000
7126		5312.500000
7127		5312.500000
7128		5312.500000
7129		5312.500000
7130		5312.500000
7131		5312.500000
7132		5312.500000
7133		5312.500000
7134		5312.500000
7135		5312.500000
7136		5312.500000
7137		5312.500000
7138		5312.500000
7139		5312.500000
7140		5312.500000
7141		5390.625000
7142		5390.625000
7143		5390.625000
7144		5390.625000
7145		5390.625000
7146		5390.625000
7147		5390.625000
7148		5390.625000
7149		5390.625000
7150		5390.625000
7151		5390.625000
7152		5390.625000
7153		5390.625000
7154		5390.625000
7155		5390.625000
7156		5390.625000
7157		5390.625000
7158		5390.625000
7159		5390.625000
7160		5390.625000
7161		5390.625000
7162		5390.625000
7163		5390.625000
7164		5390.625000
7165		5390.625000
7166		5390.625000
7167		5390.625000
7168		5390.625000
7169		5390.625000
7170		5390.625000
7171		5390.625000
7172		5390.625000
7173		5390.625000
7174		5390.625000
7175		5390.625000
7176		5390.625000
7177		5390.625000
7178		5390.625000
7179		5390.625000
7180		5390.625000
7181		5390.625000
7182		5390.625000
7183		5390.625000
7184		5390.625000
7185		5390.625000
7186		5390.625000
7187		5390.625000
7188		5390.625000
7189		5390.625000
7190		5390.625000
7191		5390.625000
7192		5390.625000
7193		5390.625000
7194		5390.625000
7195		5390.625000
7196		5390.625000
7197		5390.625000
7198		5390.625000
7199		5390.625000
7200		5390.625000
7201		5390.625000
7202		5390.625000
7203		5390.625000
7204		5390.625000
7205		5390.625000
7206		5390.625000
7207		5390.625000
7208		5390.625000
7209		5390.625000
7210		5390.625000
7211		5390.625000
7212		5390.625000
7213		5390.625000
7214		5390.625000
7215		5390.625000
7216		5390.625000
7217		5312.500000
7218		5312.500000
7219		5312.500000
7220		5312.500000
7221		5312.500000
7222		5312.500000
7223		5312.500000
7224		5312.500000
7225		5312.500000
7226		5312.500000
7227		5312.500000
7228		5312.500000
7229		5312.500000
7230		5312.500000
7231		5312.500000
7232		5312.500000
7233		5312.500000
7234		5312.500000
7235		5312.500000
7236		5312.500000
7237		5312.500000
7238		5312.500000
7239		5312.500000
7240		5312.500000
7241		5312.500000
7242		5234.375000
7243		5312.500000
7244		5234.375000
7245		5234.375000
7246		5234.375000
7247		5234.375000
7248		5234.375000
7249		5234.375000
7250		5234.375000
7251		5234.375000
7252		5234.375000
7253		5234.375000
7254		5234.375000
7255		5234.375000
7256		5234.375000
7257		5234.375000
7258		5234.375000
7259		5234.375000
7260		5234.375000
7261		5156.250000
7262		5156.250000
7263		5156.250000
7264		5156.250000
7265		5156.250000
7266		5156.250000
7267		5156.250000
7268		5156.250000
7269		5156.250000
7270		5156.250000
7271		5156.250000
7272		5156.250000
7273		5156.250000
7274		5156.250000
7275		5156.250000
7276		5156.250000
7277		5078.125000
7278		5078.125000
7279		5078.125000
7280		5078.125000
7281		5078.125000
7282		5078.125000
7283		5078.125000
7284		5078.125000
7285		5078.125000
7286		5078.125000
7287		5078.125000
7288		5078.125000
7289		5078.125000
7290		5078.125000
7291		5000.000000
7292		5000.000000
7293		5000.000000
7294		5000.000000
7295		5000.000000
7296		5000.000000
7297		5000.000000
7298		5000.000000
7299		5000.000000
7300		5000.000000
7301		5000.000000
7302		5000.000000
7303		5000.000000
7304		4921.875000
7305		4921.875000
7306		4921.875000
7307		4921.875000
7308		4921.875000
7309		4921.875000
7310		4921.875000
7311		4921.875000
7312		4921.875000
7313		4921.875000
7314		4921.875000
7315		4921.875000
7316		4843.750000
7317		4843.750000
7318		4843.750000
7319		4843.750000
7320		4843.750000
7321		4843.750000
7322		4843.750000
7323		4843.750000
7324		4843.750000
7325		4843.750000
7326		4765.625000
7327		4765.625000
7328		4765.625000
7329		4765.625000
7330		4765.625000
7331		4765.625000
7332		4765.625000
7333		4765.625000
7334		4765.625000
7335		4765.625000
7336		4765.625000
7337		4765.625000
7338		4687.500000
7339		4687.500000
7340		4687.500000
7341		4687.500000
7342		4687.500000
7343		4687.500000
7344		4687.500000
7345		4687.500000
7346		4687.500000
7347		4687.500000
7348		4609.375000
7349		4609.375000
7350		4609.375000
7351		4609.375000
7352		4609.375000
7353		4609.375000
7354		4609.375000
7355		4609.375000
7356		4609.375000
7357		4609.375000
7358		4609.375000
7359		4609.375000
7360		4531.250000
7361		4531.250000
7362		4531.250000
7363		4531.250000
7364		4531.250000
7365		4531.250000
7366		4531.250000
7367		4531.250000
7368		4531.250000
7369		4453.125000
7370		4453.125000
7371		4453.125000
7372		4453.125000
7373		4453.125000
7374		4453.125000
7375		4453.125000
7376		4453.125000
7377		4453.125000
7378		4453.125000
7379		4453.125000
7380		4375.000000
7381		4375.000000
7382		4375.000000
7383		4375.000000
7384		4375.000000
7385		4375.000000
7386		4375.000000
7387		4375.000000
7388		4375.000000
7389		4375.000000
7390		4296.875000
7391		4296.875000
7392		4296.875000
7393		4296.875000
7394		4296.875000
7395		4296.875000
7396		4296.875000
7397		4296.875000
7398		4296.875000
7399		4296.875000
7400		4218.750000
7401		4218.750000
7402		4218.750000
7403		4218.750000
7404		4218.750000
7405		4218.750000
7406		4218.750000
7407		4218.750000
7408		4218.750000
7409		4218.750000
7410		4218.750000
7411		4218.750000
7412		4140.625000
7413		4140.625000
7414		4140.625000
7415		4140.625000
7416		4140.625000
7417		4140.625000
7418		4140.625000
7419		4140.625000
7420		4062.500000
7421		4062.500000
7422		4062.500000
7423		4062.500000
7424		4062.500000
7425		4062.500000
7426		4062.500000
7427		4062.500000
7428		4062.500000
7429		4062.500000
7430		4062.500000
7431		4062.500000
7432		3984.375000
7433		3984.375000
7434		3984.375000
7435		3984.375000
7436		3984.375000
7437		3984.375000
7438		3984.375000
7439		3984.375000
7440		3984.375000
7441		3984.375000
7442		3984.375000
7443		3906.250000
7444		3906.250000
7445		3906.250000
7446		3906.250000
7447		3906.250000
7448		3906.250000
7449		3906.250000
7450		3906.250000
7451		3906.250000
7452		3906.250000
7453		3906.250000
7454		3828.125000
7455		3828.125000
7456		3828.125000
7457		3828.125000
7458		3828.125000
7459		3828.125000
7460		3828.125000
7461		3828.125000
7462		3828.125000
7463		3828.125000
7464		3828.125000
7465		3828.125000
7466		3750.000000
7467		3750.000000
7468		3750.000000
7469		3750.000000
7470		3750.000000
7471		3750.000000
7472		3750.000000
7473		3750.000000
7474		3750.000000
7475		3750.000000
7476		3671.875000
7477		3671.875000
7478		3671.875000
7479		3671.875000
7480		3671.875000
7481		3671.875000
7482		3671.875000
7483		3671.875000
7484		3671.875000
7485		3671.875000
7486		3671.875000
7487		3671.875000
7488		3671.875000
7489		3671.875000
7490		3593.750000
7491		3593.750000
7492		3593.750000
7493		3593.750000
7494		3593.750000
7495		3593.750000
7496		3593.750000
7497		3593.750000
7498		3593.750000
7499		3593.750000
7500		3593.750000
7501		3593.750000
7502		3593.750000
7503		3515.625000
7504		3515.625000
7505		3515.625000
7506		3515.625000
7507		3515.625000
7508		3515.625000
7509		3515.625000
7510		3515.625000
7511		3515.625000
7512		3515.625000
7513		3515.625000
7514		3515.625000
7515		3515.625000
7516		3437.500000
7517		3437.500000
7518		3437.500000
7519		3437.500000
7520		3437.500000
7521		3437.500000
7522		3437.500000
7523		3437.500000
7524		3437.500000
7525		3437.500000
7526		3437.500000
7527		3437.500000
7528		3437.500000
7529		3359.375000
7530		3359.375000
7531		3359.375000
7532		3359.375000
7533		3359.375000
7534		3359.375000
7535		3359.375000
7536		3359.375000
7537		3359.375000
7538		3359.375000
7539		3359.375000
7540		3359.375000
7541		3359.375000
7542		3359.375000
7543		3281.250000
7544		3281.250000
7545		3281.250000
7546		3281.250000
7547		3281.250000
7548		3281.250000
7549		3281.250000
7550		3281.250000
7551		3281.250000
7552		3281.250000
7553		3281.250000
7554		3281.250000
7555		3281.250000
7556		3281.250000
7557		3281.250000
7558		3281.250000
7559		3203.125000
7560		3203.125000
7561		3203.125000
7562		3203.125000
7563		3203.125000
7564		3203.125000
7565		3203.125000
7566		3203.125000
7567		3203.125000
7568		3203.125000
7569		3203.125000
7570		3203.125000
7571		3203.125000
7572		3203.125000
7573		3203.125000
7574		3203.125000
7575		3203.125000
7576		3203.125000
7577		3125.000000
7578		3125.000000
7579		3125.000000
7580		3125.000000
7581		3125.000000
7582		3125.000000
7583		3125.000000
7584		3125.000000
7585		3125.000000
7586		3125.000000
7587		3125.000000
7588		3125.000000
7589		3125.000000
7590		3125.000000
7591		3125.000000
7592		3125.000000
7593		3125.000000
7594		3125.000000
7595		3125.000000
7596		3125.000000
7597		3046.875000
7598		3046.875000
7599		3046.875000
7600		3046.875000
7601		3046.875000
7602		3046.875000
7603		3046.875000
7604		3046.875000
7605		3046.875000
7606		3046.875000
7607		3046.875000
7608		3046.875000
7609		3046.875000
7610		3046.875000
7611		3046.875000
7612		3046.875000
7613		3046.875000
7614		3046.875000
7615		3046.875000
7616		3046.875000
7617		2968.750000
7618		2968.750000
7619		2968.750000
7620		2968.750000
7621		2968.750000
7622		2968.750000
7623		2968.750000
7624		2968.750000
7625		2968.750000
7626		2968.750000
7627		2968.750000
7628		2968.750000
7629		2968.750000
7630		2968.750000
7631		2968.750000
7632		2968.750000
7633		2968.750000
7634		2968.750000
7635		2968.750000
7636		2968.750000
7637		2968.750000
7638		2968.750000
7639		2890.625000
7640		2890.625000
7641		2890.625000
7642		2890.625000
7643		2890.625000
7644		2890.625000
7645		2890.625000
7646		2890.625000
7647		2890.625000
7648		2890.625000
7649		2890.625000
7650		2890.625000
7651		2890.625000
7652		2890.625000
7653		2890.625000
7654		2890.625000
7655		2890.625000
7656		2890.625000
7657		2890.625000
7658		2890.625000
7659		2890.625000
7660		2890.625000
7661		2890.625000
7662		2890.625000
7663		2890.625000
7664		2890.625000
7665		2890.625000
7666		2890.625000
7667		2890.625000
7668		2890.625000
7669		2890.625000
7670		2812.500000
7671		2812.500000
7672		2812.500000
7673		2812.500000
7674		2812.500000
7675		2812.500000
7676		2812.500000
7677		2812.500000
7678		2812.500000
7679		2812.500000
7680		2812.500000
7681		2812.500000
7682		2812.500000
7683		2812.500000
7684		2812.500000
7685		2812.500000
7686		2812.500000
7687		2812.500000
7688		2812.500000
7689		2812.500000
7690		2812.500000
7691		2812.500000
7692		2812.500000
7693		2812.500000
7694		2812.500000
7695		2812.500000
7696		2812.500000
7697		2812.500000
7698		2812.500000
7699		2812.500000
7700		2812.500000
7701		2812.500000
7702		2812.500000
7703		2812.500000
7704		2734.375000
7705		2734.375000
7706		2734.375000
7707		2734.375000
7708		2734.375000
7709		2734.375000
7710		2734.375000
7711		2734.375000
7712		2734.375000
7713		2734.375000
7714		2734.375000
7715		2734.375000
7716		2734.375000
7717		2734.375000
7718		2734.375000
7719		2734.375000
7720		2734.375000
7721		2734.375000
7722		2734.375000
7723		2734.375000
7724		2734.375000
7725		2734.375000
7726		2734.375000
7727		2734.375000
7728		2734.375000
7729		2734.375000
7730		2734.375000
7731		2734.375000
7732		2734.375000
7733		2734.375000
7734		2734.375000
7735		2734.375000
7736		2734.375000
7737		2734.375000
7738		2734.375000
7739		2734.375000
7740		2734.375000
7741		2734.375000
7742		2734.375000
7743		2734.375000
7744		2656.250000
7745		2734.375000
7746		2734.375000
7747		2734.375000
7748		2734.375000
7749		2734.375000
7750		2734.375000
7751		2734.375000
7752		2734.375000
7753		2734.375000
7754		2734.375000
7755		2734.375000
7756		2734.375000
7757		2734.375000
7758		2656.250000
7759		2656.250000
7760		2734.375000
7761		2656.250000
7762		2656.250000
7763		2656.250000
7764		2656.250000
7765		2656.250000
7766		2656.250000
7767		2656.250000
7768		2656.250000
7769		2656.250000
7770		2656.250000
7771		2656.250000
7772		2656.250000
7773		2656.250000
7774		2656.250000
7775		2656.250000
7776		2656.250000
7777		2656.250000
7778		2656.250000
7779		2656.250000
7780		2656.250000
7781		2656.250000
7782		2656.250000
7783		2656.250000
7784		2656.250000
7785		2656.250000
7786		2656.250000
7787		2656.250000
7788		2656.250000
7789		2656.250000
7790		2656.250000
7791		2656.250000
7792		2656.250000
7793		2656.250000
7794		2656.250000
7795		2656.250000
7796		2656.250000
7797		2656.250000
7798		2656.250000
7799		2656.250000
7800		2656.250000
7801		2656.250000
7802		2656.250000
7803		2656.250000
7804		2656.250000
7805		2656.250000
7806		2656.250000
7807		2656.250000
7808		2656.250000
7809		2656.250000
7810		2656.250000
7811		2656.250000
7812		2656.250000
7813		2656.250000
7814		2656.250000
7815		2656.250000
7816		2656.250000
7817		2656.250000
7818		2656.250000
7819		2656.250000
7820		2656.250000
7821		2656.250000
7822		2656.250000
7823		2656.250000
7824		2656.250000
7825		2656.250000
7826		2656.250000
7827		2656.250000
7828		2656.250000
7829		2656.250000
7830		2656.250000
7831		2656.250000
7832		2656.250000
7833		2656.250000
7834		2656.250000
7835		2656.250000
7836		2656.250000
7837		2656.250000
7838		2656.250000
7839		2656.250000
7840		2656.250000
7841		2656.250000
7842		2656.250000
7843		2656.250000
7844		2656.250000
7845		2656.250000
7846		2656.250000
7847		2656.250000
7848		2656.250000
7849		2656.250000
7850		2656.250000
7851		2656.250000
7852		2656.250000
7853		2656.250000
7854		2656.250000
7855		2656.250000
7856		2656.250000
7857		2656.250000
7858		2656.250000
7859		2656.250000
7860		2656.250000
7861		2656.250000
7862		2656.250000
7863		2656.250000
7864		2656.250000
7865		2656.250000
7866		2656.250000
7867		2656.250000
7868		2656.250000
7869		2656.250000
7870		2656.250000
7871		2656.250000
7872		2656.250000
7873		2656.250000
7874		2656.250000
7875		2656.250000
7876		2656.250000
7877		2656.250000
7878		2656.250000
7879		2656.250000
7880		2656.250000
7881		2656.250000
7882		2656.250000
7883		2656.250000
7884		2656.250000
7885		2656.250000
7886		2656.250000
7887		2656.250000
7888		2656.250000
7889		2656.250000
7890		2656.250000
7891		2656.250000
7892		2656.250000
7893		2734.375000
7894		2734.375000
7895		2656.250000
7896		2734.375000
7897		2734.375000
7898		2734.375000
7899		2734.375000
7900		2734.375000
7901		2734.375000
7902		2734.375000
7903		2734.375000
7904		2734.375000
7905		2734.375000
7906		2734.375000
7907		2734.375000
7908		2734.375000
7909		2734.375000
7910		2734.375000
7911		2734.375000
7912		2734.375000
7913		2734.375000
7914		2734.375000
7915		2734.375000
7916		2734.375000
7917		2734.375000
7918		2734.375000
7919		2734.375000
7920		2734.375000
7921		2734.375000
7922		2734.375000
7923		2734.375000
7924		2734.375000
7925		2734.375000
7926		2734.375000
7927		2734.375000
7928		2734.375000
7929		2734.375000
7930		2734.375000
7931		2734.375000
7932		2734.375000
7933		2734.375000
7934		2734.375000
7935		2734.375000
7936		2734.375000
7937		2812.500000
7938		2734.375000
7939		2734.375000
7940		2734.375000
7941		2734.375000
7942		2734.375000
7943		2734.375000
7944		2734.375000
7945		2734.375000
7946		2812.500000
7947		2812.500000
7948		2812.500000
7949		2812.500000
7950		2812.500000
7951		2812.500000
7952		2812.500000
7953		2812.500000
7954		2812.500000
7955		2812.500000
7956		2812.500000
7957		2812.500000
7958		2812.500000
7959		2812.500000
7960		2812.500000
7961		2812.500000
7962		2812.500000
7963		2812.500000
7964		2812.500000
7965		2812.500000
7966		2812.500000
7967		2812.500000
7968		2812.500000
7969		2812.500000
7970		2812.500000
7971		2812.500000
7972		2812.500000
7973		2890.625000
7974		2812.500000
7975		2812.500000
7976		2890.625000
7977		2812.500000
7978		2890.625000
7979		2890.625000
7980		2890.625000
7981		2890.625000
7982		2890.625000
7983		2890.625000
7984		2890.625000
7985		2890.625000
7986		2890.625000
7987		2890.625000
7988		2890.625000
7989		2890.625000
7990		2890.625000
7991		2890.625000
7992		2890.625000
7993		2890.625000
7994		2890.625000
7995		2890.625000
7996		2890.625000
7997		2890.625000
7998		2890.625000
7999		2890.625000
8000		2890.625000
8001		2890.625000
8002		2890.625000
8003		2968.750000
8004		2968.750000
8005		2968.750000
8006		2968.750000
8007		2968.750000
8008		2968.750000
8009		2968.750000
8010		2968.750000
8011		2968.750000
8012		2968.750000
8013		2968.750000
8014		2968.750000
8015		2968.750000
8016		2968.750000
8017		2968.750000
8018		2968.750000
8019		2968.750000
8020		2968.750000
8021		2968.750000
8022		2968.750000
8023		3046.875000
8024		3046.875000
8025		3046.875000
8026		3046.875000
8027		3046.875000
8028		3046.875000
8029		3046.875000
8030		3046.875000
8031		3046.875000
8032		3046.875000
8033		3046.875000
8034		3046.875000
8035		3046.875000
8036		3046.875000
8037		3046.875000
8038		3046.875000
8039		3046.875000
8040		3046.875000
8041		3125.000000
8042		3046.875000
8043		3125.000000
8044		3125.000000
8045		3125.000000
8046		3125.000000
8047		3125.000000
8048		3125.000000
8049		3125.000000
8050		3125.000000
8051		3125.000000
8052		3125.000000
8053		3125.000000
8054		3125.000000
8055		3125.000000
8056		3125.000000
8057		3125.000000
8058		3125.000000
8059		3203.125000
8060		3203.125000
8061		3203.125000
8062		3203.125000
8063		3203.125000
8064		3203.125000
8065		3203.125000
8066		3203.125000
8067		3203.125000
8068		3203.125000
8069		3203.125000
8070		3203.125000
8071		3203.125000
8072		3203.125000
8073		3203.125000
8074		3281.250000
8075		3281.250000
8076		3281.250000
8077		3281.250000
8078		3281.250000
8079		3281.250000
8080		3281.250000
8081		3281.250000
8082		3281.250000
8083		3281.250000
8084		3281.250000
8085		3281.250000
8086		3281.250000
8087		3281.250000
8088		3281.250000
8089		3359.375000
8090		3359.375000
8091		3359.375000
8092		3359.375000
8093		3359.375000
8094		3359.375000
8095		3359.375000
8096		3359.375000
8097		3359.375000
8098		3359.375000
8099		3359.375000
8100		3359.375000
8101		3359.375000
8102		3437.500000
8103		3437.500000
8104		3437.500000
8105		3437.500000
8106		3437.500000
8107		3437.500000
8108		3437.500000
8109		3437.500000
8110		3437.500000
8111		3437.500000
8112		3437.500000
8113		3515.625000
8114		3515.625000
8115		3515.625000
8116		3515.625000
8117		3515.625000
8118		3515.625000
8119		3515.625000
8120		3515.625000
8121		3515.625000
8122		3515.625000
8123		3515.625000
8124		3515.625000
8125		3515.625000
8126		3593.750000
8127		3593.750000
8128		3593.750000
8129		3593.750000
8130		3593.750000
8131		3593.750000
8132		3593.750000
8133		3593.750000
8134		3593.750000
8135		3593.750000
8136		3671.875000
8137		3671.875000
8138		3671.875000
8139		3671.875000
8140		3671.875000
8141		3671.875000
8142		3671.875000
8143		3671.875000
8144		3671.875000
8145		3671.875000
8146		3671.875000
8147		3750.000000
8148		3750.000000
8149		3750.000000
8150		3750.000000
8151		3750.000000
8152		3750.000000
8153		3750.000000
8154		3750.000000
8155		3750.000000
8156		3750.000000
8157		3828.125000
8158		3828.125000
8159		3828.125000
8160		3828.125000
8161		3828.125000
8162		3828.125000
8163		3828.125000
8164		3828.125000
8165		3828.125000
8166		3828.125000
8167		3906.250000
8168		3906.250000
8169		3906.250000
8170		3906.250000
8171		3906.250000
8172		3906.250000
8173		3906.250000
8174		3906.250000
8175		3906.250000
8176		3984.375000
8177		3984.375000
8178		3984.375000
8179		3984.375000
8180		3984.375000
8181		3984.375000
8182		3984.375000
8183		3984.375000
8184		3984.375000
8185		3984.375000
8186		3984.375000
8187		4062.500000
8188		4062.500000
8189		4062.500000
8190		4062.500000
8191		4062.500000
8192		4062.500000
8193		4062.500000
8194		4062.500000
8195		4140.625000
8196		4140.625000
8197		4140.625000
8198		4140.625000
8199		4140.625000
8200		4140.625000
8201		4140.625000
8202		4140.625000
8203		4140.625000
8204		4140.625000
8205		4218.750000
8206		4218.750000
8207		4218.750000
8208		4218.750000
8209		4218.750000
8210		4218.750000
8211		4218.750000
8212		4218.750000
8213		4296.875000
8214		4296.875000
8215		4296.875000
8216		4296.875000
8217		4296.875000
8218		4296.875000
8219		4296.875000
8220		4296.875000
8221		4296.875000
8222		4296.875000
8223		4296.875000
8224		4375.000000
8225		4375.000000
8226		4375.000000
8227		4375.000000
8228		4375.000000
8229		4375.000000
8230		4375.000000
8231		4375.000000
8232		4375.000000
8233		4375.000000
8234		4453.125000
8235		4453.125000
8236		4453.125000
8237		4453.125000
8238		4453.125000
8239		4453.125000
8240		4453.125000
8241		4453.125000
8242		4453.125000
8243		4531.250000
8244		4531.250000
8245		4531.250000
8246		4531.250000
8247		4531.250000
8248		4531.250000
8249		4531.250000
8250		4531.250000
8251		4531.250000
8252		4609.375000
8253		4609.375000
8254		4609.375000
8255		4609.375000
8256		4609.375000
8257		4609.375000
8258		4609.375000
8259		4609.375000
8260		4609.375000
8261		4609.375000
8262		4687.500000
8263		4687.500000
8264		4687.500000
8265		4687.500000
8266		4687.500000
8267		4687.500000
8268		4687.500000
8269		4687.500000
8270		4687.500000
8271		4687.500000
8272		4687.500000
8273		4765.625000
8274		4765.625000
8275		4765.625000
8276		4765.625000
8277		4765.625000
8278		4765.625000
8279		4765.625000
8280		4765.625000
8281		4765.625000
8282		4765.625000
8283		4765.625000
8284		4843.750000
8285		4843.750000
8286		4843.750000
8287		4843.750000
8288		4843.750000
8289		4843.750000
8290		4843.750000
8291		4843.750000
8292		4843.750000
8293		4843.750000
8294		4843.750000
8295		4921.875000
8296		4921.875000
8297		4921.875000
8298		4921.875000
8299		4921.875000
8300		4921.875000
8301		4921.875000
8302		4921.875000
8303		4921.875000
8304		4921.875000
8305		4921.875000
8306		4921.875000
8307		4921.875000
8308		5000.000000
8309		5000.000000
8310		5000.000000
8311		5000.000000
8312		5000.000000
8313		5000.000000
8314		5000.000000
8315		5000.000000
8316		5000.000000
8317		5000.000000
8318		5000.000000
8319		5000.000000
8320		5000.000000
8321		5000.000000
8322		5078.125000
8323		5000.000000
8324		5078.125000
8325		5078.125000
8326		5078.125000
8327		5078.125000
8328		5078.125000
8329		5078.125000
8330		5078.125000
8331		5078.125000
8332		5078.125000
8333		5078.125000
8334		5078.125000
8335		5078.125000
8336		5156.250000
8337		5156.250000
8338		5156.250000
8339		5156.250000
8340		5156.250000
8341		5156.250000
8342		5156.250000
8343		5156.250000
8344		5156.250000
8345		5156.250000
8346		5156.250000
8347		5156.250000
8348		5156.250000
8349		5156.250000
8350		5156.250000
8351		5156.250000
8352		5156.250000
8353		5156.250000
8354		5156.250000
8355		5234.375000
8356		5156.250000
8357		5156.250000
8358		5234.375000
8359		5234.375000
8360		5234.375000
8361		5234.375000
8362		5234.375000
8363		5234.375000
8364		5234.375000
8365		5234.375000
8366		5234.375000
8367		5234.375000
8368		5234.375000
8369		5234.375000
8370		5234.375000
8371		5234.375000
8372		5234.375000
8373		5234.375000
8374		5234.375000
8375		5234.375000
8376		5234.375000
8377		5234.375000
8378		5234.375000
8379		5234.375000
8380		5234.375000
8381		5234.375000
8382		5234.375000
8383		5234.375000
8384		5234.375000
8385		5234.375000
8386		5234.375000
8387		5234.375000
8388		5234.375000
8389		5312.500000
8390		5312.500000
8391		5312.500000
8392		5312.500000
8393		5312.500000
8394		5312.500000
8395		5312.500000
8396		5312.500000
8397		5312.500000
8398		5312.500000
8399		5312.500000
8400		5312.500000
8401		5312.500000
8402		5312.500000
8403		5312.500000
8404		5312.500000
8405		5312.500000
8406		5312.500000
8407		5312.500000
8408		5312.500000
8409		5312.500000
8410		5312.500000
8411		5312.500000
8412		5312.500000
8413		5312.500000
8414		5312.500000
8415		5312.500000
8416		5312.500000
8417		5312.500000
8418		5312.500000
8419		5312.500000
8420		5312.500000
8421		5312.500000
8422		5312.500000
8423		5312.500000
8424		5312.500000
8425		5312.500000
8426		5312.500000
8427		5312.500000
8428		5312.500000
8429		5234.375000
8430		5312.500000
8431		5234.375000
8432		5234.375000
8433		5234.375000
8434		5234.375000
8435		5234.375000
8436		5234.375000
8437		5234.375000
8438		5234.375000
8439		5234.375000
8440		5234.375000
8441		5234.375000
8442		5234.375000
8443		5234.375000
8444		5234.375000
8445		5234.375000
8446		5234.375000
8447		5234.375000
8448		5234.375000
8449		5234.375000
8450		5234.375000
8451		5234.375000
8452		5234.375000
8453		5234.375000
8454		5234.375000
8455		5234.375000
8456		5234.375000
8457		5234.375000
8458		5234.375000
8459		5234.375000
8460		5234.375000
8461		5234.375000
8462		5234.375000
8463		5234.375000
8464		5156.250000
8465		5156.250000
8466		5156.250000
8467		5156.250000
8468		5156.250000
8469		5156.250000
8470		5156.250000
8471		5156.250000
8472		5156.250000
8473		5156.250000
8474		5156.250000
8475		5156.250000
8476		5156.250000
8477		5156.250000
8478		5156.250000
8479		5156.250000
8480		5156.250000
8481		5156.250000
8482		5156.250000
8483		5078.125000
8484		5078.125000
8485		5078.125000
8486		5078.125000
8487		5078.125000
8488		5078.125000
8489		5078.125000
8490		5078.125000
8491		5078.125000
8492		5078.125000
8493		5078.125000
8494		5078.125000
8495		5078.125000
8496		5078.125000
8497		5078.125000
8498		5078.125000
8499		5078.125000
8500		5000.000000
8501		5000.000000
8502		5000.000000
8503		5000.000000
8504		5000.000000
8505		5000.000000
8506		5000.000000
8507		5000.000000
8508		5000.000000
8509		5000.000000
8510		5000.000000
8511		5000.000000
8512		5000.000000
8513		5000.000000
8514		5000.000000
8515		5000.000000
8516		4921.875000
8517		4921.875000
8518		4921.875000
8519		4921.875000
8520		4921.875000
8521		4921.875000
8522		4921.875000
8523		4921.875000
8524		4921.875000
8525		4921.875000
8526		4921.875000
8527		4921.875000
8528		4921.875000
8529		4843.750000
8530		4843.750000
8531		4843.750000
8532		4843.750000
8533		4843.750000
8534		4843.750000
8535		4843.750000
8536		4843.750000
8537		4843.750000
8538		4843.750000
8539		4843.750000
8540		4765.625000
8541		4765.625000
8542		4765.625000
8543		4765.625000
8544		4765.625000
8545		4765.625000
8546		4765.625000
8547		4765.625000
8548		4765.625000
8549		4765.625000
8550		4765.625000
8551		4765.625000
8552		4765.625000
8553		4687.500000
8554		4687.500000
8555		4687.500000
8556		4687.500000
8557		4687.500000
8558		4687.500000
8559		4687.500000
8560		4687.500000
8561		4687.500000
8562		4687.500000
8563		4609.375000
8564		4609.375000
8565		4609.375000
8566		4609.375000
8567		4609.375000
8568		4609.375000
8569		4609.375000
8570		4609.375000
8571		4609.375000
8572		4609.375000
8573		4609.375000
8574		4531.250000
8575		4531.250000
8576		4531.250000
8577		4531.250000
8578		4531.250000
8579		4531.250000
8580		4531.250000
8581		4531.250000
8582		4531.250000
8583		4531.250000
8584		4531.250000
8585		4453.125000
8586		4453.125000
8587		4453.125000
8588		4453.125000
8589		4453.125000
8590		4453.125000
8591		4453.125000
8592		4453.125000
8593		4453.125000
8594		4453.125000
8595		4375.000000
8596		4375.000000
8597		4375.000000
8598		4375.000000
8599		4375.000000
8600		4375.000000
8601		4375.000000
8602		4375.000000
8603		4375.000000
8604		4375.000000
8605		4296.875000
8606		4296.875000
8607		4296.875000
8608		4296.875000
8609		4296.875000
8610		4296.875000
8611		4296.875000
8612		4296.875000
8613		4296.875000
8614		4296.875000
8615		4296.875000
8616		4218.750000
8617		4218.750000
8618		4218.750000
8619		4218.750000
8620		4218.750000
8621		4218.750000
8622		4218.750000
8623		4218.750000
8624		4218.750000
8625		4218.750000
8626		4218.750000
8627		4140.625000
8628		4140.625000
8629		4140.625000
8630		4140.625000
8631		4140.625000
8632		4140.625000
8633		4140.625000
8634		4140.625000
8635		4140.625000
8636		4140.625000
8637		4062.500000
8638		4062.500000
8639		4062.500000
8640		4062.500000
8641		4062.500000
8642		4062.500000
8643		4062.500000
8644		4062.500000
8645		4062.500000
8646		3984.375000
8647		3984.375000
8648		3984.375000
8649		3984.375000
8650		3984.375000
8651		3984.375000
8652		3984.375000
8653		3984.375000
8654		3984.375000
8655		3984.375000
8656		3984.375000
8657		3906.250000
8658		3906.250000
8659		3906.250000
8660		3906.250000
8661		3906.250000
8662		3906.250000
8663		3906.250000
8664		3906.250000
8665		3906.250000
8666		3906.250000
8667		3828.125000
8668		3828.125000
8669		3828.125000
8670		3828.125000
8671		3828.125000
8672		3828.125000
8673		3828.125000
8674		3828.125000
8675		3828.125000
8676		3828.125000
8677		3828.125000
8678		3828.125000
8679		3750.000000
8680		3750.000000
8681		3750.000000
8682		3750.000000
8683		3750.000000
8684		3750.000000
8685		3750.000000
8686		3750.000000
8687		3750.000000
8688		3671.875000
8689		3671.875000
8690		3671.875000
8691		3671.875000
8692		3671.875000
8693		3671.875000
8694		3671.875000
8695		3671.875000
8696		3671.875000
8697		3671.875000
8698		3671.875000
8699		3671.875000
8700		3593.750000
8701		3671.875000
8702		3593.750000
8703		3593.750000
8704		3593.750000
8705		3593.750000
8706		3593.750000
8707		3593.750000
8708		3593.750000
8709		3593.750000
8710		3593.750000
8711		3593.750000
8712		3515.625000
8713		3515.625000
8714		3515.625000
8715		3515.625000
8716		3515.625000
8717		3515.625000
8718		3515.625000
8719		3515.625000
8720		3515.625000
8721		3515.625000
8722		3437.500000
8723		3437.500000
8724		3437.500000
8725		3437.500000
8726		3437.500000
8727		3437.500000
8728		3437.500000
8729		3437.500000
8730		3437.500000
8731		3437.500000
8732		3437.500000
8733		3437.500000
8734		3437.500000
8735		3437.500000
8736		3437.500000
8737		3359.375000
8738		3359.375000
8739		3359.375000
8740		3359.375000
8741		3359.375000
8742		3359.375000
8743		3359.375000
8744		3359.375000
8745		3359.375000
8746		3359.375000
8747		3359.375000
8748		3359.375000
8749		3281.250000
8750		3281.250000
8751		3281.250000
8752		3281.250000
8753		3359.375000
8754		3281.250000
8755		3281.250000
8756		3281.250000
8757		3281.250000
8758		3281.250000
8759		3281.250000
8760		3281.250000
8761		3203.125000
8762		3203.125000
8763		3203.125000
8764		3203.125000
8765		3203.125000
8766		3203.125000
8767		3203.125000
8768		3203.125000
8769		3203.125000
8770		3203.125000
8771		3203.125000
8772		3203.125000
8773		3203.125000
8774		3203.125000
8775		3203.125000
8776		3203.125000
8777		3125.000000
8778		3125.000000
8779		3125.000000
8780		3125.000000
8781		3125.000000
8782		3125.000000
8783		3125.000000
8784		3125.000000
8785		3125.000000
8786		3125.000000
8787		3125.000000
8788		3125.000000
8789		3125.000000
8790		3125.000000
8791		3125.000000
8792		3125.000000
8793		3125.000000
8794		3046.875000
8795		3046.875000
8796		3046.875000
8797		3046.875000
8798		3046.875000
8799		3046.875000
8800		3046.875000
8801		3046.875000
8802		3046.875000
8803		3046.875000
8804		3046.875000
8805		3046.875000
8806		3046.875000
8807		3046.875000
8808		3046.875000
8809		2968.750000
8810		2968.750000
8811		2968.750000
8812		2968.750000
8813		2968.750000
8814		2968.750000
8815		2968.750000
8816		2968.750000
8817		2968.750000
8818		2968.750000
8819		2968.750000
8820		2968.750000
8821		2968.750000
8822		2968.750000
8823		2968.750000
8824		2968.750000
8825		2968.750000
8826		2890.625000
8827		2890.625000
8828		2890.625000
8829		2890.625000
8830		2890.625000
8831		2890.625000
8832		2890.625000
8833		2890.625000
8834		2890.625000
8835		2890.625000
8836		2890.625000
8837		2890.625000
8838		2890.625000
8839		2890.625000
8840		2890.625000
8841		2890.625000
8842		2890.625000
8843		2890.625000
8844		2890.625000
8845		2812.500000
8846		2812.500000
8847		2812.500000
8848		2812.500000
8849		2812.500000
8850		2812.500000
8851		2812.500000
8852		2812.500000
8853		2812.500000
8854		2812.500000
8855		2812.500000
8856		2812.500000
8857		2812.500000
8858		2812.500000
8859		2812.500000
8860		2812.500000
8861		2812.500000
8862		2812.500000
8863		2812.500000
8864		2812.500000
8865		2812.500000
8866		2812.500000
8867		2734.375000
8868		2734.375000
8869		2734.375000
8870		2734.375000
8871		2734.375000
8872		2734.375000
8873		2734.375000
8874		2734.375000
8875		2734.375000
8876		2734.375000
8877		2734.375000
8878		2734.375000
8879		2734.375000
8880		2734.375000
8881		2734.375000
8882		2734.375000
8883		2734.375000
8884		2734.375000
8885		2734.375000
8886		2734.375000
8887		2734.375000
8888		2734.375000
8889		2734.375000
8890		2734.375000
8891		2734.375000
8892		2734.375000
8893		2734.375000
8894		2734.375000
8895		2734.375000
8896		2734.375000
8897		2656.250000
8898		2656.250000
8899		2656.250000
8900		2656.250000
8901		2656.250000
8902		2656.250000
8903		2656.250000
8904		2656.250000
8905		2656.250000
8906		2656.250000
8907		2656.250000
8908		2656.250000
8909		2656.250000
8910		2656.250000
8911		2656.250000
8912		2656.250000
8913		2656.250000
8914		2656.250000
8915		2656.250000
8916		2656.250000
8917		2656.250000
8918		2656.250000
8919		2656.250000
8920		2656.250000
8921		2656.250000
8922		2578.125000
8923		2578.125000
8924		2578.125000
8925		2578.125000
8926		2578.125000
8927		2578.125000
8928		2578.125000
8929		2578.125000
8930		2578.125000
8931		2578.125000
8932		2578.125000
8933		2578.125000
8934		2578.125000
8935		2578.125000
8936		2578.125000
8937		2578.125000
8938		2578.125000
8939		2578.125000
8940		2578.125000
8941		2578.125000
8942		2578.125000
8943		2578.125000
8944		2578.125000
8945		2578.125000
8946		2578.125000
8947		2578.125000
8948		2578.125000
8949		2578.125000
8950		2578.125000
8951		2578.125000
8952		2578.125000
8953		2578.125000
8954		2578.125000
8955		2578.125000
8956		2578.125000
8957		2578.125000
8958		2578.125000
8959		2578.125000
8960		2500.000000
8961		2578.125000
8962		2500.000000
8963		2578.125000
8964		2500.000000
8965		2500.000000
8966		2500.000000
8967		2500.000000
8968		2500.000000
8969		2500.000000
8970		2500.000000
8971		2578.125000
8972		2500.000000
8973		2500.000000
8974		2500.000000
8975		2500.000000
8976		2500.000000
8977		2500.000000
8978		2500.000000
8979		2500.000000
8980		2500.000000
8981		2500.000000
8982		2500.000000
8983		2500.000000
8984		2500.000000
8985		2500.000000
8986		2500.000000
8987		2500.000000
8988		2500.000000
8989		2500.000000
8990		2500.000000
8991		2500.000000
8992		2500.000000
8993		2500.000000
8994		2500.000000
8995		2500.000000
8996		2500.000000
8997		2500.000000
8998		2500.000000
8999		2500.000000
9000		2500.000000
9001		2500.000000
9002		2500.000000
9003		2500.000000
9004		2500.000000
9005		2500.000000
9006		2500.000000
9007		2500.000000
9008		2500.000000
9009		2500.000000
9010		2500.000000
9011		2421.875000
9012		2500.000000
9013		2500.000000
9014		2500.000000
9015		2500.000000
9016		2500.000000
9017		2500.000000
9018		2500.000000
9019		2500.000000
9020		2500.000000
9021		2500.000000
9022		2500.000000
9023		2500.000000
9024		2500.000000
9025		2500.000000
9026		2500.000000
9027		2500.000000
9028		2500.000000
9029		2500.000000
9030		2500.000000
9031		2500.000000
9032		2500.000000
9033		2500.000000
9034		2500.000000
9035		2500.000000
9036		2500.000000
9037		2500.000000
9038		2500.000000
9039		2500.000000
9040		2500.000000
9041		2500.000000
9042		2500.000000
9043		2500.000000
9044		2421.875000
9045		2421.875000
9046		2500.000000
9047		2500.000000
9048		2421.875000
9049		2500.000000
9050		2421.875000
9051		2500.000000
9052		2421.875000
9053		2500.000000
9054		2500.000000
9055		2500.000000
9056		2421.875000
9057		2500.000000
9058		2421.875000
9059		2421.875000
9060		2500.000000
9061		2421.875000
9062		2421.875000
9063		2421.875000
9064		2500.000000
9065		2421.875000
9066		2421.875000
9067		2421.875000
9068		2421.875000
9069		2421.875000
9070		2421.875000
9071		2421.875000
9072		2500.000000
9073		2500.000000
9074		2500.000000
9075		2421.875000
9076		2500.000000
9077		2421.875000
9078		2421.875000
9079		2421.875000
9080		2421.875000
9081		2421.875000
9082		2421.875000
9083		2421.875000
9084		2421.875000
9085		2421.875000
9086		2421.875000
9087		2421.875000
9088		2421.875000
9089		2421.875000
9090		2421.875000
9091		2500.000000
9092		2421.875000
9093		2500.000000
9094		2500.000000
9095		2500.000000
9096		2421.875000
9097		2421.875000
9098		2421.875000
9099		2421.875000
9100		2421.875000
9101		2421.875000
9102		2421.875000
9103		2421.875000
9104		2421.875000
9105		2421.875000
9106		2421.875000
9107		2421.875000
9108		2500.000000
9109		2500.000000
9110		2421.875000
9111		2500.000000
9112		2500.000000
9113		2421.875000
9114		2500.000000
9115		2500.000000
9116		2500.000000
9117		2500.000000
9118		2500.000000
9119		2421.875000
9120		2421.875000
9121		2500.000000
9122		2421.875000
9123		2500.000000
9124		2500.000000
9125		2500.000000
9126		2500.000000
9127		2500.000000
9128		2500.000000
9129		2500.000000
9130		2500.000000
9131		2500.000000
9132		2500.000000
9133		2500.000000
9134		2500.000000
9135		2500.000000
9136		2500.000000
9137		2500.000000
9138		2500.000000
9139		2500.000000
9140		2500.000000
9141		2500.000000
9142		2500.000000
9143		2500.000000
9144		2500.000000
9145		2500.000000
9146		2500.000000
9147		2500.000000
9148		2500.000000
9149		2500.000000
9150		2500.000000
9151		2500.000000
9152		2500.000000
9153		2500.000000
9154		2500.000000
9155		2500.000000
9156		2500.000000
9157		2500.000000
9158		2500.000000
9159		2500.000000
9160		2500.000000
9161		2500.000000
9162		2500.000000
9163		2500.000000
9164		2500.000000
9165		2500.000000
9166		2500.000000
9167		2500.000000
9168		2500.000000
9169		2500.000000
9170		2500.000000
9171		2500.000000
9172		2500.000000
9173		2500.000000
9174		2500.000000
9175		2500.000000
9176		2500.000000
9177		2500.000000
9178		2500.000000
9179		2500.000000
9180		2578.125000
9181		2578.125000
9182		2578.125000
9183		2578.125000
9184		2578.125000
9185		2578.125000
9186		2578.125000
9187		2578.125000
9188		2578.125000
9189		2578.125000
9190		2578.125000
9191		2578.125000
9192		2578.125000
9193		2578.125000
9194		2578.125000
9195		2578.125000
9196		2578.125000
9197		2578.125000
9198		2578.125000
9199		2578.125000
9200		2578.125000
9201		2578.125000
9202		2578.125000
9203		2578.125000
9204		2578.125000
9205		2578.125000
9206		2578.125000
9207		2578.125000
9208		2578.125000
9209		2578.125000
9210		2578.125000
9211		2578.125000
9212		2578.125000
9213		2578.125000
9214		2578.125000
9215		2656.250000
9216		2656.250000
9217		2656.250000
9218		2656.250000
9219		2656.250000
9220		2656.250000
9221		2656.250000
9222		2656.250000
9223		2656.250000
9224		2656.250000
9225		2656.250000
9226		2656.250000
9227		2656.250000
9228		2656.250000
9229		2656.250000
9230		2656.250000
9231		2656.250000
9232		2656.250000
9233		2656.250000
9234		2656.250000
9235		2656.250000
9236		2656.250000
9237		2656.250000
9238		2656.250000
9239		2656.250000
9240		2734.375000
9241		2734.375000
9242		2734.375000
9243		2734.375000
9244		2734.375000
9245		2734.375000
9246		2734.375000
9247		2734.375000
9248		2734.375000
9249		2734.375000
9250		2734.375000
9251		2734.375000
9252		2734.375000
9253		2734.375000
9254		2734.375000
9255		2734.375000
9256		2734.375000
9257		2734.375000
9258		2734.375000
9259		2734.375000
9260		2734.375000
9261		2734.375000
9262		2734.375000
9263		2734.375000
9264		2812.500000
9265		2734.375000
9266		2812.500000
9267		2812.500000
9268		2812.500000
9269		2812.500000
9270		2812.500000
9271		2812.500000
9272		2812.500000
9273		2812.500000
9274		2812.500000
9275		2812.500000
9276		2812.500000
9277		2812.500000
9278		2812.500000
9279		2812.500000
9280		2812.500000
9281		2812.500000
9282		2812.500000
9283		2890.625000
9284		2890.625000
9285		2890.625000
9286		2890.625000
9287		2890.625000
9288		2890.625000
9289		2890.625000
9290		2890.625000
9291		2890.625000
9292		2890.625000
9293		2890.625000
9294		2890.625000
9295		2890.625000
9296		2890.625000
9297		2890.625000
9298		2890.625000
9299		2890.625000
9300		2890.625000
9301		2890.625000
9302		2968.750000
9303		2968.750000
9304		2968.750000
9305		2968.750000
9306		2968.750000
9307		2968.750000
9308		2968.750000
9309		2968.750000
9310		2968.750000
9311		2968.750000
9312		2968.750000
9313		3046.875000
9314		3046.875000
9315		2968.750000
9316		3046.875000
9317		3046.875000
9318		3046.875000
9319		3046.875000
9320		3046.875000
9321		3046.875000
9322		3046.875000
9323		3046.875000
9324		3046.875000
9325		3046.875000
9326		3046.875000
9327		3125.000000
9328		3125.000000
9329		3125.000000
9330		3125.000000
9331		3125.000000
9332		3125.000000
9333		3125.000000
9334		3125.000000
9335		3125.000000
9336		3125.000000
9337		3125.000000
9338		3125.000000
9339		3125.000000
9340		3125.000000
9341		3125.000000
9342		3203.125000
9343		3203.125000
9344		3203.125000
9345		3203.125000
9346		3203.125000
9347		3203.125000
9348		3203.125000
9349		3203.125000
9350		3203.125000
9351		3203.125000
9352		3203.125000
9353		3281.250000
9354		3281.250000
9355		3281.250000
9356		3281.250000
9357		3281.250000
9358		3281.250000
9359		3281.250000
9360		3281.250000
9361		3281.250000
9362		3281.250000
9363		3281.250000
9364		3359.375000
9365		3359.375000
9366		3359.375000
9367		3359.375000
9368		3359.375000
9369		3359.375000
9370		3359.375000
9371		3359.375000
9372		3359.375000
9373		3359.375000
9374		3359.375000
9375		3359.375000
9376		3437.500000
9377		3437.500000
9378		3437.500000
9379		3437.500000
9380		3437.500000
9381		3437.500000
9382		3437.500000
9383		3437.500000
9384		3437.500000
9385		3437.500000
9386		3515.625000
9387		3515.625000
9388		3515.625000
9389		3515.625000
9390		3515.625000
9391		3515.625000
9392		3515.625000
9393		3515.625000
9394		3515.625000
9395		3593.750000
9396		3593.750000
9397		3593.750000
9398		3593.750000
9399		3593.750000
9400		3593.750000
9401		3593.750000
9402		3593.750000
9403		3593.750000
9404		3593.750000
9405		3593.750000
9406		3671.875000
9407		3671.875000
9408		3671.875000
9409		3671.875000
9410		3671.875000
9411		3671.875000
9412		3671.875000
9413		3671.875000
9414		3671.875000
9415		3671.875000
9416		3750.000000
9417		3750.000000
9418		3750.000000
9419		3750.000000
9420		3750.000000
9421		3750.000000
9422		3750.000000
9423		3750.000000
9424		3750.000000
9425		3828.125000
9426		3828.125000
9427		3828.125000
9428		3828.125000
9429		3828.125000
9430		3828.125000
9431		3828.125000
9432		3828.125000
9433		3828.125000
9434		3906.250000
9435		3906.250000
9436		3906.250000
9437		3906.250000
9438		3906.250000
9439		3906.250000
9440		3906.250000
9441		3906.250000
9442		3906.250000
9443		3906.250000
9444		3984.375000
9445		3984.375000
9446		3984.375000
9447		3984.375000
9448		3984.375000
9449		3984.375000
9450		3984.375000
9451		3984.375000
9452		4062.500000
9453		4062.500000
9454		4062.500000
9455		4062.500000
9456		4062.500000
9457		4062.500000
9458		4062.500000
9459		4062.500000
9460		4062.500000
9461		4062.500000
9462		4062.500000
9463		4140.625000
9464		4140.625000
9465		4140.625000
9466		4140.625000
9467		4140.625000
9468		4140.625000
9469		4140.625000
9470		4140.625000
9471		4218.750000
9472		4218.750000
9473		4218.750000
9474		4218.750000
9475		4218.750000
9476		4218.750000
9477		4218.750000
9478		4218.750000
9479		4218.750000
9480		4218.750000
9481		4218.750000
9482		4296.875000
9483		4296.875000
9484		4296.875000
9485		4296.875000
9486		4296.875000
9487		4296.875000
9488		4296.875000
9489		4296.875000
9490		4375.000000
9491		4375.000000
9492		4375.000000
9493		4375.000000
9494		4375.000000
9495		4375.000000
9496		4375.000000
9497		4375.000000
9498		4375.000000
9499		4375.000000
9500		4375.000000
9501		4375.000000
9502		4453.125000
9503		4453.125000
9504		4453.125000
9505		4453.125000
9506		4453.125000
9507		4453.125000
9508		4453.125000
9509		4453.125000
9510		4453.125000
9511		4531.250000
9512		4531.250000
9513		4531.250000
9514		4531.250000
9515		4531.250000
9516		4531.250000
9517		4531.250000
9518		4531.250000
9519		4531.250000
9520		4531.250000
9521		4531.250000
9522		4609.375000
9523		4609.375000
9524		4609.375000
9525		4609.375000
9526		4609.375000
9527		4609.375000
9528		4609.375000
9529		4609.375000
9530		4609.375000
9531		4609.375000
9532		4687.500000
9533		4687.500000
9534		4687.500000
9535		4687.500000
9536		4687.500000
9537		4687.500000
9538		4687.500000
9539		4687.500000
9540		4687.500000
9541		4687.500000
9542		4687.500000
9543		4687.500000
9544		4687.500000
9545		4687.500000
9546		4765.625000
9547		4765.625000
9548		4765.625000
9549		4765.625000
9550		4765.625000
9551		4765.625000
9552		4765.625000
9553		4765.625000
9554		4765.625000
9555		4765.625000
9556		4765.625000
9557		4765.625000
9558		4765.625000
9559		4843.750000
9560		4843.750000
9561		4843.750000
9562		4843.750000
9563		4843.750000
9564		4843.750000
9565		4843.750000
9566		4843.750000
9567		4843.750000
9568		4843.750000
9569		4843.750000
9570		4843.750000
9571		4843.750000
9572		4843.750000
9573		4843.750000
9574		4921.875000
9575		4921.875000
9576		4921.875000
9577		4921.875000
9578		4921.875000
9579		4921.875000
9580		4921.875000
9581		4921.875000
9582		4921.875000
9583		4921.875000
9584		4921.875000
9585		4921.875000
9586		4921.875000
9587		4921.875000
9588		4921.875000
9589		4921.875000
9590		4921.875000
9591		4921.875000
9592		5000.000000
9593		4921.875000
9594		5000.000000
9595		5000.000000
9596		5000.000000
9597		5000.000000
9598		5000.000000
9599		5000.000000
9600		5000.000000
9601		5000.000000
9602		5000.000000
9603		5000.000000
9604		5000.000000
9605		5000.000000
9606		5000.000000
9607		5000.000000
9608		5000.000000
9609		5078.125000
9610		5000.000000
9611		5000.000000
9612		5000.000000
9613		5000.000000
9614		5000.000000
9615		5000.000000
9616		5078.125000
9617		5078.125000
9618		5078.125000
9619		5078.125000
9620		5078.125000
9621		5078.125000
9622		5078.125000
9623		5078.125000
9624		5078.125000
9625		5078.125000
9626		5078.125000
9627		5078.125000
9628		5078.125000
9629		5078.125000
9630		5078.125000
9631		5078.125000
9632		5078.125000
9633		5078.125000
9634		5078.125000
9635		5078.125000
9636		5078.125000
9637		5078.125000
9638		5078.125000
9639		5078.125000
9640		5078.125000
9641		5078.125000
9642		5078.125000
9643		5078.125000
9644		5078.125000
9645		5078.125000
9646		5078.125000
9647		5078.125000
9648		5078.125000
9649		5078.125000
9650		5078.125000
9651		5078.125000
9652		5078.125000
9653		5078.125000
9654		5078.125000
9655		5078.125000
9656		5078.125000
9657		5078.125000
9658		5078.125000
9659		5078.125000
9660		5078.125000
9661		5078.125000
9662		5078.125000
9663		5078.125000
9664		5078.125000
9665		5078.125000
9666		5078.125000
9667		5078.125000
9668		5078.125000
9669		5078.125000
9670		5078.125000
9671		5078.125000
9672		5078.125000
9673		5078.125000
9674		5078.125000
9675		5078.125000
9676		5078.125000
9677		5078.125000
9678		5078.125000
9679		5078.125000
9680		5078.125000
9681		5078.125000
9682		5078.125000
9683		5078.125000
9684		5078.125000
9685		5078.125000
9686		5078.125000
9687		5078.125000
9688		5078.125000
9689		5078.125000
9690		5078.125000
9691		5078.125000
9692		5078.125000
9693		5078.125000
9694		5000.000000
9695		5000.000000
9696		5000.000000
9697		5000.000000
9698		5000.000000
9699		5000.000000
9700		5000.000000
9701		5000.000000
9702		5000.000000
9703		5000.000000
9704		5000.000000
9705		5000.000000
9706		5000.000000
9707		5000.000000
9708		5000.000000
9709		5000.000000
9710		5000.000000
9711		5000.000000
9712		5000.000000
9713		5000.000000
9714		5000.000000
9715		4921.875000
9716		4921.875000
9717		4921.875000
9718		4921.875000
9719		4921.875000
9720		4921.875000
9721		4921.875000
9722		4921.875000
9723		4921.875000
9724		4921.875000
9725		4921.875000
9726		4921.875000
9727		4921.875000
9728		4921.875000
9729		4921.875000
9730		4921.875000
9731		4921.875000
9732		4921.875000
9733		4921.875000
9734		4921.875000
9735		4921.875000
9736		4843.750000
9737		4843.750000
9738		4843.750000
9739		4843.750000
9740		4843.750000
9741		4843.750000
9742		4843.750000
9743		4843.750000
9744		4843.750000
9745		4843.750000
9746		4843.750000
9747		4843.750000
9748		4843.750000
9749		4843.750000
9750		4843.750000
9751		4843.750000
9752		4843.750000
9753		4765.625000
9754		4765.625000
9755		4765.625000
9756		4765.625000
9757		4765.625000
9758		4765.625000
9759		4765.625000
9760		4765.625000
9761		4765.625000
9762		4765.625000
9763		4765.625000
9764		4765.625000
9765		4765.625000
9766		4687.500000
9767		4687.500000
9768		4687.500000
9769		4687.500000
9770		4687.500000
9771		4687.500000
9772		4687.500000
9773		4687.500000
9774		4687.500000
9775		4687.500000
9776		4687.500000
9777		4687.500000
9778		4609.375000
9779		4609.375000
9780		4609.375000
9781		4609.375000
9782		4609.375000
9783		4609.375000
9784		4609.375000
9785		4609.375000
9786		4609.375000
9787		4609.375000
9788		4609.375000
9789		4609.375000
9790		4609.375000
9791		4609.375000
9792		4531.250000
9793		4531.250000
9794		4531.250000
9795		4531.250000
9796		4531.250000
9797		4531.250000
9798		4531.250000
9799		4531.250000
9800		4531.250000
9801		4531.250000
9802		4531.250000
9803		4453.125000
9804		4453.125000
9805		4453.125000
9806		4453.125000
9807		4453.125000
9808		4453.125000
9809		4453.125000
9810		4453.125000
9811		4453.125000
9812		4453.125000
9813		4453.125000
9814		4453.125000
9815		4453.125000
9816		4375.000000
9817		4375.000000
9818		4375.000000
9819		4375.000000
9820		4375.000000
9821		4375.000000
9822		4375.000000
9823		4375.000000
9824		4375.000000
9825		4296.875000
9826		4296.875000
9827		4296.875000
9828		4296.875000
9829		4296.875000
9830		4296.875000
9831		4296.875000
9832		4296.875000
9833		4296.875000
9834		4296.875000
9835		4296.875000
9836		4296.875000
9837		4218.750000
9838		4218.750000
9839		4218.750000
9840		4218.750000
9841		4218.750000
9842		4218.750000
9843		4218.750000
9844		4218.750000
9845		4140.625000
9846		4140.625000
9847		4140.625000
9848		4140.625000
9849		4140.625000
9850		4140.625000
9851		4140.625000
9852		4140.625000
9853		4140.625000
9854		4140.625000
9855		4140.625000
9856		4140.625000
9857		4140.625000
9858		4062.500000
9859		4062.500000
9860		4062.500000
9861		4062.500000
9862		4062.500000
9863		4062.500000
9864		4062.500000
9865		4062.500000
9866		4062.500000
9867		4062.500000
9868		4062.500000
9869		3984.375000
9870		3984.375000
9871		3984.375000
9872		3984.375000
9873		3984.375000
9874		3984.375000
9875		3984.375000
9876		3984.375000
9877		3984.375000
9878		3984.375000
9879		3906.250000
9880		3906.250000
9881		3906.250000
9882		3906.250000
9883		3906.250000
9884		3906.250000
9885		3906.250000
9886		3906.250000
9887		3906.250000
9888		3906.250000
9889		3906.250000
9890		3906.250000
9891		3828.125000
9892		3828.125000
9893		3828.125000
9894		3828.125000
9895		3828.125000
9896		3828.125000
9897		3828.125000
9898		3828.125000
9899		3828.125000
9900		3750.000000
9901		3750.000000
9902		3750.000000
9903		3750.000000
9904		3750.000000
9905		3750.000000
9906		3750.000000
9907		3750.000000
9908		3750.000000
9909		3750.000000
9910		3750.000000
9911		3750.000000
9912		3671.875000
9913		3671.875000
9914		3671.875000
9915		3671.875000
9916		3671.875000
9917		3671.875000
9918		3671.875000
9919		3671.875000
9920		3671.875000
9921		3671.875000
9922		3671.875000
9923		3671.875000
9924		3593.750000
9925		3593.750000
9926		3593.750000
9927		3593.750000
9928		3593.750000
9929		3593.750000
9930		3593.750000
9931		3593.750000
9932		3593.750000
9933		3593.750000
9934		3515.625000
9935		3515.625000
9936		3515.625000
9937		3515.625000
9938		3515.625000
9939		3515.625000
9940		3515.625000
9941		3515.625000
9942		3515.625000
9943		3515.625000
9944		3515.625000
9945		3515.625000
9946		3515.625000
9947		3515.625000
9948		3437.500000
9949		3437.500000
9950		3437.500000
9951		3437.500000
9952		3437.500000
9953		3437.500000
9954		3437.500000
9955		3437.500000
9956		3437.500000
9957		3437.500000
9958		3437.500000
9959		3437.500000
9960		3437.500000
9961		3359.375000
9962		3359.375000
9963		3359.375000
9964		3359.375000
9965		3359.375000
9966		3359.375000
9967		3359.375000
9968		3359.375000
9969		3359.375000
9970		3359.375000
9971		3359.375000
9972		3359.375000
9973		3281.250000
9974		3359.375000
9975		3281.250000
9976		3281.250000
9977		3281.250000
9978		3281.250000
9979		3281.250000
9980		3281.250000
9981		3281.250000
9982		3281.250000
9983		3281.250000
9984		3281.250000
9985		3281.250000
9986		3281.250000
9987		3203.125000
9988		3203.125000
9989		3203.125000
9990		3203.125000
9991		3203.125000
9992		3203.125000
9993		3203.125000
9994		3203.125000
9995		3203.125000
9996		3203.125000
9997		3203.125000
9998		3203.125000
9999		3203.125000
10000		3203.125000
