Channel              :		CH1
Frequency            :		1.975kHz
Period               :		0.506ms
PK-PK                :		56.64mV
Probe attenuation    :		1X
Voltage per ADC value:		0.122070mV
Time interval        :		2.00000us

index		CH1_Voltage(mV)
1		29.296875
2		29.296875
3		35.156250
4		29.296875
5		33.203125
6		29.296875
7		33.203125
8		29.296875
9		33.203125
10		27.343750
11		31.250000
12		27.343750
13		31.250000
14		25.390625
15		29.296875
16		25.390625
17		29.296875
18		25.390625
19		29.296875
20		25.390625
21		29.296875
22		23.437500
23		27.343750
24		21.484375
25		25.390625
26		21.484375
27		25.390625
28		21.484375
29		25.390625
30		19.531250
31		23.437500
32		17.578125
33		21.484375
34		17.578125
35		21.484375
36		17.578125
37		21.484375
38		15.625000
39		19.531250
40		15.625000
41		17.578125
42		13.671875
43		17.578125
44		11.718750
45		15.625000
46		11.718750
47		15.625000
48		9.765625
49		13.671875
50		7.812500
51		11.718750
52		5.859375
53		11.718750
54		5.859375
55		9.765625
56		3.906250
57		9.765625
58		3.906250
59		7.812500
60		3.906250
61		5.859375
62		1.953125
63		5.859375
64		0.000000
65		5.859375
66		0.000000
67		3.906250
68		-1.953125
69		1.953125
70		-3.906250
71		1.953125
72		-1.953125
73		0.000000
74		-3.906250
75		0.000000
76		-5.859375
77		-1.953125
78		-5.859375
79		-1.953125
80		-5.859375
81		-3.906250
82		-7.812500
83		-3.906250
84		-7.812500
85		-3.906250
86		-9.765625
87		-5.859375
88		-9.765625
89		-5.859375
90		-9.765625
91		-7.812500
92		-11.718750
93		-7.812500
94		-11.718750
95		-7.812500
96		-11.718750
97		-7.812500
98		-11.718750
99		-9.765625
100		-11.718750
101		-7.812500
102		-11.718750
103		-9.765625
104		-13.671875
105		-9.765625
106		-11.718750
107		-9.765625
108		-13.671875
109		-9.765625
110		-13.671875
111		-9.765625
112		-13.671875
113		-9.765625
114		-13.671875
115		-9.765625
116		-13.671875
117		-9.765625
118		-11.718750
119		-7.812500
120		-13.671875
121		-7.812500
122		-11.718750
123		-7.812500
124		-11.718750
125		-7.812500
126		-11.718750
127		-7.812500
128		-9.765625
129		-7.812500
130		-9.765625
131		-7.812500
132		-9.765625
133		-5.859375
134		-7.812500
135		-5.859375
136		-7.812500
137		-3.906250
138		-7.812500
139		-3.906250
140		-5.859375
141		-3.906250
142		-5.859375
143		-1.953125
144		-3.906250
145		-1.953125
146		-3.906250
147		0.000000
148		-3.906250
149		1.953125
150		-1.953125
151		1.953125
152		0.000000
153		3.906250
154		0.000000
155		3.906250
156		1.953125
157		3.906250
158		1.953125
159		7.812500
160		3.906250
161		7.812500
162		3.906250
163		7.812500
164		5.859375
165		9.765625
166		7.812500
167		9.765625
168		7.812500
169		11.718750
170		9.765625
171		13.671875
172		9.765625
173		13.671875
174		11.718750
175		15.625000
176		11.718750
177		15.625000
178		13.671875
179		17.578125
180		15.625000
181		17.578125
182		15.625000
183		19.531250
184		17.578125
185		21.484375
186		17.578125
187		21.484375
188		19.531250
189		23.437500
190		21.484375
191		23.437500
192		21.484375
193		25.390625
194		21.484375
195		25.390625
196		23.437500
197		27.343750
198		23.437500
199		27.343750
200		25.390625
201		29.296875
202		25.390625
203		29.296875
204		25.390625
205		31.250000
206		27.343750
207		31.250000
208		27.343750
209		31.250000
210		29.296875
211		33.203125
212		29.296875
213		33.203125
214		29.296875
215		33.203125
216		31.250000
217		35.156250
218		31.250000
219		35.156250
220		31.250000
221		35.156250
222		31.250000
223		35.156250
224		33.203125
225		35.156250
226		31.250000
227		37.109375
228		33.203125
229		35.156250
230		33.203125
231		35.156250
232		33.203125
233		37.109375
234		33.203125
235		37.109375
236		33.203125
237		37.109375
238		33.203125
239		37.109375
240		33.203125
241		35.156250
242		31.250000
243		37.109375
244		33.203125
245		37.109375
246		31.250000
247		35.156250
248		31.250000
249		35.156250
250		31.250000
251		35.156250
252		31.250000
253		35.156250
254		31.250000
255		35.156250
256		31.250000
257		33.203125
258		29.296875
259		33.203125
260		29.296875
261		33.203125
262		29.296875
263		33.203125
264		27.343750
265		31.250000
266		27.343750
267		31.250000
268		25.390625
269		29.296875
270		25.390625
271		29.296875
272		25.390625
273		29.296875
274		25.390625
275		27.343750
276		23.437500
277		27.343750
278		21.484375
279		25.390625
280		21.484375
281		25.390625
282		21.484375
283		23.437500
284		19.531250
285		23.437500
286		17.578125
287		21.484375
288		17.578125
289		21.484375
290		15.625000
291		19.531250
292		15.625000
293		17.578125
294		13.671875
295		17.578125
296		13.671875
297		15.625000
298		11.718750
299		15.625000
300		9.765625
301		13.671875
302		9.765625
303		13.671875
304		7.812500
305		11.718750
306		7.812500
307		11.718750
308		5.859375
309		9.765625
310		3.906250
311		7.812500
312		3.906250
313		7.812500
314		1.953125
315		5.859375
316		1.953125
317		5.859375
318		0.000000
319		3.906250
320		0.000000
321		3.906250
322		-1.953125
323		1.953125
324		-1.953125
325		0.000000
326		-3.906250
327		0.000000
328		-3.906250
329		0.000000
330		-5.859375
331		-1.953125
332		-5.859375
333		-3.906250
334		-7.812500
335		-3.906250
336		-7.812500
337		-3.906250
338		-9.765625
339		-3.906250
340		-7.812500
341		-5.859375
342		-9.765625
343		-7.812500
344		-9.765625
345		-7.812500
346		-11.718750
347		-7.812500
348		-11.718750
349		-7.812500
350		-11.718750
351		-7.812500
352		-11.718750
353		-7.812500
354		-13.671875
355		-7.812500
356		-13.671875
357		-7.812500
358		-11.718750
359		-9.765625
360		-13.671875
361		-9.765625
362		-13.671875
363		-9.765625
364		-13.671875
365		-9.765625
366		-13.671875
367		-9.765625
368		-13.671875
369		-9.765625
370		-11.718750
371		-9.765625
372		-11.718750
373		-9.765625
374		-11.718750
375		-7.812500
376		-11.718750
377		-9.765625
378		-11.718750
379		-7.812500
380		-11.718750
381		-7.812500
382		-9.765625
383		-5.859375
384		-9.765625
385		-5.859375
386		-9.765625
387		-5.859375
388		-7.812500
389		-3.906250
390		-7.812500
391		-3.906250
392		-5.859375
393		-3.906250
394		-5.859375
395		-1.953125
396		-5.859375
397		-1.953125
398		-3.906250
399		-1.953125
400		-3.906250
401		0.000000
402		-1.953125
403		0.000000
404		-1.953125
405		1.953125
406		-1.953125
407		3.906250
408		0.000000
409		3.906250
410		1.953125
411		5.859375
412		1.953125
413		5.859375
414		3.906250
415		7.812500
416		3.906250
417		7.812500
418		5.859375
419		9.765625
420		7.812500
421		11.718750
422		7.812500
423		13.671875
424		9.765625
425		13.671875
426		11.718750
427		13.671875
428		11.718750
429		15.625000
430		13.671875
431		17.578125
432		13.671875
433		17.578125
434		15.625000
435		19.531250
436		15.625000
437		19.531250
438		17.578125
439		21.484375
440		17.578125
441		21.484375
442		19.531250
443		23.437500
444		19.531250
445		25.390625
446		21.484375
447		25.390625
448		23.437500
449		25.390625
450		23.437500
451		27.343750
452		25.390625
453		29.296875
454		25.390625
455		29.296875
456		25.390625
457		29.296875
458		27.343750
459		29.296875
460		27.343750
461		31.250000
462		27.343750
463		31.250000
464		29.296875
465		33.203125
466		29.296875
467		33.203125
468		29.296875
469		33.203125
470		31.250000
471		35.156250
472		31.250000
473		35.156250
474		31.250000
475		35.156250
476		33.203125
477		35.156250
478		31.250000
479		35.156250
480		33.203125
481		37.109375
482		33.203125
483		37.109375
484		33.203125
485		37.109375
486		33.203125
487		37.109375
488		33.203125
489		37.109375
490		31.250000
491		37.109375
492		33.203125
493		35.156250
494		31.250000
495		37.109375
496		33.203125
497		35.156250
498		31.250000
499		35.156250
500		31.250000
501		35.156250
502		31.250000
503		35.156250
504		31.250000
505		35.156250
506		31.250000
507		35.156250
508		31.250000
509		33.203125
510		31.250000
511		33.203125
512		29.296875
513		33.203125
514		29.296875
515		33.203125
516		27.343750
517		33.203125
518		27.343750
519		31.250000
520		27.343750
521		31.250000
522		25.390625
523		29.296875
524		25.390625
525		29.296875
526		25.390625
527		27.343750
528		23.437500
529		27.343750
530		23.437500
531		27.343750
532		21.484375
533		25.390625
534		21.484375
535		23.437500
536		19.531250
537		23.437500
538		19.531250
539		23.437500
540		17.578125
541		21.484375
542		17.578125
543		19.531250
544		15.625000
545		19.531250
546		13.671875
547		19.531250
548		13.671875
549		17.578125
550		11.718750
551		15.625000
552		11.718750
553		15.625000
554		9.765625
555		13.671875
556		9.765625
557		13.671875
558		7.812500
559		11.718750
560		7.812500
561		9.765625
562		3.906250
563		9.765625
564		3.906250
565		7.812500
566		3.906250
567		7.812500
568		1.953125
569		5.859375
570		1.953125
571		5.859375
572		0.000000
573		3.906250
574		0.000000
575		1.953125
576		-1.953125
577		1.953125
578		-3.906250
579		0.000000
580		-3.906250
581		0.000000
582		-5.859375
583		0.000000
584		-5.859375
585		-1.953125
586		-5.859375
587		-1.953125
588		-7.812500
589		-3.906250
590		-9.765625
591		-3.906250
592		-7.812500
593		-5.859375
594		-9.765625
595		-5.859375
596		-9.765625
597		-5.859375
598		-9.765625
599		-5.859375
600		-9.765625
601		-7.812500
602		-11.718750
603		-7.812500
604		-11.718750
605		-7.812500
606		-11.718750
607		-9.765625
608		-13.671875
609		-7.812500
610		-11.718750
611		-9.765625
612		-11.718750
613		-9.765625
614		-13.671875
615		-9.765625
616		-11.718750
617		-9.765625
618		-11.718750
619		-9.765625
620		-11.718750
621		-9.765625
622		-13.671875
623		-9.765625
624		-13.671875
625		-7.812500
626		-11.718750
627		-9.765625
628		-11.718750
629		-9.765625
630		-11.718750
631		-7.812500
632		-11.718750
633		-7.812500
634		-9.765625
635		-5.859375
636		-9.765625
637		-5.859375
638		-9.765625
639		-5.859375
640		-7.812500
641		-5.859375
642		-7.812500
643		-3.906250
644		-7.812500
645		-3.906250
646		-5.859375
647		-1.953125
648		-5.859375
649		-1.953125
650		-5.859375
651		-1.953125
652		-3.906250
653		0.000000
654		-3.906250
655		0.000000
656		-1.953125
657		1.953125
658		0.000000
659		3.906250
660		0.000000
661		3.906250
662		1.953125
663		3.906250
664		1.953125
665		5.859375
666		3.906250
667		7.812500
668		3.906250
669		7.812500
670		5.859375
671		9.765625
672		5.859375
673		9.765625
674		7.812500
675		11.718750
676		9.765625
677		11.718750
678		9.765625
679		13.671875
680		11.718750
681		15.625000
682		11.718750
683		15.625000
684		13.671875
685		17.578125
686		13.671875
687		17.578125
688		15.625000
689		19.531250
690		17.578125
691		19.531250
692		17.578125
693		21.484375
694		19.531250
695		21.484375
696		19.531250
697		23.437500
698		21.484375
699		25.390625
700		21.484375
701		25.390625
702		23.437500
703		25.390625
704		23.437500
705		27.343750
706		25.390625
707		27.343750
708		25.390625
709		29.296875
710		27.343750
711		29.296875
712		27.343750
713		31.250000
714		27.343750
715		31.250000
716		29.296875
717		31.250000
718		29.296875
719		33.203125
720		29.296875
721		33.203125
722		31.250000
723		33.203125
724		31.250000
725		35.156250
726		31.250000
727		35.156250
728		31.250000
729		35.156250
730		31.250000
731		35.156250
732		31.250000
733		35.156250
734		33.203125
735		35.156250
736		33.203125
737		35.156250
738		33.203125
739		37.109375
740		33.203125
741		37.109375
742		31.250000
743		37.109375
744		33.203125
745		35.156250
746		33.203125
747		35.156250
748		33.203125
749		37.109375
750		33.203125
751		35.156250
752		33.203125
753		35.156250
754		31.250000
755		35.156250
756		31.250000
757		35.156250
758		31.250000
759		35.156250
760		29.296875
761		33.203125
762		31.250000
763		33.203125
764		29.296875
765		33.203125
766		29.296875
767		33.203125
768		29.296875
769		33.203125
770		27.343750
771		33.203125
772		27.343750
773		31.250000
774		27.343750
775		29.296875
776		25.390625
777		29.296875
778		25.390625
779		27.343750
780		21.484375
781		27.343750
782		23.437500
783		27.343750
784		21.484375
785		25.390625
786		21.484375
787		25.390625
788		19.531250
789		23.437500
790		17.578125
791		23.437500
792		17.578125
793		21.484375
794		17.578125
795		21.484375
796		15.625000
797		19.531250
798		13.671875
799		19.531250
800		13.671875
801		17.578125
802		13.671875
803		17.578125
804		11.718750
805		15.625000
806		9.765625
807		13.671875
808		9.765625
809		13.671875
810		7.812500
811		11.718750
812		7.812500
813		9.765625
814		5.859375
815		9.765625
816		5.859375
817		7.812500
818		3.906250
819		7.812500
820		1.953125
821		7.812500
822		1.953125
823		5.859375
824		0.000000
825		3.906250
826		-1.953125
827		3.906250
828		-1.953125
829		1.953125
830		-1.953125
831		0.000000
832		-3.906250
833		0.000000
834		-3.906250
835		0.000000
836		-5.859375
837		-1.953125
838		-7.812500
839		-1.953125
840		-7.812500
841		-3.906250
842		-7.812500
843		-3.906250
844		-9.765625
845		-3.906250
846		-9.765625
847		-5.859375
848		-9.765625
849		-5.859375
850		-9.765625
851		-7.812500
852		-9.765625
853		-7.812500
854		-11.718750
855		-7.812500
856		-11.718750
857		-7.812500
858		-11.718750
859		-7.812500
860		-11.718750
861		-9.765625
862		-11.718750
863		-9.765625
864		-13.671875
865		-9.765625
866		-13.671875
867		-9.765625
868		-13.671875
869		-9.765625
870		-11.718750
871		-9.765625
872		-13.671875
873		-9.765625
874		-13.671875
875		-9.765625
876		-13.671875
877		-7.812500
878		-11.718750
879		-9.765625
880		-11.718750
881		-9.765625
882		-11.718750
883		-7.812500
884		-11.718750
885		-7.812500
886		-11.718750
887		-7.812500
888		-9.765625
889		-7.812500
890		-9.765625
891		-5.859375
892		-9.765625
893		-5.859375
894		-9.765625
895		-5.859375
896		-7.812500
897		-3.906250
898		-7.812500
899		-3.906250
900		-5.859375
901		-1.953125
902		-5.859375
903		-1.953125
904		-3.906250
905		-1.953125
906		-3.906250
907		0.000000
908		-1.953125
909		0.000000
910		-1.953125
911		3.906250
912		0.000000
913		1.953125
914		0.000000
915		3.906250
916		0.000000
917		5.859375
918		1.953125
919		5.859375
920		3.906250
921		7.812500
922		5.859375
923		9.765625
924		5.859375
925		9.765625
926		5.859375
927		9.765625
928		7.812500
929		11.718750
930		9.765625
931		13.671875
932		9.765625
933		13.671875
934		11.718750
935		15.625000
936		11.718750
937		15.625000
938		13.671875
939		17.578125
940		15.625000
941		19.531250
942		15.625000
943		19.531250
944		17.578125
945		21.484375
946		19.531250
947		21.484375
948		19.531250
949		23.437500
950		19.531250
951		23.437500
952		21.484375
953		25.390625
954		21.484375
955		25.390625
956		23.437500
957		27.343750
958		23.437500
959		27.343750
960		25.390625
961		29.296875
962		25.390625
963		29.296875
964		27.343750
965		29.296875
966		27.343750
967		31.250000
968		29.296875
969		31.250000
970		29.296875
971		33.203125
972		29.296875
973		33.203125
974		29.296875
975		33.203125
976		31.250000
977		33.203125
978		29.296875
979		35.156250
980		31.250000
981		35.156250
982		31.250000
983		35.156250
984		33.203125
985		35.156250
986		33.203125
987		35.156250
988		33.203125
989		37.109375
990		33.203125
991		37.109375
992		33.203125
993		37.109375
994		33.203125
995		37.109375
996		33.203125
997		35.156250
998		33.203125
999		35.156250
1000		31.250000
1001		37.109375
1002		33.203125
1003		37.109375
1004		33.203125
1005		35.156250
1006		31.250000
1007		35.156250
1008		31.250000
1009		35.156250
1010		31.250000
1011		35.156250
1012		31.250000
1013		35.156250
1014		31.250000
1015		33.203125
1016		29.296875
1017		35.156250
1018		29.296875
1019		33.203125
1020		29.296875
1021		33.203125
1022		29.296875
1023		31.250000
1024		27.343750
1025		31.250000
1026		27.343750
1027		31.250000
1028		25.390625
1029		31.250000
1030		25.390625
1031		29.296875
1032		25.390625
1033		29.296875
1034		23.437500
1035		27.343750
1036		23.437500
1037		25.390625
1038		21.484375
1039		25.390625
1040		21.484375
1041		25.390625
1042		19.531250
1043		23.437500
1044		17.578125
1045		23.437500
1046		19.531250
1047		21.484375
1048		17.578125
1049		19.531250
1050		15.625000
1051		19.531250
1052		13.671875
1053		17.578125
1054		13.671875
1055		17.578125
1056		13.671875
1057		15.625000
1058		11.718750
1059		15.625000
1060		9.765625
1061		13.671875
1062		9.765625
1063		13.671875
1064		7.812500
1065		11.718750
1066		5.859375
1067		9.765625
1068		5.859375
1069		9.765625
1070		3.906250
1071		7.812500
1072		3.906250
1073		7.812500
1074		1.953125
1075		5.859375
1076		1.953125
1077		5.859375
1078		0.000000
1079		3.906250
1080		0.000000
1081		1.953125
1082		-1.953125
1083		1.953125
1084		-1.953125
1085		1.953125
1086		-3.906250
1087		0.000000
1088		-3.906250
1089		-1.953125
1090		-5.859375
1091		-1.953125
1092		-5.859375
1093		-1.953125
1094		-7.812500
1095		-3.906250
1096		-7.812500
1097		-3.906250
1098		-7.812500
1099		-5.859375
1100		-9.765625
1101		-5.859375
1102		-9.765625
1103		-5.859375
1104		-9.765625
1105		-7.812500
1106		-11.718750
1107		-7.812500
1108		-11.718750
1109		-7.812500
1110		-11.718750
1111		-7.812500
1112		-11.718750
1113		-7.812500
1114		-11.718750
1115		-9.765625
1116		-11.718750
1117		-9.765625
1118		-13.671875
1119		-9.765625
1120		-13.671875
1121		-9.765625
1122		-11.718750
1123		-9.765625
1124		-13.671875
1125		-9.765625
1126		-13.671875
1127		-9.765625
1128		-13.671875
1129		-9.765625
1130		-11.718750
1131		-9.765625
1132		-11.718750
1133		-9.765625
1134		-13.671875
1135		-7.812500
1136		-11.718750
1137		-7.812500
1138		-11.718750
1139		-7.812500
1140		-9.765625
1141		-7.812500
1142		-9.765625
1143		-7.812500
1144		-9.765625
1145		-5.859375
1146		-9.765625
1147		-5.859375
1148		-7.812500
1149		-5.859375
1150		-7.812500
1151		-3.906250
1152		-7.812500
1153		-3.906250
1154		-5.859375
1155		-1.953125
1156		-5.859375
1157		0.000000
1158		-3.906250
1159		0.000000
1160		-3.906250
1161		0.000000
1162		-1.953125
1163		1.953125
1164		0.000000
1165		1.953125
1166		0.000000
1167		1.953125
1168		0.000000
1169		3.906250
1170		1.953125
1171		5.859375
1172		1.953125
1173		5.859375
1174		3.906250
1175		7.812500
1176		5.859375
1177		9.765625
1178		5.859375
1179		9.765625
1180		5.859375
1181		11.718750
1182		9.765625
1183		11.718750
1184		9.765625
1185		13.671875
1186		9.765625
1187		13.671875
1188		11.718750
1189		15.625000
1190		13.671875
1191		17.578125
1192		13.671875
1193		17.578125
1194		15.625000
1195		19.531250
1196		17.578125
1197		21.484375
1198		17.578125
1199		21.484375
1200		17.578125
1201		23.437500
1202		19.531250
1203		23.437500
1204		21.484375
1205		23.437500
1206		21.484375
1207		25.390625
1208		23.437500
1209		27.343750
1210		23.437500
1211		27.343750
1212		23.437500
1213		29.296875
1214		25.390625
1215		29.296875
1216		25.390625
1217		29.296875
1218		25.390625
1219		31.250000
1220		27.343750
1221		31.250000
1222		27.343750
1223		31.250000
1224		29.296875
1225		31.250000
1226		29.296875
1227		33.203125
1228		31.250000
1229		33.203125
1230		29.296875
1231		33.203125
1232		31.250000
1233		33.203125
1234		31.250000
1235		35.156250
1236		31.250000
1237		35.156250
1238		31.250000
1239		35.156250
1240		31.250000
1241		35.156250
1242		33.203125
1243		35.156250
1244		33.203125
1245		35.156250
1246		31.250000
1247		37.109375
1248		33.203125
1249		35.156250
1250		33.203125
1251		35.156250
1252		33.203125
1253		37.109375
1254		33.203125
1255		35.156250
1256		31.250000
1257		35.156250
1258		31.250000
1259		35.156250
1260		31.250000
1261		35.156250
1262		31.250000
1263		35.156250
1264		31.250000
1265		35.156250
1266		31.250000
1267		33.203125
1268		29.296875
1269		33.203125
1270		29.296875
1271		33.203125
1272		29.296875
1273		33.203125
1274		29.296875
1275		33.203125
1276		27.343750
1277		31.250000
1278		27.343750
1279		31.250000
1280		27.343750
1281		29.296875
1282		25.390625
1283		29.296875
1284		25.390625
1285		29.296875
1286		23.437500
1287		29.296875
1288		23.437500
1289		27.343750
1290		23.437500
1291		27.343750
1292		21.484375
1293		25.390625
1294		19.531250
1295		23.437500
1296		17.578125
1297		23.437500
1298		19.531250
1299		21.484375
1300		17.578125
1301		21.484375
1302		15.625000
1303		19.531250
1304		15.625000
1305		19.531250
1306		13.671875
1307		17.578125
1308		11.718750
1309		17.578125
1310		11.718750
1311		15.625000
1312		11.718750
1313		13.671875
1314		9.765625
1315		13.671875
1316		7.812500
1317		11.718750
1318		5.859375
1319		11.718750
1320		5.859375
1321		9.765625
1322		5.859375
1323		7.812500
1324		3.906250
1325		7.812500
1326		1.953125
1327		5.859375
1328		1.953125
1329		5.859375
1330		0.000000
1331		5.859375
1332		0.000000
1333		1.953125
1334		0.000000
1335		1.953125
1336		-3.906250
1337		1.953125
1338		-3.906250
1339		0.000000
1340		-5.859375
1341		0.000000
1342		-5.859375
1343		-1.953125
1344		-5.859375
1345		-1.953125
1346		-7.812500
1347		-3.906250
1348		-7.812500
1349		-3.906250
1350		-7.812500
1351		-5.859375
1352		-9.765625
1353		-5.859375
1354		-9.765625
1355		-5.859375
1356		-9.765625
1357		-7.812500
1358		-9.765625
1359		-7.812500
1360		-11.718750
1361		-7.812500
1362		-11.718750
1363		-7.812500
1364		-13.671875
1365		-7.812500
1366		-11.718750
1367		-9.765625
1368		-11.718750
1369		-9.765625
1370		-13.671875
1371		-9.765625
1372		-13.671875
1373		-9.765625
1374		-13.671875
1375		-9.765625
1376		-13.671875
1377		-9.765625
1378		-13.671875
1379		-9.765625
1380		-13.671875
1381		-9.765625
1382		-13.671875
1383		-9.765625
1384		-11.718750
1385		-9.765625
1386		-11.718750
1387		-9.765625
1388		-11.718750
1389		-7.812500
1390		-11.718750
1391		-7.812500
1392		-11.718750
1393		-7.812500
1394		-11.718750
1395		-7.812500
1396		-9.765625
1397		-5.859375
1398		-9.765625
1399		-5.859375
1400		-7.812500
1401		-5.859375
1402		-7.812500
1403		-3.906250
1404		-7.812500
1405		-3.906250
1406		-5.859375
1407		-3.906250
1408		-5.859375
1409		-1.953125
1410		-5.859375
1411		0.000000
1412		-3.906250
1413		0.000000
1414		-3.906250
1415		1.953125
1416		-1.953125
1417		1.953125
1418		0.000000
1419		1.953125
1420		0.000000
1421		3.906250
1422		1.953125
1423		5.859375
1424		1.953125
1425		5.859375
1426		3.906250
1427		7.812500
1428		3.906250
1429		7.812500
1430		5.859375
1431		9.765625
1432		5.859375
1433		9.765625
1434		7.812500
1435		11.718750
1436		9.765625
1437		13.671875
1438		9.765625
1439		13.671875
1440		11.718750
1441		15.625000
1442		13.671875
1443		15.625000
1444		13.671875
1445		17.578125
1446		15.625000
1447		19.531250
1448		15.625000
1449		19.531250
1450		17.578125
1451		19.531250
1452		17.578125
1453		21.484375
1454		17.578125
1455		23.437500
1456		19.531250
1457		23.437500
1458		21.484375
1459		25.390625
1460		23.437500
1461		25.390625
1462		23.437500
1463		27.343750
1464		23.437500
1465		27.343750
1466		25.390625
1467		29.296875
1468		27.343750
1469		29.296875
1470		25.390625
1471		31.250000
1472		27.343750
1473		31.250000
1474		29.296875
1475		31.250000
1476		29.296875
1477		33.203125
1478		29.296875
1479		33.203125
1480		29.296875
1481		33.203125
1482		31.250000
1483		35.156250
1484		31.250000
1485		33.203125
1486		31.250000
1487		35.156250
1488		31.250000
1489		35.156250
1490		31.250000
1491		35.156250
1492		31.250000
1493		37.109375
1494		33.203125
1495		35.156250
1496		33.203125
1497		37.109375
1498		33.203125
1499		37.109375
1500		33.203125
1501		37.109375
1502		33.203125
1503		37.109375
1504		33.203125
1505		37.109375
1506		33.203125
1507		35.156250
1508		33.203125
1509		37.109375
1510		33.203125
1511		35.156250
1512		33.203125
1513		37.109375
1514		33.203125
1515		35.156250
1516		31.250000
1517		35.156250
1518		31.250000
1519		35.156250
1520		31.250000
1521		35.156250
1522		31.250000
1523		33.203125
1524		29.296875
1525		33.203125
1526		29.296875
1527		33.203125
1528		29.296875
1529		33.203125
1530		29.296875
1531		31.250000
1532		27.343750
1533		31.250000
1534		27.343750
1535		29.296875
1536		27.343750
1537		29.296875
1538		25.390625
1539		29.296875
1540		23.437500
1541		29.296875
1542		23.437500
1543		27.343750
1544		23.437500
1545		25.390625
1546		21.484375
1547		25.390625
1548		21.484375
1549		23.437500
1550		19.531250
1551		23.437500
1552		19.531250
1553		21.484375
1554		17.578125
1555		21.484375
1556		15.625000
1557		19.531250
1558		15.625000
1559		19.531250
1560		13.671875
1561		17.578125
1562		13.671875
1563		17.578125
1564		11.718750
1565		15.625000
1566		11.718750
1567		15.625000
1568		9.765625
1569		13.671875
1570		7.812500
1571		11.718750
1572		7.812500
1573		11.718750
1574		5.859375
1575		9.765625
1576		5.859375
1577		9.765625
1578		3.906250
1579		7.812500
1580		3.906250
1581		7.812500
1582		0.000000
1583		5.859375
1584		1.953125
1585		3.906250
1586		0.000000
1587		3.906250
1588		-1.953125
1589		1.953125
1590		-1.953125
1591		1.953125
1592		-3.906250
1593		0.000000
1594		-3.906250
1595		0.000000
1596		-3.906250
1597		-1.953125
1598		-5.859375
1599		-1.953125
1600		-5.859375
1601		-1.953125
1602		-7.812500
1603		-3.906250
1604		-7.812500
1605		-3.906250
1606		-9.765625
1607		-5.859375
1608		-9.765625
1609		-5.859375
1610		-9.765625
1611		-7.812500
1612		-9.765625
1613		-7.812500
1614		-11.718750
1615		-7.812500
1616		-11.718750
1617		-7.812500
1618		-11.718750
1619		-7.812500
1620		-11.718750
1621		-9.765625
1622		-13.671875
1623		-7.812500
1624		-13.671875
1625		-9.765625
1626		-13.671875
1627		-9.765625
1628		-11.718750
1629		-9.765625
1630		-11.718750
1631		-9.765625
1632		-11.718750
1633		-7.812500
1634		-11.718750
1635		-9.765625
1636		-11.718750
1637		-9.765625
1638		-13.671875
1639		-7.812500
1640		-11.718750
1641		-7.812500
1642		-11.718750
1643		-7.812500
1644		-11.718750
1645		-7.812500
1646		-9.765625
1647		-7.812500
1648		-9.765625
1649		-5.859375
1650		-9.765625
1651		-5.859375
1652		-7.812500
1653		-5.859375
1654		-7.812500
1655		-5.859375
1656		-5.859375
1657		-3.906250
1658		-5.859375
1659		-3.906250
1660		-5.859375
1661		-1.953125
1662		-3.906250
1663		-1.953125
1664		-3.906250
1665		0.000000
1666		-3.906250
1667		0.000000
1668		-1.953125
1669		1.953125
1670		0.000000
1671		1.953125
1672		0.000000
1673		3.906250
1674		0.000000
1675		5.859375
1676		1.953125
1677		5.859375
1678		3.906250
1679		5.859375
1680		3.906250
1681		7.812500
1682		5.859375
1683		9.765625
1684		5.859375
1685		9.765625
1686		7.812500
1687		11.718750
1688		7.812500
1689		13.671875
1690		9.765625
1691		13.671875
1692		11.718750
1693		15.625000
1694		11.718750
1695		15.625000
1696		13.671875
1697		17.578125
1698		15.625000
1699		17.578125
1700		15.625000
1701		19.531250
1702		17.578125
1703		19.531250
1704		17.578125
1705		21.484375
1706		17.578125
1707		21.484375
1708		19.531250
1709		23.437500
1710		21.484375
1711		25.390625
1712		21.484375
1713		25.390625
1714		23.437500
1715		27.343750
1716		23.437500
1717		27.343750
1718		23.437500
1719		27.343750
1720		25.390625
1721		29.296875
1722		25.390625
1723		31.250000
1724		27.343750
1725		31.250000
1726		27.343750
1727		31.250000
1728		29.296875
1729		31.250000
1730		29.296875
1731		31.250000
1732		29.296875
1733		33.203125
1734		29.296875
1735		33.203125
1736		31.250000
1737		33.203125
1738		31.250000
1739		35.156250
1740		31.250000
1741		35.156250
1742		33.203125
1743		35.156250
1744		31.250000
1745		35.156250
1746		33.203125
1747		35.156250
1748		33.203125
1749		37.109375
1750		33.203125
1751		37.109375
1752		33.203125
1753		35.156250
1754		33.203125
1755		35.156250
1756		31.250000
1757		37.109375
1758		33.203125
1759		37.109375
1760		33.203125
1761		37.109375
1762		33.203125
1763		35.156250
1764		31.250000
1765		37.109375
1766		31.250000
1767		35.156250
1768		31.250000
1769		35.156250
1770		31.250000
1771		35.156250
1772		29.296875
1773		35.156250
1774		31.250000
1775		33.203125
1776		29.296875
1777		33.203125
1778		29.296875
1779		33.203125
1780		29.296875
1781		33.203125
1782		29.296875
1783		31.250000
1784		27.343750
1785		31.250000
1786		27.343750
1787		29.296875
1788		27.343750
1789		29.296875
1790		25.390625
1791		29.296875
1792		25.390625
1793		27.343750
1794		23.437500
1795		27.343750
1796		23.437500
1797		25.390625
1798		21.484375
1799		25.390625
1800		21.484375
1801		25.390625
1802		19.531250
1803		23.437500
1804		19.531250
1805		21.484375
1806		17.578125
1807		21.484375
1808		17.578125
1809		19.531250
1810		15.625000
1811		19.531250
1812		13.671875
1813		17.578125
1814		13.671875
1815		17.578125
1816		11.718750
1817		15.625000
1818		9.765625
1819		15.625000
1820		9.765625
1821		13.671875
1822		7.812500
1823		11.718750
1824		7.812500
1825		11.718750
1826		5.859375
1827		9.765625
1828		5.859375
1829		9.765625
1830		3.906250
1831		7.812500
1832		1.953125
1833		7.812500
1834		1.953125
1835		7.812500
1836		1.953125
1837		3.906250
1838		0.000000
1839		3.906250
1840		-1.953125
1841		1.953125
1842		-1.953125
1843		1.953125
1844		-3.906250
1845		0.000000
1846		-3.906250
1847		0.000000
1848		-5.859375
1849		0.000000
1850		-7.812500
1851		-1.953125
1852		-7.812500
1853		-1.953125
1854		-7.812500
1855		-3.906250
1856		-7.812500
1857		-5.859375
1858		-9.765625
1859		-5.859375
1860		-9.765625
1861		-5.859375
1862		-9.765625
1863		-5.859375
1864		-11.718750
1865		-5.859375
1866		-11.718750
1867		-5.859375
1868		-13.671875
1869		-5.859375
1870		-11.718750
1871		-9.765625
1872		-11.718750
1873		-9.765625
1874		-11.718750
1875		-9.765625
1876		-11.718750
1877		-9.765625
1878		-13.671875
1879		-9.765625
1880		-13.671875
1881		-7.812500
1882		-15.625000
1883		-7.812500
1884		-15.625000
1885		-7.812500
1886		-13.671875
1887		-9.765625
1888		-11.718750
1889		-9.765625
1890		-13.671875
1891		-7.812500
1892		-13.671875
1893		-7.812500
1894		-13.671875
1895		-5.859375
1896		-13.671875
1897		-5.859375
1898		-13.671875
1899		-5.859375
1900		-11.718750
1901		-3.906250
1902		-11.718750
1903		-5.859375
1904		-9.765625
1905		-5.859375
1906		-7.812500
1907		-5.859375
1908		-9.765625
1909		-1.953125
1910		-9.765625
1911		-1.953125
1912		-7.812500
1913		-1.953125
1914		-7.812500
1915		0.000000
1916		-5.859375
1917		0.000000
1918		-5.859375
1919		1.953125
1920		-1.953125
1921		0.000000
1922		-1.953125
1923		1.953125
1924		-1.953125
1925		3.906250
1926		-1.953125
1927		5.859375
1928		0.000000
1929		5.859375
1930		0.000000
1931		7.812500
1932		1.953125
1933		7.812500
1934		1.953125
1935		9.765625
1936		3.906250
1937		9.765625
1938		7.812500
1939		9.765625
1940		7.812500
1941		11.718750
1942		7.812500
1943		13.671875
1944		7.812500
1945		15.625000
1946		9.765625
1947		17.578125
1948		9.765625
1949		17.578125
1950		11.718750
1951		19.531250
1952		13.671875
1953		19.531250
1954		15.625000
1955		19.531250
1956		17.578125
1957		19.531250
1958		17.578125
1959		23.437500
1960		17.578125
1961		25.390625
1962		17.578125
1963		25.390625
1964		19.531250
1965		25.390625
1966		19.531250
1967		27.343750
1968		21.484375
1969		29.296875
1970		23.437500
1971		29.296875
1972		25.390625
1973		27.343750
1974		23.437500
1975		31.250000
1976		25.390625
1977		31.250000
1978		25.390625
1979		33.203125
1980		25.390625
1981		33.203125
1982		25.390625
1983		35.156250
1984		27.343750
1985		35.156250
1986		27.343750
1987		35.156250
1988		31.250000
1989		33.203125
1990		29.296875
1991		35.156250
1992		29.296875
1993		37.109375
1994		29.296875
1995		37.109375
1996		29.296875
1997		37.109375
1998		31.250000
1999		37.109375
2000		31.250000
2001		39.062500
2002		31.250000
2003		39.062500
2004		31.250000
2005		37.109375
2006		33.203125
2007		35.156250
2008		31.250000
2009		39.062500
2010		31.250000
2011		39.062500
2012		31.250000
2013		39.062500
2014		31.250000
2015		39.062500
2016		31.250000
2017		37.109375
2018		29.296875
2019		39.062500
2020		31.250000
2021		37.109375
2022		33.203125
2023		35.156250
2024		29.296875
2025		37.109375
2026		29.296875
2027		37.109375
2028		29.296875
2029		37.109375
2030		29.296875
2031		35.156250
2032		27.343750
2033		35.156250
2034		27.343750
2035		35.156250
2036		27.343750
2037		35.156250
2038		27.343750
2039		31.250000
2040		27.343750
2041		29.296875
2042		25.390625
2043		31.250000
2044		23.437500
2045		31.250000
2046		21.484375
2047		29.296875
2048		21.484375
2049		29.296875
2050		21.484375
2051		29.296875
2052		19.531250
2053		27.343750
2054		19.531250
2055		25.390625
2056		19.531250
2057		23.437500
2058		15.625000
2059		23.437500
2060		15.625000
2061		23.437500
2062		13.671875
2063		21.484375
2064		13.671875
2065		21.484375
2066		11.718750
2067		19.531250
2068		11.718750
2069		19.531250
2070		11.718750
2071		17.578125
2072		11.718750
2073		13.671875
2074		9.765625
2075		13.671875
2076		7.812500
2077		13.671875
2078		5.859375
2079		13.671875
2080		3.906250
2081		11.718750
2082		3.906250
2083		9.765625
2084		1.953125
2085		9.765625
2086		1.953125
2087		9.765625
2088		1.953125
2089		5.859375
2090		1.953125
2091		3.906250
2092		-1.953125
2093		5.859375
2094		-3.906250
2095		3.906250
2096		-3.906250
2097		3.906250
2098		-5.859375
2099		1.953125
2100		-5.859375
2101		1.953125
2102		-5.859375
2103		0.000000
2104		-7.812500
2105		0.000000
2106		-5.859375
2107		-3.906250
2108		-9.765625
2109		-3.906250
2110		-9.765625
2111		-1.953125
2112		-11.718750
2113		-3.906250
2114		-11.718750
2115		-3.906250
2116		-11.718750
2117		-3.906250
2118		-11.718750
2119		-5.859375
2120		-13.671875
2121		-5.859375
2122		-11.718750
2123		-7.812500
2124		-11.718750
2125		-7.812500
2126		-13.671875
2127		-7.812500
2128		-13.671875
2129		-5.859375
2130		-15.625000
2131		-5.859375
2132		-15.625000
2133		-7.812500
2134		-15.625000
2135		-7.812500
2136		-15.625000
2137		-7.812500
2138		-13.671875
2139		-7.812500
2140		-11.718750
2141		-9.765625
2142		-13.671875
2143		-7.812500
2144		-13.671875
2145		-5.859375
2146		-13.671875
2147		-5.859375
2148		-13.671875
2149		-5.859375
2150		-13.671875
2151		-5.859375
2152		-13.671875
2153		-5.859375
2154		-11.718750
2155		-3.906250
2156		-9.765625
2157		-5.859375
2158		-7.812500
2159		-5.859375
2160		-9.765625
2161		-1.953125
2162		-9.765625
2163		-1.953125
2164		-7.812500
2165		-1.953125
2166		-7.812500
2167		0.000000
2168		-7.812500
2169		0.000000
2170		-5.859375
2171		0.000000
2172		-3.906250
2173		0.000000
2174		-1.953125
2175		0.000000
2176		-3.906250
2177		3.906250
2178		-1.953125
2179		5.859375
2180		-1.953125
2181		5.859375
2182		0.000000
2183		7.812500
2184		0.000000
2185		7.812500
2186		1.953125
2187		9.765625
2188		1.953125
2189		9.765625
2190		5.859375
2191		9.765625
2192		5.859375
2193		13.671875
2194		5.859375
2195		15.625000
2196		7.812500
2197		15.625000
2198		7.812500
2199		15.625000
2200		9.765625
2201		17.578125
2202		11.718750
2203		17.578125
2204		11.718750
2205		19.531250
2206		15.625000
2207		17.578125
2208		17.578125
2209		19.531250
2210		15.625000
2211		23.437500
2212		15.625000
2213		25.390625
2214		17.578125
2215		25.390625
2216		17.578125
2217		25.390625
2218		19.531250
2219		27.343750
2220		19.531250
2221		27.343750
2222		21.484375
2223		27.343750
2224		25.390625
2225		27.343750
2226		23.437500
2227		31.250000
2228		23.437500
2229		31.250000
2230		25.390625
2231		31.250000
2232		25.390625
2233		33.203125
2234		25.390625
2235		33.203125
2236		27.343750
2237		35.156250
2238		27.343750
2239		35.156250
2240		29.296875
2241		33.203125
2242		31.250000
2243		33.203125
2244		29.296875
2245		37.109375
2246		29.296875
2247		37.109375
2248		29.296875
2249		37.109375
2250		29.296875
2251		37.109375
2252		29.296875
2253		37.109375
2254		31.250000
2255		37.109375
2256		31.250000
2257		37.109375
2258		33.203125
2259		35.156250
2260		31.250000
2261		39.062500
2262		31.250000
2263		39.062500
2264		31.250000
2265		37.109375
2266		31.250000
2267		37.109375
2268		31.250000
2269		39.062500
2270		29.296875
2271		37.109375
2272		31.250000
2273		37.109375
2274		33.203125
2275		35.156250
2276		31.250000
2277		35.156250
2278		29.296875
2279		37.109375
2280		29.296875
2281		35.156250
2282		27.343750
2283		35.156250
2284		27.343750
2285		35.156250
2286		27.343750
2287		35.156250
2288		27.343750
2289		33.203125
2290		27.343750
2291		31.250000
2292		27.343750
2293		29.296875
2294		23.437500
2295		31.250000
2296		23.437500
2297		31.250000
2298		23.437500
2299		29.296875
2300		21.484375
2301		29.296875
2302		19.531250
2303		27.343750
2304		19.531250
2305		27.343750
2306		19.531250
2307		25.390625
2308		19.531250
2309		23.437500
2310		17.578125
2311		23.437500
2312		15.625000
2313		23.437500
2314		13.671875
2315		21.484375
2316		13.671875
2317		21.484375
2318		11.718750
2319		19.531250
2320		11.718750
2321		19.531250
2322		9.765625
2323		17.578125
2324		11.718750
2325		13.671875
2326		9.765625
2327		13.671875
2328		5.859375
2329		13.671875
2330		5.859375
2331		13.671875
2332		3.906250
2333		11.718750
2334		3.906250
2335		9.765625
2336		1.953125
2337		9.765625
2338		1.953125
2339		7.812500
2340		1.953125
2341		7.812500
2342		1.953125
2343		3.906250
2344		-1.953125
2345		3.906250
2346		-1.953125
2347		5.859375
2348		-3.906250
2349		3.906250
2350		-5.859375
2351		1.953125
2352		-5.859375
2353		1.953125
2354		-7.812500
2355		0.000000
2356		-7.812500
2357		0.000000
2358		-5.859375
2359		-3.906250
2360		-7.812500
2361		-3.906250
2362		-9.765625
2363		-3.906250
2364		-11.718750
2365		-3.906250
2366		-11.718750
2367		-3.906250
2368		-11.718750
2369		-3.906250
2370		-13.671875
2371		-5.859375
2372		-13.671875
2373		-5.859375
2374		-11.718750
2375		-7.812500
2376		-11.718750
2377		-9.765625
2378		-13.671875
2379		-7.812500
2380		-15.625000
2381		-7.812500
2382		-15.625000
2383		-7.812500
2384		-15.625000
2385		-7.812500
2386		-15.625000
2387		-7.812500
2388		-15.625000
2389		-7.812500
2390		-15.625000
2391		-7.812500
2392		-11.718750
2393		-9.765625
2394		-13.671875
2395		-7.812500
2396		-15.625000
2397		-7.812500
2398		-13.671875
2399		-7.812500
2400		-13.671875
2401		-7.812500
2402		-13.671875
2403		-5.859375
2404		-13.671875
2405		-5.859375
2406		-13.671875
2407		-5.859375
2408		-9.765625
2409		-7.812500
2410		-9.765625
2411		-5.859375
2412		-11.718750
2413		-3.906250
2414		-11.718750
2415		-3.906250
2416		-9.765625
2417		-1.953125
2418		-9.765625
2419		-1.953125
2420		-7.812500
2421		0.000000
2422		-7.812500
2423		0.000000
2424		-5.859375
2425		0.000000
2426		-3.906250
2427		0.000000
2428		-3.906250
2429		1.953125
2430		-3.906250
2431		3.906250
2432		-1.953125
2433		5.859375
2434		-1.953125
2435		5.859375
2436		0.000000
2437		7.812500
2438		0.000000
2439		7.812500
2440		1.953125
2441		9.765625
2442		5.859375
2443		7.812500
2444		5.859375
2445		9.765625
2446		5.859375
2447		13.671875
2448		5.859375
2449		13.671875
2450		7.812500
2451		15.625000
2452		7.812500
2453		15.625000
2454		9.765625
2455		17.578125
2456		11.718750
2457		17.578125
2458		13.671875
2459		17.578125
2460		15.625000
2461		19.531250
2462		15.625000
2463		21.484375
2464		15.625000
2465		23.437500
2466		17.578125
2467		23.437500
2468		17.578125
2469		25.390625
2470		17.578125
2471		25.390625
2472		19.531250
2473		27.343750
2474		19.531250
2475		27.343750
2476		23.437500
2477		27.343750
2478		23.437500
2479		29.296875
2480		23.437500
2481		31.250000
2482		23.437500
2483		31.250000
2484		25.390625
2485		33.203125
2486		25.390625
2487		33.203125
2488		25.390625
2489		33.203125
2490		27.343750
2491		35.156250
2492		29.296875
2493		33.203125
2494		31.250000
2495		33.203125
2496		27.343750
2497		35.156250
2498		29.296875
2499		37.109375
2500		29.296875
2501		37.109375
2502		29.296875
2503		37.109375
2504		29.296875
2505		37.109375
2506		29.296875
2507		37.109375
2508		29.296875
2509		37.109375
2510		33.203125
2511		35.156250
2512		31.250000
2513		39.062500
2514		31.250000
2515		37.109375
2516		31.250000
2517		39.062500
2518		31.250000
2519		39.062500
2520		29.296875
2521		37.109375
2522		31.250000
2523		37.109375
2524		29.296875
2525		37.109375
2526		33.203125
2527		35.156250
2528		31.250000
2529		35.156250
2530		29.296875
2531		37.109375
2532		29.296875
2533		37.109375
2534		29.296875
2535		37.109375
2536		27.343750
2537		35.156250
2538		27.343750
2539		35.156250
2540		27.343750
2541		35.156250
2542		29.296875
2543		31.250000
2544		27.343750
2545		31.250000
2546		25.390625
2547		31.250000
2548		23.437500
2549		31.250000
2550		23.437500
2551		31.250000
2552		21.484375
2553		29.296875
2554		21.484375
2555		29.296875
2556		21.484375
2557		29.296875
2558		21.484375
2559		27.343750
2560		21.484375
2561		23.437500
2562		17.578125
2563		23.437500
2564		15.625000
2565		23.437500
2566		15.625000
2567		23.437500
2568		15.625000
2569		21.484375
2570		13.671875
2571		19.531250
2572		11.718750
2573		19.531250
2574		11.718750
2575		19.531250
2576		11.718750
2577		15.625000
2578		11.718750
2579		15.625000
2580		7.812500
2581		13.671875
2582		5.859375
2583		13.671875
2584		3.906250
2585		13.671875
2586		3.906250
2587		11.718750
2588		1.953125
2589		9.765625
2590		1.953125
2591		9.765625
2592		1.953125
2593		7.812500
2594		1.953125
2595		5.859375
2596		-1.953125
2597		5.859375
2598		-1.953125
2599		5.859375
2600		-1.953125
2601		3.906250
2602		-3.906250
2603		3.906250
2604		-5.859375
2605		1.953125
2606		-5.859375
2607		1.953125
2608		-5.859375
2609		0.000000
2610		-5.859375
2611		-1.953125
2612		-5.859375
2613		-3.906250
2614		-9.765625
2615		-1.953125
2616		-9.765625
2617		-1.953125
2618		-11.718750
2619		-3.906250
2620		-11.718750
2621		-3.906250
2622		-13.671875
2623		-3.906250
2624		-11.718750
2625		-5.859375
2626		-11.718750
2627		-7.812500
2628		-11.718750
2629		-7.812500
2630		-13.671875
2631		-7.812500
2632		-13.671875
2633		-7.812500
2634		-13.671875
2635		-7.812500
2636		-15.625000
2637		-7.812500
2638		-15.625000
2639		-7.812500
2640		-15.625000
2641		-7.812500
2642		-15.625000
2643		-7.812500
2644		-13.671875
2645		-9.765625
2646		-15.625000
2647		-7.812500
2648		-15.625000
2649		-7.812500
2650		-15.625000
2651		-7.812500
2652		-13.671875
2653		-5.859375
2654		-13.671875
2655		-7.812500
2656		-13.671875
2657		-5.859375
2658		-13.671875
2659		-5.859375
2660		-9.765625
2661		-7.812500
2662		-9.765625
2663		-7.812500
2664		-11.718750
2665		-3.906250
2666		-9.765625
2667		-3.906250
2668		-9.765625
2669		-1.953125
2670		-9.765625
2671		-1.953125
2672		-7.812500
2673		-1.953125
2674		-7.812500
2675		0.000000
2676		-5.859375
2677		0.000000
2678		-3.906250
2679		0.000000
2680		-3.906250
2681		1.953125
2682		-3.906250
2683		3.906250
2684		-3.906250
2685		5.859375
2686		-1.953125
2687		5.859375
2688		0.000000
2689		7.812500
2690		0.000000
2691		7.812500
2692		0.000000
2693		7.812500
2694		3.906250
2695		7.812500
2696		5.859375
2697		7.812500
2698		3.906250
2699		13.671875
2700		5.859375
2701		13.671875
2702		7.812500
2703		13.671875
2704		7.812500
2705		15.625000
2706		7.812500
2707		15.625000
2708		9.765625
2709		17.578125
2710		13.671875
2711		17.578125
2712		15.625000
2713		17.578125
2714		13.671875
2715		21.484375
2716		13.671875
2717		23.437500
2718		17.578125
2719		23.437500
2720		17.578125
2721		23.437500
2722		17.578125
2723		25.390625
2724		19.531250
2725		27.343750
2726		19.531250
2727		27.343750
2728		23.437500
2729		27.343750
2730		23.437500
2731		27.343750
2732		23.437500
2733		29.296875
2734		23.437500
2735		31.250000
2736		23.437500
2737		31.250000
2738		25.390625
2739		31.250000
2740		25.390625
2741		31.250000
2742		27.343750
2743		33.203125
2744		29.296875
2745		31.250000
2746		29.296875
2747		33.203125
2748		27.343750
2749		35.156250
2750		27.343750
2751		35.156250
2752		29.296875
2753		35.156250
2754		29.296875
2755		37.109375
2756		29.296875
2757		37.109375
2758		31.250000
2759		37.109375
2760		31.250000
2761		35.156250
2762		33.203125
2763		35.156250
2764		33.203125
2765		37.109375
2766		31.250000
2767		37.109375
2768		31.250000
2769		37.109375
2770		33.203125
2771		35.156250
2772		33.203125
2773		35.156250
2774		31.250000
2775		35.156250
2776		31.250000
2777		35.156250
2778		33.203125
2779		35.156250
2780		31.250000
2781		35.156250
2782		29.296875
2783		37.109375
2784		29.296875
2785		35.156250
2786		31.250000
2787		35.156250
2788		29.296875
2789		33.203125
2790		29.296875
2791		33.203125
2792		29.296875
2793		31.250000
2794		29.296875
2795		33.203125
2796		27.343750
2797		31.250000
2798		27.343750
2799		31.250000
2800		25.390625
2801		29.296875
2802		25.390625
2803		29.296875
2804		25.390625
2805		29.296875
2806		23.437500
2807		27.343750
2808		23.437500
2809		25.390625
2810		21.484375
2811		25.390625
2812		21.484375
2813		23.437500
2814		17.578125
2815		23.437500
2816		19.531250
2817		21.484375
2818		17.578125
2819		21.484375
2820		17.578125
2821		19.531250
2822		15.625000
2823		19.531250
2824		13.671875
2825		17.578125
2826		11.718750
2827		17.578125
2828		13.671875
2829		15.625000
2830		11.718750
2831		13.671875
2832		9.765625
2833		13.671875
2834		9.765625
2835		11.718750
2836		7.812500
2837		11.718750
2838		5.859375
2839		9.765625
2840		5.859375
2841		9.765625
2842		3.906250
2843		7.812500
2844		1.953125
2845		7.812500
2846		1.953125
2847		5.859375
2848		0.000000
2849		3.906250
2850		0.000000
2851		3.906250
2852		-1.953125
2853		1.953125
2854		-1.953125
2855		1.953125
2856		-3.906250
2857		0.000000
2858		-3.906250
2859		0.000000
2860		-5.859375
2861		-1.953125
2862		-5.859375
2863		-1.953125
2864		-5.859375
2865		-3.906250
2866		-7.812500
2867		-3.906250
2868		-7.812500
2869		-3.906250
2870		-9.765625
2871		-5.859375
2872		-9.765625
2873		-7.812500
2874		-9.765625
2875		-7.812500
2876		-11.718750
2877		-7.812500
2878		-11.718750
2879		-7.812500
2880		-11.718750
2881		-9.765625
2882		-13.671875
2883		-7.812500
2884		-13.671875
2885		-9.765625
2886		-13.671875
2887		-9.765625
2888		-13.671875
2889		-9.765625
2890		-13.671875
2891		-9.765625
2892		-13.671875
2893		-9.765625
2894		-13.671875
2895		-9.765625
2896		-13.671875
2897		-9.765625
2898		-13.671875
2899		-9.765625
2900		-13.671875
2901		-9.765625
2902		-13.671875
2903		-9.765625
2904		-13.671875
2905		-9.765625
2906		-11.718750
2907		-7.812500
2908		-11.718750
2909		-9.765625
2910		-11.718750
2911		-7.812500
2912		-11.718750
2913		-7.812500
2914		-9.765625
2915		-7.812500
2916		-9.765625
2917		-5.859375
2918		-9.765625
2919		-5.859375
2920		-9.765625
2921		-5.859375
2922		-7.812500
2923		-5.859375
2924		-7.812500
2925		-3.906250
2926		-5.859375
2927		-1.953125
2928		-5.859375
2929		-1.953125
2930		-3.906250
2931		-1.953125
2932		-3.906250
2933		0.000000
2934		-3.906250
2935		0.000000
2936		-1.953125
2937		1.953125
2938		-1.953125
2939		1.953125
2940		0.000000
2941		3.906250
2942		1.953125
2943		3.906250
2944		1.953125
2945		5.859375
2946		3.906250
2947		7.812500
2948		3.906250
2949		7.812500
2950		3.906250
2951		9.765625
2952		7.812500
2953		9.765625
2954		7.812500
2955		11.718750
2956		9.765625
2957		11.718750
2958		9.765625
2959		13.671875
2960		11.718750
2961		15.625000
2962		11.718750
2963		15.625000
2964		13.671875
2965		17.578125
2966		13.671875
2967		17.578125
2968		15.625000
2969		19.531250
2970		17.578125
2971		21.484375
2972		17.578125
2973		21.484375
2974		19.531250
2975		23.437500
2976		19.531250
2977		23.437500
2978		19.531250
2979		25.390625
2980		21.484375
2981		25.390625
2982		23.437500
2983		27.343750
2984		23.437500
2985		27.343750
2986		23.437500
2987		27.343750
2988		25.390625
2989		29.296875
2990		25.390625
2991		29.296875
2992		27.343750
2993		31.250000
2994		27.343750
2995		31.250000
2996		29.296875
2997		31.250000
2998		29.296875
2999		31.250000
3000		29.296875
3001		33.203125
3002		29.296875
3003		33.203125
3004		29.296875
3005		35.156250
3006		29.296875
3007		35.156250
3008		31.250000
3009		35.156250
3010		31.250000
3011		35.156250
3012		31.250000
3013		35.156250
3014		33.203125
3015		35.156250
3016		31.250000
3017		37.109375
3018		31.250000
3019		35.156250
3020		31.250000
3021		37.109375
3022		33.203125
3023		35.156250
3024		31.250000
3025		35.156250
3026		31.250000
3027		35.156250
3028		31.250000
3029		35.156250
3030		31.250000
3031		35.156250
3032		31.250000
3033		35.156250
3034		31.250000
3035		35.156250
3036		29.296875
3037		35.156250
3038		31.250000
3039		33.203125
3040		31.250000
3041		33.203125
3042		29.296875
3043		33.203125
3044		29.296875
3045		33.203125
3046		27.343750
3047		33.203125
3048		27.343750
3049		31.250000
3050		27.343750
3051		31.250000
3052		27.343750
3053		29.296875
3054		25.390625
3055		29.296875
3056		25.390625
3057		27.343750
3058		23.437500
3059		27.343750
3060		23.437500
3061		27.343750
3062		21.484375
3063		25.390625
3064		21.484375
3065		25.390625
3066		19.531250
3067		23.437500
3068		17.578125
3069		23.437500
3070		17.578125
3071		21.484375
3072		17.578125
3073		21.484375
3074		15.625000
3075		19.531250
3076		15.625000
3077		19.531250
3078		13.671875
3079		17.578125
3080		13.671875
3081		15.625000
3082		11.718750
3083		15.625000
3084		9.765625
3085		15.625000
3086		9.765625
3087		13.671875
3088		7.812500
3089		11.718750
3090		7.812500
3091		11.718750
3092		5.859375
3093		9.765625
3094		3.906250
3095		7.812500
3096		3.906250
3097		7.812500
3098		1.953125
3099		5.859375
3100		0.000000
3101		3.906250
3102		0.000000
3103		3.906250
3104		0.000000
3105		1.953125
3106		-1.953125
3107		1.953125
3108		-1.953125
3109		0.000000
3110		-3.906250
3111		0.000000
3112		-5.859375
3113		-1.953125
3114		-5.859375
3115		-1.953125
3116		-5.859375
3117		-3.906250
3118		-7.812500
3119		-1.953125
3120		-7.812500
3121		-3.906250
3122		-9.765625
3123		-3.906250
3124		-9.765625
3125		-5.859375
3126		-9.765625
3127		-7.812500
3128		-11.718750
3129		-7.812500
3130		-11.718750
3131		-7.812500
3132		-11.718750
3133		-9.765625
3134		-13.671875
3135		-7.812500
3136		-13.671875
3137		-9.765625
3138		-13.671875
3139		-9.765625
3140		-13.671875
3141		-9.765625
3142		-13.671875
3143		-9.765625
3144		-13.671875
3145		-9.765625
3146		-13.671875
3147		-9.765625
3148		-13.671875
3149		-11.718750
3150		-15.625000
3151		-7.812500
3152		-15.625000
3153		-9.765625
3154		-13.671875
3155		-9.765625
3156		-13.671875
3157		-9.765625
3158		-13.671875
3159		-9.765625
3160		-13.671875
3161		-9.765625
3162		-13.671875
3163		-7.812500
3164		-11.718750
3165		-9.765625
3166		-11.718750
3167		-7.812500
3168		-11.718750
3169		-5.859375
3170		-11.718750
3171		-7.812500
3172		-9.765625
3173		-5.859375
3174		-9.765625
3175		-5.859375
3176		-7.812500
3177		-3.906250
3178		-7.812500
3179		-3.906250
3180		-5.859375
3181		-3.906250
3182		-5.859375
3183		-1.953125
3184		-3.906250
3185		-1.953125
3186		-3.906250
3187		0.000000
3188		-3.906250
3189		0.000000
3190		-1.953125
3191		1.953125
3192		-1.953125
3193		1.953125
3194		0.000000
3195		3.906250
3196		0.000000
3197		5.859375
3198		1.953125
3199		5.859375
3200		3.906250
3201		5.859375
3202		3.906250
3203		7.812500
3204		5.859375
3205		9.765625
3206		5.859375
3207		9.765625
3208		7.812500
3209		11.718750
3210		7.812500
3211		11.718750
3212		9.765625
3213		13.671875
3214		11.718750
3215		15.625000
3216		13.671875
3217		15.625000
3218		13.671875
3219		17.578125
3220		15.625000
3221		17.578125
3222		15.625000
3223		19.531250
3224		15.625000
3225		19.531250
3226		17.578125
3227		21.484375
3228		19.531250
3229		23.437500
3230		19.531250
3231		23.437500
3232		21.484375
3233		23.437500
3234		21.484375
3235		25.390625
3236		21.484375
3237		25.390625
3238		23.437500
3239		27.343750
3240		23.437500
3241		27.343750
3242		25.390625
3243		27.343750
3244		25.390625
3245		29.296875
3246		27.343750
3247		29.296875
3248		27.343750
3249		31.250000
3250		27.343750
3251		31.250000
3252		29.296875
3253		31.250000
3254		29.296875
3255		33.203125
3256		29.296875
3257		33.203125
3258		29.296875
3259		33.203125
3260		31.250000
3261		33.203125
3262		29.296875
3263		35.156250
3264		31.250000
3265		35.156250
3266		31.250000
3267		33.203125
3268		31.250000
3269		35.156250
3270		31.250000
3271		35.156250
3272		31.250000
3273		35.156250
3274		31.250000
3275		35.156250
3276		31.250000
3277		35.156250
3278		31.250000
3279		35.156250
3280		31.250000
3281		35.156250
3282		31.250000
3283		35.156250
3284		31.250000
3285		35.156250
3286		29.296875
3287		35.156250
3288		31.250000
3289		33.203125
3290		29.296875
3291		33.203125
3292		29.296875
3293		33.203125
3294		29.296875
3295		33.203125
3296		27.343750
3297		33.203125
3298		27.343750
3299		31.250000
3300		27.343750
3301		31.250000
3302		25.390625
3303		31.250000
3304		25.390625
3305		29.296875
3306		25.390625
3307		29.296875
3308		25.390625
3309		27.343750
3310		23.437500
3311		27.343750
3312		23.437500
3313		25.390625
3314		21.484375
3315		25.390625
3316		21.484375
3317		23.437500
3318		19.531250
3319		23.437500
3320		19.531250
3321		23.437500
3322		17.578125
3323		21.484375
3324		15.625000
3325		21.484375
3326		15.625000
3327		19.531250
3328		15.625000
3329		17.578125
3330		13.671875
3331		17.578125
3332		11.718750
3333		17.578125
3334		11.718750
3335		15.625000
3336		9.765625
3337		13.671875
3338		9.765625
3339		11.718750
3340		7.812500
3341		11.718750
3342		7.812500
3343		9.765625
3344		5.859375
3345		9.765625
3346		5.859375
3347		7.812500
3348		3.906250
3349		5.859375
3350		3.906250
3351		5.859375
3352		0.000000
3353		5.859375
3354		0.000000
3355		3.906250
3356		-1.953125
3357		3.906250
3358		-1.953125
3359		1.953125
3360		-1.953125
3361		0.000000
3362		-3.906250
3363		0.000000
3364		-5.859375
3365		-1.953125
3366		-5.859375
3367		-1.953125
3368		-5.859375
3369		-3.906250
3370		-7.812500
3371		-3.906250
3372		-7.812500
3373		-3.906250
3374		-9.765625
3375		-5.859375
3376		-9.765625
3377		-5.859375
3378		-11.718750
3379		-7.812500
3380		-11.718750
3381		-7.812500
3382		-11.718750
3383		-7.812500
3384		-11.718750
3385		-9.765625
3386		-13.671875
3387		-9.765625
3388		-13.671875
3389		-9.765625
3390		-13.671875
3391		-9.765625
3392		-13.671875
3393		-9.765625
3394		-13.671875
3395		-9.765625
3396		-13.671875
3397		-11.718750
3398		-15.625000
3399		-9.765625
3400		-13.671875
3401		-11.718750
3402		-13.671875
3403		-11.718750
3404		-15.625000
3405		-9.765625
3406		-13.671875
3407		-11.718750
3408		-13.671875
3409		-11.718750
3410		-13.671875
3411		-9.765625
3412		-13.671875
3413		-9.765625
3414		-13.671875
3415		-9.765625
3416		-11.718750
3417		-9.765625
3418		-11.718750
3419		-9.765625
3420		-11.718750
3421		-7.812500
3422		-11.718750
3423		-7.812500
3424		-9.765625
3425		-7.812500
3426		-9.765625
3427		-5.859375
3428		-9.765625
3429		-5.859375
3430		-7.812500
3431		-3.906250
3432		-7.812500
3433		-3.906250
3434		-5.859375
3435		-3.906250
3436		-5.859375
3437		-1.953125
3438		-5.859375
3439		-1.953125
3440		-3.906250
3441		0.000000
3442		-1.953125
3443		0.000000
3444		-1.953125
3445		1.953125
3446		-1.953125
3447		1.953125
3448		0.000000
3449		3.906250
3450		1.953125
3451		3.906250
3452		1.953125
3453		5.859375
3454		3.906250
3455		7.812500
3456		3.906250
3457		7.812500
3458		5.859375
3459		9.765625
3460		7.812500
3461		9.765625
3462		7.812500
3463		11.718750
3464		7.812500
3465		11.718750
3466		9.765625
3467		13.671875
3468		11.718750
3469		15.625000
3470		13.671875
3471		17.578125
3472		13.671875
3473		17.578125
3474		15.625000
3475		17.578125
3476		15.625000
3477		19.531250
3478		17.578125
3479		21.484375
3480		17.578125
3481		21.484375
3482		19.531250
3483		23.437500
3484		19.531250
3485		23.437500
3486		21.484375
3487		23.437500
3488		21.484375
3489		25.390625
3490		23.437500
3491		27.343750
3492		23.437500
3493		27.343750
3494		25.390625
3495		29.296875
3496		25.390625
3497		29.296875
3498		25.390625
3499		29.296875
3500		25.390625
3501		29.296875
3502		27.343750
3503		31.250000
3504		27.343750
3505		31.250000
3506		29.296875
3507		33.203125
3508		29.296875
3509		33.203125
3510		29.296875
3511		33.203125
3512		31.250000
3513		33.203125
3514		31.250000
3515		33.203125
3516		31.250000
3517		35.156250
3518		31.250000
3519		35.156250
3520		31.250000
3521		35.156250
3522		31.250000
3523		35.156250
3524		31.250000
3525		35.156250
3526		31.250000
3527		35.156250
3528		31.250000
3529		35.156250
3530		31.250000
3531		35.156250
3532		31.250000
3533		35.156250
3534		31.250000
3535		33.203125
3536		31.250000
3537		33.203125
3538		29.296875
3539		35.156250
3540		31.250000
3541		33.203125
3542		29.296875
3543		33.203125
3544		31.250000
3545		33.203125
3546		29.296875
3547		33.203125
3548		29.296875
3549		33.203125
3550		29.296875
3551		33.203125
3552		27.343750
3553		31.250000
3554		25.390625
3555		31.250000
3556		27.343750
3557		31.250000
3558		25.390625
3559		29.296875
3560		25.390625
3561		29.296875
3562		23.437500
3563		27.343750
3564		23.437500
3565		27.343750
3566		21.484375
3567		27.343750
3568		21.484375
3569		25.390625
3570		21.484375
3571		23.437500
3572		19.531250
3573		23.437500
3574		19.531250
3575		21.484375
3576		17.578125
3577		21.484375
3578		15.625000
3579		19.531250
3580		15.625000
3581		19.531250
3582		13.671875
3583		17.578125
3584		13.671875
3585		17.578125
3586		11.718750
3587		15.625000
3588		11.718750
3589		15.625000
3590		9.765625
3591		13.671875
3592		7.812500
3593		11.718750
3594		7.812500
3595		11.718750
3596		5.859375
3597		9.765625
3598		5.859375
3599		9.765625
3600		3.906250
3601		7.812500
3602		3.906250
3603		5.859375
3604		1.953125
3605		5.859375
3606		1.953125
3607		5.859375
3608		0.000000
3609		3.906250
3610		-1.953125
3611		1.953125
3612		-1.953125
3613		1.953125
3614		-3.906250
3615		0.000000
3616		-5.859375
3617		0.000000
3618		-3.906250
3619		-1.953125
3620		-5.859375
3621		-3.906250
3622		-7.812500
3623		-3.906250
3624		-7.812500
3625		-3.906250
3626		-9.765625
3627		-5.859375
3628		-9.765625
3629		-5.859375
3630		-9.765625
3631		-5.859375
3632		-11.718750
3633		-7.812500
3634		-11.718750
3635		-7.812500
3636		-11.718750
3637		-9.765625
3638		-13.671875
3639		-9.765625
3640		-13.671875
3641		-9.765625
3642		-13.671875
3643		-9.765625
3644		-13.671875
3645		-11.718750
3646		-13.671875
3647		-9.765625
3648		-13.671875
3649		-11.718750
3650		-15.625000
3651		-9.765625
3652		-13.671875
3653		-11.718750
3654		-13.671875
3655		-11.718750
3656		-15.625000
3657		-11.718750
3658		-13.671875
3659		-11.718750
3660		-13.671875
3661		-11.718750
3662		-15.625000
3663		-9.765625
3664		-13.671875
3665		-9.765625
3666		-13.671875
3667		-9.765625
3668		-13.671875
3669		-9.765625
3670		-11.718750
3671		-9.765625
3672		-13.671875
3673		-7.812500
3674		-11.718750
3675		-7.812500
3676		-11.718750
3677		-7.812500
3678		-11.718750
3679		-5.859375
3680		-9.765625
3681		-5.859375
3682		-9.765625
3683		-5.859375
3684		-7.812500
3685		-3.906250
3686		-7.812500
3687		-3.906250
3688		-7.812500
3689		-1.953125
3690		-5.859375
3691		-1.953125
3692		-5.859375
3693		-1.953125
3694		-3.906250
3695		0.000000
3696		-1.953125
3697		0.000000
3698		-1.953125
3699		1.953125
3700		0.000000
3701		3.906250
3702		0.000000
3703		3.906250
3704		1.953125
3705		3.906250
3706		1.953125
3707		5.859375
3708		3.906250
3709		7.812500
3710		3.906250
3711		9.765625
3712		5.859375
3713		9.765625
3714		7.812500
3715		11.718750
3716		7.812500
3717		11.718750
3718		7.812500
3719		13.671875
3720		11.718750
3721		13.671875
3722		11.718750
3723		15.625000
3724		11.718750
3725		17.578125
3726		13.671875
3727		17.578125
3728		13.671875
3729		17.578125
3730		15.625000
3731		19.531250
3732		17.578125
3733		19.531250
3734		17.578125
3735		21.484375
3736		19.531250
3737		21.484375
3738		21.484375
3739		23.437500
3740		21.484375
3741		25.390625
3742		21.484375
3743		25.390625
3744		21.484375
3745		27.343750
3746		23.437500
3747		27.343750
3748		23.437500
3749		27.343750
3750		25.390625
3751		29.296875
3752		25.390625
3753		29.296875
3754		27.343750
3755		29.296875
3756		25.390625
3757		31.250000
3758		27.343750
3759		31.250000
3760		29.296875
3761		33.203125
3762		29.296875
3763		33.203125
3764		29.296875
3765		33.203125
3766		29.296875
3767		33.203125
3768		31.250000
3769		33.203125
3770		31.250000
3771		33.203125
3772		31.250000
3773		33.203125
3774		29.296875
3775		35.156250
3776		31.250000
3777		33.203125
3778		31.250000
3779		35.156250
3780		31.250000
3781		35.156250
3782		31.250000
3783		35.156250
3784		31.250000
3785		35.156250
3786		31.250000
3787		33.203125
3788		31.250000
3789		33.203125
3790		31.250000
3791		35.156250
3792		31.250000
3793		33.203125
3794		29.296875
3795		33.203125
3796		29.296875
3797		33.203125
3798		29.296875
3799		33.203125
3800		29.296875
3801		33.203125
3802		27.343750
3803		31.250000
3804		27.343750
3805		31.250000
3806		27.343750
3807		31.250000
3808		25.390625
3809		29.296875
3810		25.390625
3811		29.296875
3812		25.390625
3813		29.296875
3814		23.437500
3815		27.343750
3816		23.437500
3817		27.343750
3818		21.484375
3819		27.343750
3820		21.484375
3821		25.390625
3822		21.484375
3823		23.437500
3824		19.531250
3825		23.437500
3826		19.531250
3827		23.437500
3828		17.578125
3829		21.484375
3830		17.578125
3831		19.531250
3832		15.625000
3833		19.531250
3834		15.625000
3835		19.531250
3836		13.671875
3837		17.578125
3838		13.671875
3839		15.625000
3840		11.718750
3841		15.625000
3842		9.765625
3843		13.671875
3844		9.765625
3845		13.671875
3846		7.812500
3847		11.718750
3848		5.859375
3849		9.765625
3850		5.859375
3851		9.765625
3852		3.906250
3853		7.812500
3854		3.906250
3855		5.859375
3856		1.953125
3857		5.859375
3858		0.000000
3859		5.859375
3860		0.000000
3861		3.906250
3862		0.000000
3863		1.953125
3864		-1.953125
3865		1.953125
3866		-1.953125
3867		0.000000
3868		-3.906250
3869		0.000000
3870		-5.859375
3871		-1.953125
3872		-5.859375
3873		-1.953125
3874		-5.859375
3875		-3.906250
3876		-7.812500
3877		-3.906250
3878		-9.765625
3879		-5.859375
3880		-9.765625
3881		-5.859375
3882		-9.765625
3883		-7.812500
3884		-9.765625
3885		-5.859375
3886		-11.718750
3887		-7.812500
3888		-11.718750
3889		-9.765625
3890		-13.671875
3891		-9.765625
3892		-13.671875
3893		-9.765625
3894		-13.671875
3895		-9.765625
3896		-13.671875
3897		-9.765625
3898		-13.671875
3899		-11.718750
3900		-15.625000
3901		-11.718750
3902		-15.625000
3903		-11.718750
3904		-15.625000
3905		-11.718750
3906		-13.671875
3907		-11.718750
3908		-15.625000
3909		-11.718750
3910		-15.625000
3911		-11.718750
3912		-13.671875
3913		-11.718750
3914		-13.671875
3915		-11.718750
3916		-13.671875
3917		-9.765625
3918		-13.671875
3919		-9.765625
3920		-13.671875
3921		-9.765625
3922		-13.671875
3923		-9.765625
3924		-13.671875
3925		-7.812500
3926		-11.718750
3927		-9.765625
3928		-11.718750
3929		-7.812500
3930		-9.765625
3931		-7.812500
3932		-9.765625
3933		-7.812500
3934		-9.765625
3935		-5.859375
3936		-9.765625
3937		-3.906250
3938		-7.812500
3939		-5.859375
3940		-7.812500
3941		-3.906250
3942		-5.859375
3943		-1.953125
3944		-5.859375
3945		-1.953125
3946		-3.906250
3947		-1.953125
3948		-3.906250
3949		0.000000
3950		-1.953125
3951		0.000000
3952		-1.953125
3953		1.953125
3954		-1.953125
3955		3.906250
3956		0.000000
3957		3.906250
3958		1.953125
3959		5.859375
3960		1.953125
3961		5.859375
3962		3.906250
3963		7.812500
3964		5.859375
3965		9.765625
3966		5.859375
3967		9.765625
3968		7.812500
3969		11.718750
3970		7.812500
3971		11.718750
3972		9.765625
3973		13.671875
3974		11.718750
3975		15.625000
3976		11.718750
3977		15.625000
3978		13.671875
3979		15.625000
3980		13.671875
3981		17.578125
3982		15.625000
3983		19.531250
3984		15.625000
3985		19.531250
3986		17.578125
3987		21.484375
3988		19.531250
3989		21.484375
3990		19.531250
3991		23.437500
3992		19.531250
3993		25.390625
3994		21.484375
3995		25.390625
3996		21.484375
3997		25.390625
3998		23.437500
3999		27.343750
4000		23.437500
4001		27.343750
4002		25.390625
4003		27.343750
4004		25.390625
4005		29.296875
4006		27.343750
4007		29.296875
4008		27.343750
4009		31.250000
4010		27.343750
4011		31.250000
4012		27.343750
4013		31.250000
4014		29.296875
4015		33.203125
4016		29.296875
4017		33.203125
4018		29.296875
4019		33.203125
4020		29.296875
4021		33.203125
4022		31.250000
4023		33.203125
4024		31.250000
4025		33.203125
4026		31.250000
4027		33.203125
4028		31.250000
4029		35.156250
4030		31.250000
4031		35.156250
4032		31.250000
4033		35.156250
4034		31.250000
4035		35.156250
4036		31.250000
4037		35.156250
4038		31.250000
4039		35.156250
4040		31.250000
4041		33.203125
4042		29.296875
4043		35.156250
4044		31.250000
4045		33.203125
4046		29.296875
4047		33.203125
4048		31.250000
4049		33.203125
4050		29.296875
4051		33.203125
4052		29.296875
4053		33.203125
4054		29.296875
4055		31.250000
4056		29.296875
4057		31.250000
4058		27.343750
4059		31.250000
4060		27.343750
4061		31.250000
4062		25.390625
4063		29.296875
4064		25.390625
4065		29.296875
4066		25.390625
4067		27.343750
4068		23.437500
4069		27.343750
4070		21.484375
4071		27.343750
4072		23.437500
4073		25.390625
4074		21.484375
4075		23.437500
4076		19.531250
4077		25.390625
4078		19.531250
4079		23.437500
4080		17.578125
4081		21.484375
4082		17.578125
4083		21.484375
4084		15.625000
4085		19.531250
4086		15.625000
4087		19.531250
4088		13.671875
4089		17.578125
4090		13.671875
4091		15.625000
4092		11.718750
4093		15.625000
4094		9.765625
4095		13.671875
4096		9.765625
4097		13.671875
4098		7.812500
4099		11.718750
4100		7.812500
4101		11.718750
4102		5.859375
4103		9.765625
4104		5.859375
4105		9.765625
4106		3.906250
4107		7.812500
4108		3.906250
4109		5.859375
4110		1.953125
4111		5.859375
4112		0.000000
4113		5.859375
4114		0.000000
4115		1.953125
4116		-1.953125
4117		1.953125
4118		-1.953125
4119		0.000000
4120		-3.906250
4121		0.000000
4122		-3.906250
4123		0.000000
4124		-5.859375
4125		-1.953125
4126		-7.812500
4127		-1.953125
4128		-7.812500
4129		-3.906250
4130		-7.812500
4131		-3.906250
4132		-9.765625
4133		-5.859375
4134		-9.765625
4135		-5.859375
4136		-9.765625
4137		-5.859375
4138		-11.718750
4139		-7.812500
4140		-11.718750
4141		-9.765625
4142		-11.718750
4143		-9.765625
4144		-13.671875
4145		-9.765625
4146		-13.671875
4147		-9.765625
4148		-13.671875
4149		-9.765625
4150		-13.671875
4151		-9.765625
4152		-15.625000
4153		-11.718750
4154		-15.625000
4155		-11.718750
4156		-13.671875
4157		-11.718750
4158		-15.625000
4159		-11.718750
4160		-15.625000
4161		-11.718750
4162		-15.625000
4163		-11.718750
4164		-15.625000
4165		-11.718750
4166		-15.625000
4167		-11.718750
4168		-15.625000
4169		-11.718750
4170		-15.625000
4171		-11.718750
4172		-15.625000
4173		-9.765625
4174		-13.671875
4175		-11.718750
4176		-13.671875
4177		-9.765625
4178		-11.718750
4179		-9.765625
4180		-11.718750
4181		-9.765625
4182		-11.718750
4183		-9.765625
4184		-9.765625
4185		-7.812500
4186		-9.765625
4187		-7.812500
4188		-9.765625
4189		-5.859375
4190		-7.812500
4191		-5.859375
4192		-7.812500
4193		-5.859375
4194		-7.812500
4195		-3.906250
4196		-5.859375
4197		-1.953125
4198		-5.859375
4199		-1.953125
4200		-3.906250
4201		-1.953125
4202		-3.906250
4203		0.000000
4204		-1.953125
4205		1.953125
4206		-1.953125
4207		1.953125
4208		0.000000
4209		1.953125
4210		1.953125
4211		5.859375
4212		1.953125
4213		5.859375
4214		3.906250
4215		5.859375
4216		3.906250
4217		7.812500
4218		5.859375
4219		7.812500
4220		5.859375
4221		9.765625
4222		5.859375
4223		11.718750
4224		9.765625
4225		11.718750
4226		9.765625
4227		13.671875
4228		11.718750
4229		13.671875
4230		11.718750
4231		15.625000
4232		13.671875
4233		17.578125
4234		13.671875
4235		17.578125
4236		15.625000
4237		19.531250
4238		15.625000
4239		21.484375
4240		17.578125
4241		21.484375
4242		19.531250
4243		21.484375
4244		19.531250
4245		23.437500
4246		19.531250
4247		23.437500
4248		21.484375
4249		25.390625
4250		21.484375
4251		25.390625
4252		23.437500
4253		27.343750
4254		23.437500
4255		27.343750
4256		23.437500
4257		29.296875
4258		25.390625
4259		29.296875
4260		25.390625
4261		29.296875
4262		25.390625
4263		31.250000
4264		27.343750
4265		31.250000
4266		27.343750
4267		31.250000
4268		29.296875
4269		31.250000
4270		29.296875
4271		31.250000
4272		29.296875
4273		33.203125
4274		29.296875
4275		33.203125
4276		31.250000
4277		33.203125
4278		29.296875
4279		35.156250
4280		31.250000
4281		33.203125
4282		31.250000
4283		33.203125
4284		31.250000
4285		35.156250
4286		31.250000
4287		35.156250
4288		31.250000
4289		35.156250
4290		29.296875
4291		35.156250
4292		31.250000
4293		33.203125
4294		31.250000
4295		35.156250
4296		29.296875
4297		33.203125
4298		29.296875
4299		33.203125
4300		29.296875
4301		33.203125
4302		29.296875
4303		33.203125
4304		29.296875
4305		33.203125
4306		29.296875
4307		33.203125
4308		29.296875
4309		31.250000
4310		27.343750
4311		31.250000
4312		25.390625
4313		31.250000
4314		25.390625
4315		29.296875
4316		25.390625
4317		29.296875
4318		25.390625
4319		29.296875
4320		23.437500
4321		27.343750
4322		23.437500
4323		27.343750
4324		23.437500
4325		25.390625
4326		21.484375
4327		25.390625
4328		19.531250
4329		25.390625
4330		19.531250
4331		23.437500
4332		19.531250
4333		23.437500
4334		17.578125
4335		21.484375
4336		17.578125
4337		19.531250
4338		15.625000
4339		19.531250
4340		13.671875
4341		19.531250
4342		13.671875
4343		17.578125
4344		11.718750
4345		15.625000
4346		11.718750
4347		15.625000
4348		9.765625
4349		13.671875
4350		7.812500
4351		13.671875
4352		7.812500
4353		11.718750
4354		7.812500
4355		11.718750
4356		5.859375
4357		9.765625
4358		5.859375
4359		7.812500
4360		3.906250
4361		5.859375
4362		1.953125
4363		5.859375
4364		0.000000
4365		5.859375
4366		0.000000
4367		3.906250
4368		-1.953125
4369		1.953125
4370		-1.953125
4371		1.953125
4372		-3.906250
4373		1.953125
4374		-3.906250
4375		0.000000
4376		-5.859375
4377		-1.953125
4378		-7.812500
4379		-1.953125
4380		-7.812500
4381		-3.906250
4382		-7.812500
4383		-3.906250
4384		-7.812500
4385		-5.859375
4386		-9.765625
4387		-5.859375
4388		-9.765625
4389		-7.812500
4390		-9.765625
4391		-7.812500
4392		-11.718750
4393		-7.812500
4394		-11.718750
4395		-9.765625
4396		-11.718750
4397		-7.812500
4398		-13.671875
4399		-9.765625
4400		-13.671875
4401		-9.765625
4402		-13.671875
4403		-9.765625
4404		-13.671875
4405		-9.765625
4406		-13.671875
4407		-11.718750
4408		-13.671875
4409		-11.718750
4410		-15.625000
4411		-11.718750
4412		-15.625000
4413		-9.765625
4414		-15.625000
4415		-11.718750
4416		-15.625000
4417		-11.718750
4418		-15.625000
4419		-11.718750
4420		-15.625000
4421		-11.718750
4422		-13.671875
4423		-11.718750
4424		-15.625000
4425		-9.765625
4426		-13.671875
4427		-11.718750
4428		-13.671875
4429		-9.765625
4430		-13.671875
4431		-9.765625
4432		-11.718750
4433		-9.765625
4434		-11.718750
4435		-7.812500
4436		-11.718750
4437		-7.812500
4438		-9.765625
4439		-7.812500
4440		-9.765625
4441		-5.859375
4442		-7.812500
4443		-5.859375
4444		-7.812500
4445		-5.859375
4446		-7.812500
4447		-3.906250
4448		-7.812500
4449		-1.953125
4450		-5.859375
4451		-1.953125
4452		-3.906250
4453		-1.953125
4454		-3.906250
4455		0.000000
4456		-3.906250
4457		1.953125
4458		-1.953125
4459		1.953125
4460		0.000000
4461		3.906250
4462		0.000000
4463		3.906250
4464		1.953125
4465		5.859375
4466		1.953125
4467		5.859375
4468		3.906250
4469		7.812500
4470		5.859375
4471		7.812500
4472		5.859375
4473		9.765625
4474		7.812500
4475		11.718750
4476		7.812500
4477		11.718750
4478		9.765625
4479		11.718750
4480		9.765625
4481		15.625000
4482		11.718750
4483		15.625000
4484		13.671875
4485		15.625000
4486		13.671875
4487		17.578125
4488		15.625000
4489		19.531250
4490		15.625000
4491		19.531250
4492		17.578125
4493		21.484375
4494		19.531250
4495		21.484375
4496		19.531250
4497		23.437500
4498		19.531250
4499		23.437500
4500		21.484375
4501		25.390625
4502		21.484375
4503		25.390625
4504		23.437500
4505		25.390625
4506		23.437500
4507		27.343750
4508		23.437500
4509		27.343750
4510		25.390625
4511		27.343750
4512		25.390625
4513		29.296875
4514		27.343750
4515		31.250000
4516		27.343750
4517		31.250000
4518		27.343750
4519		31.250000
4520		29.296875
4521		33.203125
4522		29.296875
4523		33.203125
4524		29.296875
4525		33.203125
4526		31.250000
4527		33.203125
4528		31.250000
4529		33.203125
4530		29.296875
4531		33.203125
4532		31.250000
4533		33.203125
4534		31.250000
4535		33.203125
4536		31.250000
4537		35.156250
4538		31.250000
4539		35.156250
4540		31.250000
4541		35.156250
4542		31.250000
4543		35.156250
4544		31.250000
4545		33.203125
4546		29.296875
4547		35.156250
4548		31.250000
4549		33.203125
4550		31.250000
4551		35.156250
4552		31.250000
4553		33.203125
4554		29.296875
4555		33.203125
4556		29.296875
4557		33.203125
4558		29.296875
4559		33.203125
4560		29.296875
4561		31.250000
4562		29.296875
4563		31.250000
4564		27.343750
4565		31.250000
4566		27.343750
4567		31.250000
4568		25.390625
4569		29.296875
4570		25.390625
4571		29.296875
4572		25.390625
4573		27.343750
4574		23.437500
4575		27.343750
4576		21.484375
4577		27.343750
4578		23.437500
4579		25.390625
4580		21.484375
4581		25.390625
4582		19.531250
4583		23.437500
4584		19.531250
4585		23.437500
4586		19.531250
4587		21.484375
4588		17.578125
4589		21.484375
4590		17.578125
4591		19.531250
4592		15.625000
4593		19.531250
4594		13.671875
4595		17.578125
4596		11.718750
4597		15.625000
4598		11.718750
4599		15.625000
4600		11.718750
4601		15.625000
4602		9.765625
4603		13.671875
4604		7.812500
4605		11.718750
4606		7.812500
4607		11.718750
4608		5.859375
4609		9.765625
4610		5.859375
4611		7.812500
4612		3.906250
4613		7.812500
4614		1.953125
4615		7.812500
4616		1.953125
4617		3.906250
4618		0.000000
4619		3.906250
4620		0.000000
4621		3.906250
4622		-1.953125
4623		1.953125
4624		-1.953125
4625		0.000000
4626		-3.906250
4627		0.000000
4628		-3.906250
4629		-1.953125
4630		-5.859375
4631		-1.953125
4632		-5.859375
4633		-3.906250
4634		-7.812500
4635		-3.906250
4636		-7.812500
4637		-5.859375
4638		-9.765625
4639		-5.859375
4640		-9.765625
4641		-5.859375
4642		-11.718750
4643		-7.812500
4644		-11.718750
4645		-7.812500
4646		-11.718750
4647		-9.765625
4648		-11.718750
4649		-7.812500
4650		-13.671875
4651		-9.765625
4652		-13.671875
4653		-9.765625
4654		-13.671875
4655		-9.765625
4656		-13.671875
4657		-11.718750
4658		-13.671875
4659		-11.718750
4660		-15.625000
4661		-11.718750
4662		-15.625000
4663		-11.718750
4664		-15.625000
4665		-11.718750
4666		-15.625000
4667		-11.718750
4668		-15.625000
4669		-11.718750
4670		-15.625000
4671		-11.718750
4672		-15.625000
4673		-11.718750
4674		-15.625000
4675		-11.718750
4676		-15.625000
4677		-11.718750
4678		-13.671875
4679		-11.718750
4680		-13.671875
4681		-9.765625
4682		-13.671875
4683		-9.765625
4684		-13.671875
4685		-9.765625
4686		-11.718750
4687		-9.765625
4688		-11.718750
4689		-9.765625
4690		-11.718750
4691		-7.812500
4692		-11.718750
4693		-7.812500
4694		-9.765625
4695		-5.859375
4696		-9.765625
4697		-5.859375
4698		-9.765625
4699		-3.906250
4700		-7.812500
4701		-3.906250
4702		-7.812500
4703		-3.906250
4704		-5.859375
4705		-1.953125
4706		-5.859375
4707		-1.953125
4708		-3.906250
4709		-1.953125
4710		-3.906250
4711		0.000000
4712		-1.953125
4713		0.000000
4714		0.000000
4715		1.953125
4716		0.000000
4717		3.906250
4718		1.953125
4719		5.859375
4720		1.953125
4721		5.859375
4722		3.906250
4723		7.812500
4724		3.906250
4725		7.812500
4726		5.859375
4727		9.765625
4728		7.812500
4729		9.765625
4730		7.812500
4731		11.718750
4732		7.812500
4733		11.718750
4734		9.765625
4735		13.671875
4736		11.718750
4737		15.625000
4738		11.718750
4739		15.625000
4740		13.671875
4741		17.578125
4742		13.671875
4743		17.578125
4744		15.625000
4745		19.531250
4746		17.578125
4747		19.531250
4748		17.578125
4749		23.437500
4750		17.578125
4751		23.437500
4752		19.531250
4753		23.437500
4754		21.484375
4755		25.390625
4756		21.484375
4757		25.390625
4758		23.437500
4759		25.390625
4760		23.437500
4761		27.343750
4762		25.390625
4763		27.343750
4764		25.390625
4765		29.296875
4766		25.390625
4767		29.296875
4768		25.390625
4769		29.296875
4770		27.343750
4771		29.296875
4772		27.343750
4773		31.250000
4774		27.343750
4775		31.250000
4776		27.343750
4777		33.203125
4778		29.296875
4779		31.250000
4780		29.296875
4781		33.203125
4782		29.296875
4783		33.203125
4784		29.296875
4785		33.203125
4786		29.296875
4787		33.203125
4788		31.250000
4789		35.156250
4790		29.296875
4791		35.156250
4792		29.296875
4793		35.156250
4794		31.250000
4795		33.203125
4796		31.250000
4797		33.203125
4798		29.296875
4799		33.203125
4800		31.250000
4801		33.203125
4802		29.296875
4803		33.203125
4804		29.296875
4805		33.203125
4806		29.296875
4807		33.203125
4808		29.296875
4809		33.203125
4810		27.343750
4811		33.203125
4812		29.296875
4813		31.250000
4814		27.343750
4815		31.250000
4816		27.343750
4817		31.250000
4818		27.343750
4819		29.296875
4820		25.390625
4821		29.296875
4822		25.390625
4823		29.296875
4824		25.390625
4825		27.343750
4826		23.437500
4827		27.343750
4828		23.437500
4829		27.343750
4830		21.484375
4831		25.390625
4832		21.484375
4833		25.390625
4834		21.484375
4835		23.437500
4836		19.531250
4837		23.437500
4838		17.578125
4839		21.484375
4840		17.578125
4841		21.484375
4842		17.578125
4843		19.531250
4844		15.625000
4845		19.531250
4846		15.625000
4847		17.578125
4848		13.671875
4849		15.625000
4850		11.718750
4851		17.578125
4852		11.718750
4853		15.625000
4854		9.765625
4855		13.671875
4856		7.812500
4857		11.718750
4858		7.812500
4859		11.718750
4860		5.859375
4861		9.765625
4862		5.859375
4863		7.812500
4864		3.906250
4865		7.812500
4866		1.953125
4867		5.859375
4868		1.953125
4869		5.859375
4870		0.000000
4871		3.906250
4872		0.000000
4873		3.906250
4874		-1.953125
4875		3.906250
4876		-3.906250
4877		1.953125
4878		-1.953125
4879		0.000000
4880		-3.906250
4881		-1.953125
4882		-5.859375
4883		-1.953125
4884		-5.859375
4885		-3.906250
4886		-7.812500
4887		-3.906250
4888		-7.812500
4889		-3.906250
4890		-9.765625
4891		-5.859375
4892		-9.765625
4893		-5.859375
4894		-11.718750
4895		-7.812500
4896		-11.718750
4897		-7.812500
4898		-11.718750
4899		-7.812500
4900		-11.718750
4901		-7.812500
4902		-13.671875
4903		-9.765625
4904		-13.671875
4905		-9.765625
4906		-13.671875
4907		-9.765625
4908		-15.625000
4909		-11.718750
4910		-15.625000
4911		-11.718750
4912		-15.625000
4913		-11.718750
4914		-15.625000
4915		-11.718750
4916		-15.625000
4917		-11.718750
4918		-15.625000
4919		-11.718750
4920		-15.625000
4921		-13.671875
4922		-15.625000
4923		-11.718750
4924		-15.625000
4925		-11.718750
4926		-15.625000
4927		-11.718750
4928		-15.625000
4929		-11.718750
4930		-15.625000
4931		-11.718750
4932		-13.671875
4933		-11.718750
4934		-13.671875
4935		-11.718750
4936		-13.671875
4937		-9.765625
4938		-13.671875
4939		-9.765625
4940		-13.671875
4941		-9.765625
4942		-11.718750
4943		-7.812500
4944		-11.718750
4945		-7.812500
4946		-9.765625
4947		-7.812500
4948		-9.765625
4949		-7.812500
4950		-9.765625
4951		-5.859375
4952		-7.812500
4953		-5.859375
4954		-7.812500
4955		-3.906250
4956		-7.812500
4957		-3.906250
4958		-5.859375
4959		-1.953125
4960		-3.906250
4961		-1.953125
4962		-5.859375
4963		0.000000
4964		-1.953125
4965		0.000000
4966		-1.953125
4967		1.953125
4968		-1.953125
4969		1.953125
4970		0.000000
4971		3.906250
4972		1.953125
4973		5.859375
4974		1.953125
4975		5.859375
4976		3.906250
4977		7.812500
4978		3.906250
4979		9.765625
4980		5.859375
4981		9.765625
4982		7.812500
4983		9.765625
4984		7.812500
4985		11.718750
4986		9.765625
4987		13.671875
4988		9.765625
4989		13.671875
4990		11.718750
4991		15.625000
4992		13.671875
4993		15.625000
4994		13.671875
4995		17.578125
4996		13.671875
4997		19.531250
4998		15.625000
4999		19.531250
5000		17.578125
5001		21.484375
5002		17.578125
5003		21.484375
5004		17.578125
5005		23.437500
5006		19.531250
5007		23.437500
5008		21.484375
5009		25.390625
5010		21.484375
5011		25.390625
5012		23.437500
5013		25.390625
5014		23.437500
5015		27.343750
5016		23.437500
5017		27.343750
5018		23.437500
5019		29.296875
5020		25.390625
5021		29.296875
5022		27.343750
5023		29.296875
5024		27.343750
5025		29.296875
5026		27.343750
5027		31.250000
5028		29.296875
5029		31.250000
5030		29.296875
5031		31.250000
5032		29.296875
5033		31.250000
5034		29.296875
5035		33.203125
5036		29.296875
5037		33.203125
5038		29.296875
5039		33.203125
5040		29.296875
5041		33.203125
5042		29.296875
5043		33.203125
5044		31.250000
5045		33.203125
5046		29.296875
5047		33.203125
5048		31.250000
5049		33.203125
5050		31.250000
5051		33.203125
5052		29.296875
5053		33.203125
5054		29.296875
5055		33.203125
5056		29.296875
5057		33.203125
5058		29.296875
5059		33.203125
5060		29.296875
5061		33.203125
5062		27.343750
5063		33.203125
5064		29.296875
5065		31.250000
5066		27.343750
5067		31.250000
5068		27.343750
5069		31.250000
5070		27.343750
5071		29.296875
5072		25.390625
5073		29.296875
5074		25.390625
5075		29.296875
5076		23.437500
5077		29.296875
5078		23.437500
5079		27.343750
5080		23.437500
5081		27.343750
5082		23.437500
5083		25.390625
5084		21.484375
5085		25.390625
5086		21.484375
5087		23.437500
5088		19.531250
5089		23.437500
5090		19.531250
5091		21.484375
5092		17.578125
5093		21.484375
5094		15.625000
5095		21.484375
5096		15.625000
5097		19.531250
5098		15.625000
5099		17.578125
5100		13.671875
5101		17.578125
5102		11.718750
5103		17.578125
5104		11.718750
5105		15.625000
5106		9.765625
5107		13.671875
5108		9.765625
5109		11.718750
5110		7.812500
5111		11.718750
5112		5.859375
5113		11.718750
5114		5.859375
5115		9.765625
5116		3.906250
5117		7.812500
5118		3.906250
5119		7.812500
5120		1.953125
5121		5.859375
5122		0.000000
5123		5.859375
5124		0.000000
5125		3.906250
5126		-1.953125
5127		1.953125
5128		-1.953125
5129		1.953125
5130		-3.906250
5131		0.000000
5132		-3.906250
5133		-1.953125
5134		-5.859375
5135		-1.953125
5136		-5.859375
5137		-1.953125
5138		-7.812500
5139		-3.906250
5140		-7.812500
5141		-3.906250
5142		-9.765625
5143		-5.859375
5144		-9.765625
5145		-5.859375
5146		-11.718750
5147		-7.812500
5148		-11.718750
5149		-7.812500
5150		-11.718750
5151		-9.765625
5152		-13.671875
5153		-7.812500
5154		-13.671875
5155		-9.765625
5156		-13.671875
5157		-9.765625
5158		-15.625000
5159		-11.718750
5160		-15.625000
5161		-11.718750
5162		-15.625000
5163		-11.718750
5164		-15.625000
5165		-11.718750
5166		-15.625000
5167		-11.718750
5168		-17.578125
5169		-11.718750
5170		-15.625000
5171		-13.671875
5172		-15.625000
5173		-11.718750
5174		-15.625000
5175		-13.671875
5176		-15.625000
5177		-13.671875
5178		-15.625000
5179		-11.718750
5180		-17.578125
5181		-11.718750
5182		-15.625000
5183		-13.671875
5184		-15.625000
5185		-11.718750
5186		-15.625000
5187		-11.718750
5188		-13.671875
5189		-11.718750
5190		-13.671875
5191		-11.718750
5192		-13.671875
5193		-9.765625
5194		-13.671875
5195		-9.765625
5196		-11.718750
5197		-9.765625
5198		-13.671875
5199		-7.812500
5200		-11.718750
5201		-7.812500
5202		-9.765625
5203		-7.812500
5204		-9.765625
5205		-5.859375
5206		-9.765625
5207		-5.859375
5208		-7.812500
5209		-3.906250
5210		-7.812500
5211		-3.906250
5212		-5.859375
5213		-1.953125
5214		-5.859375
5215		-1.953125
5216		-3.906250
5217		0.000000
5218		-3.906250
5219		1.953125
5220		-1.953125
5221		1.953125
5222		0.000000
5223		3.906250
5224		0.000000
5225		3.906250
5226		1.953125
5227		5.859375
5228		1.953125
5229		5.859375
5230		3.906250
5231		7.812500
5232		3.906250
5233		7.812500
5234		5.859375
5235		9.765625
5236		5.859375
5237		11.718750
5238		7.812500
5239		11.718750
5240		9.765625
5241		13.671875
5242		11.718750
5243		13.671875
5244		11.718750
5245		15.625000
5246		13.671875
5247		15.625000
5248		11.718750
5249		17.578125
5250		15.625000
5251		17.578125
5252		15.625000
5253		19.531250
5254		17.578125
5255		21.484375
5256		17.578125
5257		21.484375
5258		19.531250
5259		21.484375
5260		19.531250
5261		23.437500
5262		21.484375
5263		25.390625
5264		21.484375
5265		25.390625
5266		23.437500
5267		25.390625
5268		23.437500
5269		27.343750
5270		23.437500
5271		27.343750
5272		25.390625
5273		27.343750
5274		25.390625
5275		29.296875
5276		27.343750
5277		29.296875
5278		27.343750
5279		31.250000
5280		27.343750
5281		31.250000
5282		27.343750
5283		31.250000
5284		29.296875
5285		31.250000
5286		27.343750
5287		33.203125
5288		29.296875
5289		33.203125
5290		29.296875
5291		33.203125
5292		29.296875
5293		33.203125
5294		29.296875
5295		33.203125
5296		29.296875
5297		33.203125
5298		31.250000
5299		33.203125
5300		29.296875
5301		33.203125
5302		29.296875
5303		33.203125
5304		29.296875
5305		33.203125
5306		29.296875
5307		33.203125
5308		29.296875
5309		33.203125
5310		29.296875
5311		33.203125
5312		29.296875
5313		33.203125
5314		27.343750
5315		33.203125
5316		29.296875
5317		31.250000
5318		29.296875
5319		31.250000
5320		27.343750
5321		31.250000
5322		27.343750
5323		29.296875
5324		25.390625
5325		29.296875
5326		25.390625
5327		29.296875
5328		25.390625
5329		29.296875
5330		25.390625
5331		27.343750
5332		23.437500
5333		27.343750
5334		23.437500
5335		25.390625
5336		21.484375
5337		25.390625
5338		21.484375
5339		25.390625
5340		19.531250
5341		25.390625
5342		19.531250
5343		23.437500
5344		17.578125
5345		21.484375
5346		17.578125
5347		21.484375
5348		15.625000
5349		19.531250
5350		15.625000
5351		19.531250
5352		13.671875
5353		17.578125
5354		13.671875
5355		17.578125
5356		11.718750
5357		15.625000
5358		11.718750
5359		13.671875
5360		9.765625
5361		13.671875
5362		9.765625
5363		11.718750
5364		7.812500
5365		11.718750
5366		5.859375
5367		9.765625
5368		5.859375
5369		7.812500
5370		3.906250
5371		7.812500
5372		1.953125
5373		5.859375
5374		1.953125
5375		5.859375
5376		0.000000
5377		3.906250
5378		0.000000
5379		3.906250
5380		-1.953125
5381		1.953125
5382		-1.953125
5383		1.953125
5384		-3.906250
5385		0.000000
5386		-5.859375
5387		-1.953125
5388		-5.859375
5389		-1.953125
5390		-5.859375
5391		-1.953125
5392		-7.812500
5393		-3.906250
5394		-7.812500
5395		-3.906250
5396		-9.765625
5397		-5.859375
5398		-9.765625
5399		-5.859375
5400		-9.765625
5401		-7.812500
5402		-11.718750
5403		-7.812500
5404		-11.718750
5405		-7.812500
5406		-13.671875
5407		-9.765625
5408		-13.671875
5409		-9.765625
5410		-13.671875
5411		-9.765625
5412		-13.671875
5413		-9.765625
5414		-13.671875
5415		-11.718750
5416		-15.625000
5417		-11.718750
5418		-15.625000
5419		-11.718750
5420		-15.625000
5421		-11.718750
5422		-15.625000
5423		-11.718750
5424		-15.625000
5425		-11.718750
5426		-15.625000
5427		-11.718750
5428		-15.625000
5429		-11.718750
5430		-15.625000
5431		-11.718750
5432		-15.625000
5433		-11.718750
5434		-15.625000
5435		-11.718750
5436		-15.625000
5437		-11.718750
5438		-15.625000
5439		-11.718750
5440		-13.671875
5441		-11.718750
5442		-13.671875
5443		-9.765625
5444		-13.671875
5445		-9.765625
5446		-13.671875
5447		-9.765625
5448		-11.718750
5449		-7.812500
5450		-13.671875
5451		-7.812500
5452		-9.765625
5453		-7.812500
5454		-9.765625
5455		-5.859375
5456		-9.765625
5457		-5.859375
5458		-7.812500
5459		-5.859375
5460		-7.812500
5461		-3.906250
5462		-7.812500
5463		-3.906250
5464		-5.859375
5465		-1.953125
5466		-5.859375
5467		0.000000
5468		-3.906250
5469		0.000000
5470		-1.953125
5471		1.953125
5472		-1.953125
5473		1.953125
5474		0.000000
5475		1.953125
5476		0.000000
5477		3.906250
5478		1.953125
5479		5.859375
5480		1.953125
5481		5.859375
5482		3.906250
5483		7.812500
5484		5.859375
5485		7.812500
5486		5.859375
5487		9.765625
5488		7.812500
5489		9.765625
5490		7.812500
5491		11.718750
5492		9.765625
5493		13.671875
5494		11.718750
5495		13.671875
5496		11.718750
5497		15.625000
5498		13.671875
5499		15.625000
5500		13.671875
5501		17.578125
5502		15.625000
5503		17.578125
5504		15.625000
5505		21.484375
5506		15.625000
5507		21.484375
5508		17.578125
5509		21.484375
5510		19.531250
5511		23.437500
5512		19.531250
5513		23.437500
5514		21.484375
5515		23.437500
5516		21.484375
5517		25.390625
5518		23.437500
5519		25.390625
5520		23.437500
5521		27.343750
5522		23.437500
5523		29.296875
5524		25.390625
5525		29.296875
5526		25.390625
5527		29.296875
5528		25.390625
5529		29.296875
5530		27.343750
5531		31.250000
5532		27.343750
5533		31.250000
5534		27.343750
5535		31.250000
5536		29.296875
5537		31.250000
5538		29.296875
5539		33.203125
5540		29.296875
5541		33.203125
5542		29.296875
5543		33.203125
5544		29.296875
5545		33.203125
5546		29.296875
5547		33.203125
5548		31.250000
5549		33.203125
5550		29.296875
5551		33.203125
5552		31.250000
5553		33.203125
5554		31.250000
5555		33.203125
5556		29.296875
5557		33.203125
5558		29.296875
5559		33.203125
5560		29.296875
5561		33.203125
5562		29.296875
5563		33.203125
5564		29.296875
5565		33.203125
5566		29.296875
5567		33.203125
5568		29.296875
5569		33.203125
5570		29.296875
5571		31.250000
5572		27.343750
5573		31.250000
5574		27.343750
5575		31.250000
5576		27.343750
5577		31.250000
5578		25.390625
5579		31.250000
5580		25.390625
5581		29.296875
5582		25.390625
5583		29.296875
5584		23.437500
5585		27.343750
5586		23.437500
5587		27.343750
5588		21.484375
5589		27.343750
5590		21.484375
5591		25.390625
5592		21.484375
5593		25.390625
5594		21.484375
5595		23.437500
5596		19.531250
5597		23.437500
5598		17.578125
5599		21.484375
5600		17.578125
5601		21.484375
5602		15.625000
5603		19.531250
5604		15.625000
5605		19.531250
5606		13.671875
5607		17.578125
5608		13.671875
5609		15.625000
5610		11.718750
5611		15.625000
5612		9.765625
5613		13.671875
5614		9.765625
5615		15.625000
5616		7.812500
5617		11.718750
5618		7.812500
5619		11.718750
5620		5.859375
5621		9.765625
5622		3.906250
5623		7.812500
5624		3.906250
5625		7.812500
5626		1.953125
5627		5.859375
5628		1.953125
5629		5.859375
5630		0.000000
5631		3.906250
5632		0.000000
5633		3.906250
5634		-1.953125
5635		1.953125
5636		-1.953125
5637		0.000000
5638		-3.906250
5639		0.000000
5640		-3.906250
5641		0.000000
5642		-5.859375
5643		-1.953125
5644		-5.859375
5645		-1.953125
5646		-7.812500
5647		-3.906250
5648		-7.812500
5649		-3.906250
5650		-9.765625
5651		-5.859375
5652		-9.765625
5653		-7.812500
5654		-11.718750
5655		-7.812500
5656		-11.718750
5657		-7.812500
5658		-11.718750
5659		-7.812500
5660		-13.671875
5661		-9.765625
5662		-13.671875
5663		-9.765625
5664		-13.671875
5665		-9.765625
5666		-13.671875
5667		-11.718750
5668		-15.625000
5669		-11.718750
5670		-15.625000
5671		-11.718750
5672		-15.625000
5673		-11.718750
5674		-15.625000
5675		-11.718750
5676		-15.625000
5677		-11.718750
5678		-15.625000
5679		-11.718750
5680		-15.625000
5681		-11.718750
5682		-15.625000
5683		-11.718750
5684		-15.625000
5685		-11.718750
5686		-15.625000
5687		-13.671875
5688		-15.625000
5689		-11.718750
5690		-15.625000
5691		-11.718750
5692		-15.625000
5693		-11.718750
5694		-13.671875
5695		-11.718750
5696		-13.671875
5697		-9.765625
5698		-13.671875
5699		-9.765625
5700		-13.671875
5701		-9.765625
5702		-11.718750
5703		-9.765625
5704		-11.718750
5705		-7.812500
5706		-11.718750
5707		-7.812500
5708		-9.765625
5709		-5.859375
5710		-9.765625
5711		-5.859375
5712		-7.812500
5713		-5.859375
5714		-7.812500
5715		-3.906250
5716		-7.812500
5717		-3.906250
5718		-5.859375
5719		-1.953125
5720		-3.906250
5721		-1.953125
5722		-3.906250
5723		0.000000
5724		-3.906250
5725		0.000000
5726		-1.953125
5727		1.953125
5728		0.000000
5729		1.953125
5730		0.000000
5731		3.906250
5732		0.000000
5733		5.859375
5734		1.953125
5735		7.812500
5736		1.953125
5737		7.812500
5738		3.906250
5739		7.812500
5740		5.859375
5741		9.765625
5742		5.859375
5743		11.718750
5744		7.812500
5745		11.718750
5746		9.765625
5747		13.671875
5748		9.765625
5749		13.671875
5750		11.718750
5751		15.625000
5752		11.718750
5753		17.578125
5754		13.671875
5755		17.578125
5756		15.625000
5757		19.531250
5758		15.625000
5759		21.484375
5760		17.578125
5761		21.484375
5762		17.578125
5763		21.484375
5764		19.531250
5765		23.437500
5766		19.531250
5767		25.390625
5768		21.484375
5769		25.390625
5770		21.484375
5771		25.390625
5772		23.437500
5773		25.390625
5774		23.437500
5775		27.343750
5776		23.437500
5777		29.296875
5778		23.437500
5779		29.296875
5780		25.390625
5781		29.296875
5782		25.390625
5783		31.250000
5784		27.343750
5785		31.250000
5786		27.343750
5787		31.250000
5788		29.296875
5789		31.250000
5790		29.296875
5791		33.203125
5792		27.343750
5793		33.203125
5794		29.296875
5795		33.203125
5796		29.296875
5797		33.203125
5798		29.296875
5799		33.203125
5800		29.296875
5801		35.156250
5802		29.296875
5803		35.156250
5804		31.250000
5805		33.203125
5806		31.250000
5807		33.203125
5808		29.296875
5809		35.156250
5810		29.296875
5811		35.156250
5812		29.296875
5813		35.156250
5814		29.296875
5815		33.203125
5816		29.296875
5817		33.203125
5818		29.296875
5819		33.203125
5820		29.296875
5821		33.203125
5822		29.296875
5823		31.250000
5824		27.343750
5825		33.203125
5826		27.343750
5827		33.203125
5828		27.343750
5829		31.250000
5830		25.390625
5831		31.250000
5832		25.390625
5833		31.250000
5834		25.390625
5835		29.296875
5836		25.390625
5837		29.296875
5838		25.390625
5839		27.343750
5840		21.484375
5841		27.343750
5842		21.484375
5843		27.343750
5844		21.484375
5845		25.390625
5846		19.531250
5847		25.390625
5848		19.531250
5849		25.390625
5850		17.578125
5851		23.437500
5852		17.578125
5853		21.484375
5854		17.578125
5855		19.531250
5856		15.625000
5857		19.531250
5858		15.625000
5859		19.531250
5860		13.671875
5861		17.578125
5862		13.671875
5863		15.625000
5864		11.718750
5865		15.625000
5866		9.765625
5867		13.671875
5868		9.765625
5869		11.718750
5870		7.812500
5871		11.718750
5872		7.812500
5873		9.765625
5874		5.859375
5875		9.765625
5876		3.906250
5877		7.812500
5878		3.906250
5879		5.859375
5880		1.953125
5881		5.859375
5882		1.953125
5883		3.906250
5884		0.000000
5885		3.906250
5886		-1.953125
5887		1.953125
5888		-1.953125
5889		1.953125
5890		-1.953125
5891		0.000000
5892		-3.906250
5893		-1.953125
5894		-3.906250
5895		-1.953125
5896		-5.859375
5897		-1.953125
5898		-7.812500
5899		-3.906250
5900		-7.812500
5901		-3.906250
5902		-7.812500
5903		-5.859375
5904		-9.765625
5905		-5.859375
5906		-9.765625
5907		-7.812500
5908		-11.718750
5909		-7.812500
5910		-11.718750
5911		-7.812500
5912		-11.718750
5913		-9.765625
5914		-11.718750
5915		-9.765625
5916		-13.671875
5917		-9.765625
5918		-13.671875
5919		-11.718750
5920		-13.671875
5921		-11.718750
5922		-15.625000
5923		-11.718750
5924		-13.671875
5925		-11.718750
5926		-15.625000
5927		-11.718750
5928		-15.625000
5929		-11.718750
5930		-15.625000
5931		-11.718750
5932		-15.625000
5933		-13.671875
5934		-15.625000
5935		-11.718750
5936		-15.625000
5937		-11.718750
5938		-15.625000
5939		-11.718750
5940		-15.625000
5941		-11.718750
5942		-13.671875
5943		-11.718750
5944		-13.671875
5945		-11.718750
5946		-15.625000
5947		-9.765625
5948		-13.671875
5949		-11.718750
5950		-13.671875
5951		-9.765625
5952		-11.718750
5953		-9.765625
5954		-11.718750
5955		-9.765625
5956		-11.718750
5957		-7.812500
5958		-13.671875
5959		-5.859375
5960		-13.671875
5961		-3.906250
5962		-11.718750
5963		-3.906250
5964		-11.718750
5965		-3.906250
5966		-7.812500
5967		-3.906250
5968		-5.859375
5969		-3.906250
5970		-5.859375
5971		-1.953125
5972		-3.906250
5973		-1.953125
5974		-3.906250
5975		0.000000
5976		-5.859375
5977		3.906250
5978		-3.906250
5979		3.906250
5980		-3.906250
5981		5.859375
5982		0.000000
5983		3.906250
5984		1.953125
5985		3.906250
5986		1.953125
5987		5.859375
5988		3.906250
5989		7.812500
5990		3.906250
5991		7.812500
5992		1.953125
5993		11.718750
5994		3.906250
5995		13.671875
5996		5.859375
5997		13.671875
5998		9.765625
5999		11.718750
6000		9.765625
6001		13.671875
6002		11.718750
6003		15.625000
6004		13.671875
6005		15.625000
6006		13.671875
6007		17.578125
6008		13.671875
6009		21.484375
6010		11.718750
6011		23.437500
6012		13.671875
6013		25.390625
6014		15.625000
6015		25.390625
6016		19.531250
6017		21.484375
6018		19.531250
6019		23.437500
6020		21.484375
6021		23.437500
6022		21.484375
6023		25.390625
6024		23.437500
6025		25.390625
6026		21.484375
6027		31.250000
6028		21.484375
6029		31.250000
6030		21.484375
6031		31.250000
6032		25.390625
6033		29.296875
6034		27.343750
6035		29.296875
6036		27.343750
6037		29.296875
6038		27.343750
6039		31.250000
6040		29.296875
6041		31.250000
6042		25.390625
6043		35.156250
6044		25.390625
6045		35.156250
6046		27.343750
6047		37.109375
6048		27.343750
6049		37.109375
6050		29.296875
6051		33.203125
6052		31.250000
6053		33.203125
6054		31.250000
6055		33.203125
6056		31.250000
6057		33.203125
6058		31.250000
6059		33.203125
6060		27.343750
6061		37.109375
6062		27.343750
6063		37.109375
6064		27.343750
6065		37.109375
6066		31.250000
6067		33.203125
6068		31.250000
6069		33.203125
6070		29.296875
6071		33.203125
6072		29.296875
6073		33.203125
6074		29.296875
6075		33.203125
6076		25.390625
6077		35.156250
6078		25.390625
6079		35.156250
6080		25.390625
6081		35.156250
6082		27.343750
6083		31.250000
6084		27.343750
6085		29.296875
6086		25.390625
6087		29.296875
6088		25.390625
6089		29.296875
6090		25.390625
6091		27.343750
6092		23.437500
6093		27.343750
6094		19.531250
6095		31.250000
6096		19.531250
6097		29.296875
6098		17.578125
6099		29.296875
6100		21.484375
6101		23.437500
6102		19.531250
6103		23.437500
6104		19.531250
6105		21.484375
6106		17.578125
6107		21.484375
6108		17.578125
6109		19.531250
6110		11.718750
6111		23.437500
6112		11.718750
6113		21.484375
6114		11.718750
6115		21.484375
6116		13.671875
6117		15.625000
6118		11.718750
6119		13.671875
6120		9.765625
6121		13.671875
6122		9.765625
6123		11.718750
6124		7.812500
6125		11.718750
6126		3.906250
6127		11.718750
6128		3.906250
6129		11.718750
6130		1.953125
6131		11.718750
6132		1.953125
6133		9.765625
6134		1.953125
6135		5.859375
6136		1.953125
6137		3.906250
6138		0.000000
6139		3.906250
6140		-1.953125
6141		1.953125
6142		-1.953125
6143		1.953125
6144		-1.953125
6145		0.000000
6146		-5.859375
6147		1.953125
6148		-7.812500
6149		0.000000
6150		-5.859375
6151		-1.953125
6152		-5.859375
6153		-3.906250
6154		-7.812500
6155		-5.859375
6156		-9.765625
6157		-5.859375
6158		-9.765625
6159		-5.859375
6160		-9.765625
6161		-7.812500
6162		-13.671875
6163		-5.859375
6164		-13.671875
6165		-5.859375
6166		-11.718750
6167		-9.765625
6168		-13.671875
6169		-9.765625
6170		-13.671875
6171		-9.765625
6172		-13.671875
6173		-11.718750
6174		-13.671875
6175		-11.718750
6176		-15.625000
6177		-11.718750
6178		-15.625000
6179		-9.765625
6180		-15.625000
6181		-11.718750
6182		-15.625000
6183		-9.765625
6184		-15.625000
6185		-11.718750
6186		-15.625000
6187		-13.671875
6188		-15.625000
6189		-11.718750
6190		-15.625000
6191		-11.718750
6192		-15.625000
6193		-11.718750
6194		-13.671875
6195		-11.718750
6196		-13.671875
6197		-11.718750
6198		-13.671875
6199		-11.718750
6200		-13.671875
6201		-11.718750
6202		-13.671875
6203		-9.765625
6204		-11.718750
6205		-9.765625
6206		-11.718750
6207		-9.765625
6208		-11.718750
6209		-9.765625
6210		-11.718750
6211		-7.812500
6212		-9.765625
6213		-7.812500
6214		-9.765625
6215		-5.859375
6216		-9.765625
6217		-5.859375
6218		-7.812500
6219		-5.859375
6220		-7.812500
6221		-3.906250
6222		-5.859375
6223		-3.906250
6224		-5.859375
6225		-1.953125
6226		-3.906250
6227		-1.953125
6228		-3.906250
6229		0.000000
6230		-1.953125
6231		0.000000
6232		-1.953125
6233		1.953125
6234		0.000000
6235		3.906250
6236		0.000000
6237		3.906250
6238		1.953125
6239		5.859375
6240		3.906250
6241		5.859375
6242		3.906250
6243		7.812500
6244		5.859375
6245		9.765625
6246		5.859375
6247		9.765625
6248		7.812500
6249		9.765625
6250		9.765625
6251		11.718750
6252		9.765625
6253		13.671875
6254		11.718750
6255		13.671875
6256		11.718750
6257		15.625000
6258		13.671875
6259		17.578125
6260		13.671875
6261		19.531250
6262		13.671875
6263		19.531250
6264		15.625000
6265		19.531250
6266		17.578125
6267		21.484375
6268		17.578125
6269		23.437500
6270		19.531250
6271		23.437500
6272		21.484375
6273		23.437500
6274		21.484375
6275		25.390625
6276		21.484375
6277		25.390625
6278		21.484375
6279		27.343750
6280		23.437500
6281		27.343750
6282		25.390625
6283		27.343750
6284		25.390625
6285		29.296875
6286		25.390625
6287		29.296875
6288		27.343750
6289		29.296875
6290		27.343750
6291		31.250000
6292		27.343750
6293		31.250000
6294		27.343750
6295		33.203125
6296		29.296875
6297		33.203125
6298		29.296875
6299		33.203125
6300		29.296875
6301		33.203125
6302		29.296875
6303		33.203125
6304		31.250000
6305		33.203125
6306		31.250000
6307		33.203125
6308		31.250000
6309		33.203125
6310		31.250000
6311		33.203125
6312		29.296875
6313		35.156250
6314		31.250000
6315		33.203125
6316		31.250000
6317		33.203125
6318		29.296875
6319		33.203125
6320		31.250000
6321		33.203125
6322		29.296875
6323		33.203125
6324		31.250000
6325		33.203125
6326		29.296875
6327		33.203125
6328		29.296875
6329		33.203125
6330		29.296875
6331		33.203125
6332		29.296875
6333		31.250000
6334		27.343750
6335		31.250000
6336		27.343750
6337		31.250000
6338		27.343750
6339		29.296875
6340		25.390625
6341		29.296875
6342		25.390625
6343		27.343750
6344		23.437500
6345		29.296875
6346		23.437500
6347		27.343750
6348		23.437500
6349		27.343750
6350		21.484375
6351		25.390625
6352		21.484375
6353		25.390625
6354		19.531250
6355		25.390625
6356		19.531250
6357		23.437500
6358		19.531250
6359		21.484375
6360		17.578125
6361		21.484375
6362		15.625000
6363		21.484375
6364		15.625000
6365		19.531250
6366		13.671875
6367		17.578125
6368		13.671875
6369		17.578125
6370		11.718750
6371		15.625000
6372		11.718750
6373		13.671875
6374		9.765625
6375		13.671875
6376		9.765625
6377		11.718750
6378		5.859375
6379		11.718750
6380		5.859375
6381		9.765625
6382		5.859375
6383		7.812500
6384		3.906250
6385		7.812500
6386		1.953125
6387		5.859375
6388		1.953125
6389		5.859375
6390		0.000000
6391		3.906250
6392		0.000000
6393		1.953125
6394		-1.953125
6395		1.953125
6396		-1.953125
6397		1.953125
6398		-3.906250
6399		0.000000
6400		-3.906250
6401		-1.953125
6402		-5.859375
6403		-1.953125
6404		-7.812500
6405		-1.953125
6406		-7.812500
6407		-3.906250
6408		-7.812500
6409		-5.859375
6410		-7.812500
6411		-5.859375
6412		-11.718750
6413		-5.859375
6414		-11.718750
6415		-5.859375
6416		-9.765625
6417		-7.812500
6418		-11.718750
6419		-7.812500
6420		-13.671875
6421		-9.765625
6422		-13.671875
6423		-9.765625
6424		-13.671875
6425		-9.765625
6426		-13.671875
6427		-9.765625
6428		-13.671875
6429		-11.718750
6430		-13.671875
6431		-11.718750
6432		-13.671875
6433		-11.718750
6434		-13.671875
6435		-11.718750
6436		-15.625000
6437		-11.718750
6438		-15.625000
6439		-11.718750
6440		-15.625000
6441		-11.718750
6442		-15.625000
6443		-11.718750
6444		-15.625000
6445		-11.718750
6446		-15.625000
6447		-11.718750
6448		-13.671875
6449		-11.718750
6450		-13.671875
6451		-11.718750
6452		-13.671875
6453		-11.718750
6454		-13.671875
6455		-9.765625
6456		-13.671875
6457		-9.765625
6458		-11.718750
6459		-9.765625
6460		-11.718750
6461		-9.765625
6462		-11.718750
6463		-7.812500
6464		-9.765625
6465		-7.812500
6466		-9.765625
6467		-7.812500
6468		-9.765625
6469		-5.859375
6470		-7.812500
6471		-5.859375
6472		-7.812500
6473		-3.906250
6474		-5.859375
6475		-3.906250
6476		-5.859375
6477		-1.953125
6478		-3.906250
6479		-1.953125
6480		-3.906250
6481		0.000000
6482		-1.953125
6483		0.000000
6484		-1.953125
6485		1.953125
6486		0.000000
6487		1.953125
6488		0.000000
6489		3.906250
6490		1.953125
6491		3.906250
6492		1.953125
6493		5.859375
6494		3.906250
6495		7.812500
6496		3.906250
6497		7.812500
6498		5.859375
6499		9.765625
6500		7.812500
6501		9.765625
6502		7.812500
6503		11.718750
6504		9.765625
6505		11.718750
6506		9.765625
6507		13.671875
6508		11.718750
6509		15.625000
6510		13.671875
6511		15.625000
6512		13.671875
6513		17.578125
6514		15.625000
6515		17.578125
6516		15.625000
6517		19.531250
6518		17.578125
6519		19.531250
6520		17.578125
6521		21.484375
6522		19.531250
6523		21.484375
6524		19.531250
6525		23.437500
6526		21.484375
6527		23.437500
6528		21.484375
6529		25.390625
6530		23.437500
6531		25.390625
6532		23.437500
6533		27.343750
6534		25.390625
6535		27.343750
6536		25.390625
6537		29.296875
6538		25.390625
6539		29.296875
6540		27.343750
6541		29.296875
6542		27.343750
6543		29.296875
6544		27.343750
6545		31.250000
6546		27.343750
6547		33.203125
6548		29.296875
6549		31.250000
6550		29.296875
6551		31.250000
6552		29.296875
6553		33.203125
6554		31.250000
6555		33.203125
6556		31.250000
6557		33.203125
6558		31.250000
6559		33.203125
6560		31.250000
6561		33.203125
6562		31.250000
6563		33.203125
6564		29.296875
6565		35.156250
6566		31.250000
6567		33.203125
6568		31.250000
6569		33.203125
6570		31.250000
6571		33.203125
6572		31.250000
6573		33.203125
6574		31.250000
6575		33.203125
6576		31.250000
6577		33.203125
6578		31.250000
6579		33.203125
6580		27.343750
6581		33.203125
6582		27.343750
6583		33.203125
6584		29.296875
6585		31.250000
6586		27.343750
6587		31.250000
6588		27.343750
6589		31.250000
6590		27.343750
6591		29.296875
6592		27.343750
6593		29.296875
6594		25.390625
6595		29.296875
6596		25.390625
6597		27.343750
6598		23.437500
6599		29.296875
6600		23.437500
6601		29.296875
6602		23.437500
6603		25.390625
6604		21.484375
6605		25.390625
6606		21.484375
6607		23.437500
6608		19.531250
6609		23.437500
6610		19.531250
6611		23.437500
6612		17.578125
6613		21.484375
6614		15.625000
6615		21.484375
6616		15.625000
6617		19.531250
6618		15.625000
6619		17.578125
6620		13.671875
6621		17.578125
6622		13.671875
6623		15.625000
6624		11.718750
6625		15.625000
6626		9.765625
6627		13.671875
6628		9.765625
6629		11.718750
6630		5.859375
6631		11.718750
6632		5.859375
6633		11.718750
6634		5.859375
6635		11.718750
6636		5.859375
6637		7.812500
6638		3.906250
6639		5.859375
6640		1.953125
6641		5.859375
6642		0.000000
6643		3.906250
6644		0.000000
6645		3.906250
6646		0.000000
6647		1.953125
6648		-3.906250
6649		1.953125
6650		-3.906250
6651		1.953125
6652		-3.906250
6653		0.000000
6654		-3.906250
6655		-1.953125
6656		-5.859375
6657		-1.953125
6658		-5.859375
6659		-3.906250
6660		-7.812500
6661		-3.906250
6662		-7.812500
6663		-5.859375
6664		-11.718750
6665		-3.906250
6666		-11.718750
6667		-5.859375
6668		-11.718750
6669		-7.812500
6670		-11.718750
6671		-7.812500
6672		-11.718750
6673		-9.765625
6674		-11.718750
6675		-9.765625
6676		-13.671875
6677		-9.765625
6678		-13.671875
6679		-11.718750
6680		-13.671875
6681		-11.718750
6682		-15.625000
6683		-9.765625
6684		-15.625000
6685		-9.765625
6686		-15.625000
6687		-11.718750
6688		-15.625000
6689		-11.718750
6690		-15.625000
6691		-13.671875
6692		-15.625000
6693		-13.671875
6694		-15.625000
6695		-11.718750
6696		-15.625000
6697		-11.718750
6698		-15.625000
6699		-9.765625
6700		-15.625000
6701		-9.765625
6702		-13.671875
6703		-11.718750
6704		-13.671875
6705		-11.718750
6706		-13.671875
6707		-11.718750
6708		-13.671875
6709		-11.718750
6710		-13.671875
6711		-9.765625
6712		-11.718750
6713		-9.765625
6714		-13.671875
6715		-7.812500
6716		-13.671875
6717		-5.859375
6718		-11.718750
6719		-5.859375
6720		-9.765625
6721		-7.812500
6722		-9.765625
6723		-5.859375
6724		-7.812500
6725		-5.859375
6726		-7.812500
6727		-3.906250
6728		-5.859375
6729		-3.906250
6730		-5.859375
6731		-1.953125
6732		-5.859375
6733		0.000000
6734		-5.859375
6735		0.000000
6736		-1.953125
6737		0.000000
6738		-1.953125
6739		1.953125
6740		0.000000
6741		1.953125
6742		0.000000
6743		3.906250
6744		1.953125
6745		5.859375
6746		3.906250
6747		5.859375
6748		3.906250
6749		9.765625
6750		3.906250
6751		9.765625
6752		5.859375
6753		9.765625
6754		7.812500
6755		9.765625
6756		7.812500
6757		11.718750
6758		9.765625
6759		13.671875
6760		11.718750
6761		13.671875
6762		11.718750
6763		15.625000
6764		13.671875
6765		15.625000
6766		13.671875
6767		17.578125
6768		15.625000
6769		17.578125
6770		15.625000
6771		19.531250
6772		17.578125
6773		21.484375
6774		17.578125
6775		21.484375
6776		19.531250
6777		23.437500
6778		21.484375
6779		23.437500
6780		21.484375
6781		25.390625
6782		21.484375
6783		25.390625
6784		23.437500
6785		25.390625
6786		23.437500
6787		27.343750
6788		25.390625
6789		27.343750
6790		25.390625
6791		29.296875
6792		27.343750
6793		29.296875
6794		27.343750
6795		29.296875
6796		27.343750
6797		31.250000
6798		27.343750
6799		33.203125
6800		29.296875
6801		31.250000
6802		29.296875
6803		31.250000
6804		29.296875
6805		31.250000
6806		29.296875
6807		33.203125
6808		31.250000
6809		33.203125
6810		31.250000
6811		33.203125
6812		31.250000
6813		33.203125
6814		31.250000
6815		33.203125
6816		31.250000
6817		33.203125
6818		31.250000
6819		33.203125
6820		31.250000
6821		33.203125
6822		31.250000
6823		33.203125
6824		31.250000
6825		33.203125
6826		31.250000
6827		33.203125
6828		31.250000
6829		33.203125
6830		31.250000
6831		33.203125
6832		29.296875
6833		33.203125
6834		29.296875
6835		33.203125
6836		29.296875
6837		31.250000
6838		29.296875
6839		31.250000
6840		29.296875
6841		31.250000
6842		27.343750
6843		31.250000
6844		27.343750
6845		29.296875
6846		27.343750
6847		29.296875
6848		25.390625
6849		29.296875
6850		25.390625
6851		27.343750
6852		25.390625
6853		27.343750
6854		23.437500
6855		25.390625
6856		23.437500
6857		25.390625
6858		21.484375
6859		25.390625
6860		21.484375
6861		23.437500
6862		19.531250
6863		23.437500
6864		19.531250
6865		21.484375
6866		17.578125
6867		21.484375
6868		17.578125
6869		19.531250
6870		15.625000
6871		19.531250
6872		15.625000
6873		17.578125
6874		13.671875
6875		17.578125
6876		13.671875
6877		15.625000
6878		11.718750
6879		13.671875
6880		9.765625
6881		13.671875
6882		9.765625
6883		11.718750
6884		7.812500
6885		11.718750
6886		7.812500
6887		9.765625
6888		5.859375
6889		7.812500
6890		3.906250
6891		7.812500
6892		3.906250
6893		5.859375
6894		1.953125
6895		5.859375
6896		1.953125
6897		3.906250
6898		0.000000
6899		3.906250
6900		0.000000
6901		1.953125
6902		-1.953125
6903		1.953125
6904		-1.953125
6905		0.000000
6906		-3.906250
6907		0.000000
6908		-3.906250
6909		-1.953125
6910		-5.859375
6911		-1.953125
6912		-5.859375
6913		-3.906250
6914		-7.812500
6915		-5.859375
6916		-7.812500
6917		-5.859375
6918		-9.765625
6919		-5.859375
6920		-9.765625
6921		-7.812500
6922		-9.765625
6923		-7.812500
6924		-11.718750
6925		-7.812500
6926		-11.718750
6927		-9.765625
6928		-11.718750
6929		-9.765625
6930		-11.718750
6931		-9.765625
6932		-13.671875
6933		-9.765625
6934		-13.671875
6935		-11.718750
6936		-13.671875
6937		-11.718750
6938		-13.671875
6939		-11.718750
6940		-13.671875
6941		-11.718750
6942		-13.671875
6943		-11.718750
6944		-13.671875
6945		-11.718750
6946		-13.671875
6947		-11.718750
6948		-13.671875
6949		-11.718750
6950		-13.671875
6951		-11.718750
6952		-13.671875
6953		-11.718750
6954		-13.671875
6955		-11.718750
6956		-13.671875
6957		-11.718750
6958		-13.671875
6959		-11.718750
6960		-13.671875
6961		-9.765625
6962		-11.718750
6963		-9.765625
6964		-11.718750
6965		-9.765625
6966		-11.718750
6967		-7.812500
6968		-11.718750
6969		-7.812500
6970		-9.765625
6971		-7.812500
6972		-9.765625
6973		-7.812500
6974		-9.765625
6975		-5.859375
6976		-7.812500
6977		-5.859375
6978		-7.812500
6979		-3.906250
6980		-5.859375
6981		-3.906250
6982		-5.859375
6983		-1.953125
6984		-3.906250
6985		-1.953125
6986		-3.906250
6987		0.000000
6988		-1.953125
6989		0.000000
6990		-1.953125
6991		1.953125
6992		0.000000
6993		1.953125
6994		0.000000
6995		3.906250
6996		1.953125
6997		3.906250
6998		1.953125
6999		5.859375
7000		3.906250
7001		5.859375
7002		5.859375
7003		7.812500
7004		5.859375
7005		9.765625
7006		7.812500
7007		9.765625
7008		7.812500
7009		11.718750
7010		9.765625
7011		11.718750
7012		11.718750
7013		13.671875
7014		11.718750
7015		15.625000
7016		13.671875
7017		15.625000
7018		13.671875
7019		17.578125
7020		15.625000
7021		17.578125
7022		15.625000
7023		19.531250
7024		17.578125
7025		19.531250
7026		17.578125
7027		21.484375
7028		19.531250
7029		21.484375
7030		19.531250
7031		23.437500
7032		21.484375
7033		23.437500
7034		21.484375
7035		25.390625
7036		23.437500
7037		25.390625
7038		23.437500
7039		27.343750
7040		25.390625
7041		27.343750
7042		25.390625
7043		27.343750
7044		25.390625
7045		29.296875
7046		27.343750
7047		29.296875
7048		27.343750
7049		29.296875
7050		27.343750
7051		31.250000
7052		29.296875
7053		31.250000
7054		29.296875
7055		31.250000
7056		29.296875
7057		31.250000
7058		29.296875
7059		33.203125
7060		31.250000
7061		33.203125
7062		31.250000
7063		33.203125
7064		31.250000
7065		33.203125
7066		31.250000
7067		33.203125
7068		31.250000
7069		33.203125
7070		31.250000
7071		33.203125
7072		31.250000
7073		33.203125
7074		31.250000
7075		33.203125
7076		31.250000
7077		33.203125
7078		31.250000
7079		33.203125
7080		31.250000
7081		33.203125
7082		31.250000
7083		33.203125
7084		29.296875
7085		33.203125
7086		29.296875
7087		33.203125
7088		29.296875
7089		33.203125
7090		29.296875
7091		31.250000
7092		29.296875
7093		31.250000
7094		29.296875
7095		31.250000
7096		27.343750
7097		29.296875
7098		27.343750
7099		29.296875
7100		27.343750
7101		29.296875
7102		25.390625
7103		27.343750
7104		25.390625
7105		27.343750
7106		23.437500
7107		27.343750
7108		23.437500
7109		25.390625
7110		23.437500
7111		25.390625
7112		21.484375
7113		23.437500
7114		21.484375
7115		23.437500
7116		19.531250
7117		21.484375
7118		19.531250
7119		21.484375
7120		17.578125
7121		21.484375
7122		17.578125
7123		19.531250
7124		15.625000
7125		17.578125
7126		13.671875
7127		17.578125
7128		13.671875
7129		15.625000
7130		11.718750
7131		15.625000
7132		11.718750
7133		13.671875
7134		9.765625
7135		13.671875
7136		9.765625
7137		11.718750
7138		7.812500
7139		9.765625
7140		5.859375
7141		9.765625
7142		5.859375
7143		7.812500
7144		3.906250
7145		7.812500
7146		3.906250
7147		5.859375
7148		1.953125
7149		3.906250
7150		0.000000
7151		3.906250
7152		0.000000
7153		3.906250
7154		-1.953125
7155		1.953125
7156		-1.953125
7157		0.000000
7158		-3.906250
7159		0.000000
7160		-3.906250
7161		-1.953125
7162		-5.859375
7163		-1.953125
7164		-5.859375
7165		-3.906250
7166		-7.812500
7167		-3.906250
7168		-7.812500
7169		-5.859375
7170		-7.812500
7171		-5.859375
7172		-9.765625
7173		-7.812500
7174		-9.765625
7175		-7.812500
7176		-11.718750
7177		-7.812500
7178		-11.718750
7179		-9.765625
7180		-11.718750
7181		-9.765625
7182		-11.718750
7183		-9.765625
7184		-13.671875
7185		-9.765625
7186		-13.671875
7187		-11.718750
7188		-13.671875
7189		-11.718750
7190		-13.671875
7191		-11.718750
7192		-13.671875
7193		-11.718750
7194		-13.671875
7195		-11.718750
7196		-15.625000
7197		-11.718750
7198		-15.625000
7199		-11.718750
7200		-13.671875
7201		-11.718750
7202		-13.671875
7203		-11.718750
7204		-15.625000
7205		-11.718750
7206		-13.671875
7207		-11.718750
7208		-13.671875
7209		-11.718750
7210		-13.671875
7211		-11.718750
7212		-13.671875
7213		-11.718750
7214		-13.671875
7215		-9.765625
7216		-11.718750
7217		-9.765625
7218		-13.671875
7219		-9.765625
7220		-11.718750
7221		-9.765625
7222		-11.718750
7223		-7.812500
7224		-9.765625
7225		-7.812500
7226		-9.765625
7227		-7.812500
7228		-7.812500
7229		-5.859375
7230		-7.812500
7231		-5.859375
7232		-7.812500
7233		-3.906250
7234		-5.859375
7235		-3.906250
7236		-5.859375
7237		-1.953125
7238		-3.906250
7239		-1.953125
7240		-3.906250
7241		0.000000
7242		-1.953125
7243		0.000000
7244		-1.953125
7245		1.953125
7246		0.000000
7247		3.906250
7248		1.953125
7249		3.906250
7250		1.953125
7251		5.859375
7252		3.906250
7253		5.859375
7254		3.906250
7255		7.812500
7256		5.859375
7257		7.812500
7258		5.859375
7259		9.765625
7260		7.812500
7261		9.765625
7262		7.812500
7263		11.718750
7264		9.765625
7265		13.671875
7266		11.718750
7267		13.671875
7268		11.718750
7269		15.625000
7270		13.671875
7271		15.625000
7272		15.625000
7273		17.578125
7274		15.625000
7275		19.531250
7276		17.578125
7277		19.531250
7278		17.578125
7279		21.484375
7280		19.531250
7281		21.484375
7282		19.531250
7283		23.437500
7284		21.484375
7285		23.437500
7286		21.484375
7287		25.390625
7288		23.437500
7289		25.390625
7290		23.437500
7291		25.390625
7292		25.390625
7293		27.343750
7294		25.390625
7295		27.343750
7296		25.390625
7297		29.296875
7298		27.343750
7299		29.296875
7300		27.343750
7301		29.296875
7302		27.343750
7303		31.250000
7304		29.296875
7305		31.250000
7306		29.296875
7307		31.250000
7308		29.296875
7309		31.250000
7310		29.296875
7311		33.203125
7312		31.250000
7313		33.203125
7314		31.250000
7315		33.203125
7316		31.250000
7317		33.203125
7318		31.250000
7319		33.203125
7320		31.250000
7321		33.203125
7322		31.250000
7323		33.203125
7324		31.250000
7325		33.203125
7326		31.250000
7327		35.156250
7328		31.250000
7329		33.203125
7330		31.250000
7331		33.203125
7332		31.250000
7333		33.203125
7334		31.250000
7335		33.203125
7336		31.250000
7337		33.203125
7338		31.250000
7339		33.203125
7340		31.250000
7341		33.203125
7342		29.296875
7343		33.203125
7344		29.296875
7345		31.250000
7346		29.296875
7347		31.250000
7348		27.343750
7349		31.250000
7350		27.343750
7351		31.250000
7352		27.343750
7353		29.296875
7354		27.343750
7355		29.296875
7356		25.390625
7357		29.296875
7358		25.390625
7359		27.343750
7360		23.437500
7361		27.343750
7362		23.437500
7363		25.390625
7364		23.437500
7365		25.390625
7366		21.484375
7367		25.390625
7368		21.484375
7369		23.437500
7370		19.531250
7371		23.437500
7372		19.531250
7373		21.484375
7374		17.578125
7375		21.484375
7376		17.578125
7377		19.531250
7378		15.625000
7379		19.531250
7380		15.625000
7381		17.578125
7382		13.671875
7383		15.625000
7384		11.718750
7385		15.625000
7386		11.718750
7387		13.671875
7388		9.765625
7389		13.671875
7390		7.812500
7391		11.718750
7392		7.812500
7393		11.718750
7394		5.859375
7395		9.765625
7396		5.859375
7397		7.812500
7398		3.906250
7399		7.812500
7400		3.906250
7401		5.859375
7402		1.953125
7403		5.859375
7404		0.000000
7405		3.906250
7406		0.000000
7407		1.953125
7408		0.000000
7409		1.953125
7410		-1.953125
7411		0.000000
7412		-3.906250
7413		0.000000
7414		-3.906250
7415		-1.953125
7416		-5.859375
7417		-1.953125
7418		-5.859375
7419		-3.906250
7420		-7.812500
7421		-3.906250
7422		-7.812500
7423		-5.859375
7424		-7.812500
7425		-5.859375
7426		-9.765625
7427		-5.859375
7428		-9.765625
7429		-7.812500
7430		-9.765625
7431		-7.812500
7432		-11.718750
7433		-7.812500
7434		-11.718750
7435		-7.812500
7436		-11.718750
7437		-9.765625
7438		-11.718750
7439		-9.765625
7440		-13.671875
7441		-9.765625
7442		-13.671875
7443		-11.718750
7444		-13.671875
7445		-11.718750
7446		-13.671875
7447		-11.718750
7448		-13.671875
7449		-11.718750
7450		-13.671875
7451		-11.718750
7452		-13.671875
7453		-11.718750
7454		-13.671875
7455		-11.718750
7456		-13.671875
7457		-11.718750
7458		-13.671875
7459		-11.718750
7460		-13.671875
7461		-11.718750
7462		-13.671875
7463		-11.718750
7464		-13.671875
7465		-9.765625
7466		-13.671875
7467		-9.765625
7468		-11.718750
7469		-9.765625
7470		-11.718750
7471		-9.765625
7472		-11.718750
7473		-7.812500
7474		-11.718750
7475		-7.812500
7476		-9.765625
7477		-7.812500
7478		-9.765625
7479		-5.859375
7480		-7.812500
7481		-5.859375
7482		-7.812500
7483		-5.859375
7484		-7.812500
7485		-3.906250
7486		-5.859375
7487		-3.906250
7488		-5.859375
7489		-1.953125
7490		-3.906250
7491		-1.953125
7492		-3.906250
7493		0.000000
7494		-1.953125
7495		0.000000
7496		-1.953125
7497		1.953125
7498		0.000000
7499		1.953125
7500		0.000000
7501		3.906250
7502		1.953125
7503		3.906250
7504		1.953125
7505		5.859375
7506		3.906250
7507		7.812500
7508		5.859375
7509		7.812500
7510		5.859375
7511		9.765625
7512		7.812500
7513		9.765625
7514		7.812500
7515		11.718750
7516		9.765625
7517		13.671875
7518		9.765625
7519		13.671875
7520		11.718750
7521		15.625000
7522		13.671875
7523		15.625000
7524		13.671875
7525		17.578125
7526		15.625000
7527		19.531250
7528		15.625000
7529		19.531250
7530		17.578125
7531		21.484375
7532		17.578125
7533		21.484375
7534		19.531250
7535		23.437500
7536		21.484375
7537		23.437500
7538		21.484375
7539		25.390625
7540		23.437500
7541		25.390625
7542		23.437500
7543		25.390625
7544		23.437500
7545		27.343750
7546		25.390625
7547		27.343750
7548		25.390625
7549		29.296875
7550		25.390625
7551		29.296875
7552		27.343750
7553		29.296875
7554		27.343750
7555		31.250000
7556		29.296875
7557		31.250000
7558		29.296875
7559		31.250000
7560		29.296875
7561		31.250000
7562		29.296875
7563		33.203125
7564		31.250000
7565		33.203125
7566		31.250000
7567		33.203125
7568		31.250000
7569		33.203125
7570		31.250000
7571		33.203125
7572		31.250000
7573		33.203125
7574		31.250000
7575		33.203125
7576		31.250000
7577		35.156250
7578		31.250000
7579		35.156250
7580		31.250000
7581		33.203125
7582		31.250000
7583		35.156250
7584		31.250000
7585		33.203125
7586		31.250000
7587		33.203125
7588		31.250000
7589		33.203125
7590		31.250000
7591		33.203125
7592		29.296875
7593		33.203125
7594		29.296875
7595		33.203125
7596		29.296875
7597		33.203125
7598		29.296875
7599		31.250000
7600		29.296875
7601		31.250000
7602		27.343750
7603		31.250000
7604		27.343750
7605		31.250000
7606		25.390625
7607		29.296875
7608		25.390625
7609		29.296875
7610		23.437500
7611		31.250000
7612		25.390625
7613		27.343750
7614		21.484375
7615		27.343750
7616		23.437500
7617		25.390625
7618		21.484375
7619		25.390625
7620		21.484375
7621		23.437500
7622		19.531250
7623		23.437500
7624		19.531250
7625		21.484375
7626		15.625000
7627		21.484375
7628		17.578125
7629		21.484375
7630		15.625000
7631		19.531250
7632		13.671875
7633		19.531250
7634		13.671875
7635		19.531250
7636		11.718750
7637		15.625000
7638		11.718750
7639		15.625000
7640		9.765625
7641		13.671875
7642		9.765625
7643		11.718750
7644		7.812500
7645		11.718750
7646		7.812500
7647		9.765625
7648		3.906250
7649		9.765625
7650		5.859375
7651		7.812500
7652		1.953125
7653		7.812500
7654		1.953125
7655		5.859375
7656		0.000000
7657		5.859375
7658		0.000000
7659		3.906250
7660		-3.906250
7661		3.906250
7662		-1.953125
7663		1.953125
7664		-5.859375
7665		0.000000
7666		-3.906250
7667		-1.953125
7668		-7.812500
7669		0.000000
7670		-5.859375
7671		-3.906250
7672		-7.812500
7673		-3.906250
7674		-9.765625
7675		-3.906250
7676		-9.765625
7677		-1.953125
7678		-9.765625
7679		-5.859375
7680		-9.765625
7681		-5.859375
7682		-11.718750
7683		-5.859375
7684		-13.671875
7685		-5.859375
7686		-11.718750
7687		-9.765625
7688		-11.718750
7689		-9.765625
7690		-13.671875
7691		-9.765625
7692		-15.625000
7693		-7.812500
7694		-15.625000
7695		-7.812500
7696		-13.671875
7697		-9.765625
7698		-17.578125
7699		-7.812500
7700		-17.578125
7701		-9.765625
7702		-17.578125
7703		-7.812500
7704		-13.671875
7705		-11.718750
7706		-15.625000
7707		-11.718750
7708		-17.578125
7709		-9.765625
7710		-15.625000
7711		-9.765625
7712		-13.671875
7713		-11.718750
7714		-15.625000
7715		-9.765625
7716		-15.625000
7717		-7.812500
7718		-17.578125
7719		-7.812500
7720		-13.671875
7721		-9.765625
7722		-11.718750
7723		-9.765625
7724		-13.671875
7725		-7.812500
7726		-15.625000
7727		-5.859375
7728		-11.718750
7729		-5.859375
7730		-9.765625
7731		-5.859375
7732		-11.718750
7733		-1.953125
7734		-7.812500
7735		-5.859375
7736		-11.718750
7737		-1.953125
7738		-5.859375
7739		-3.906250
7740		-5.859375
7741		-1.953125
7742		-7.812500
7743		0.000000
7744		-5.859375
7745		0.000000
7746		-3.906250
7747		0.000000
7748		-3.906250
7749		3.906250
7750		-3.906250
7751		5.859375
7752		-3.906250
7753		7.812500
7754		1.953125
7755		3.906250
7756		1.953125
7757		5.859375
7758		1.953125
7759		7.812500
7760		1.953125
7761		11.718750
7762		5.859375
7763		9.765625
7764		7.812500
7765		9.765625
7766		3.906250
7767		15.625000
7768		7.812500
7769		15.625000
7770		9.765625
7771		13.671875
7772		11.718750
7773		13.671875
7774		11.718750
7775		17.578125
7776		11.718750
7777		19.531250
7778		13.671875
7779		19.531250
7780		15.625000
7781		19.531250
7782		13.671875
7783		23.437500
7784		15.625000
7785		23.437500
7786		15.625000
7787		23.437500
7788		19.531250
7789		23.437500
7790		21.484375
7791		25.390625
7792		19.531250
7793		29.296875
7794		19.531250
7795		27.343750
7796		23.437500
7797		27.343750
7798		25.390625
7799		29.296875
7800		21.484375
7801		33.203125
7802		23.437500
7803		31.250000
7804		27.343750
7805		29.296875
7806		27.343750
7807		31.250000
7808		27.343750
7809		33.203125
7810		25.390625
7811		35.156250
7812		27.343750
7813		35.156250
7814		29.296875
7815		33.203125
7816		27.343750
7817		37.109375
7818		27.343750
7819		35.156250
7820		27.343750
7821		35.156250
7822		31.250000
7823		33.203125
7824		31.250000
7825		35.156250
7826		29.296875
7827		37.109375
7828		31.250000
7829		37.109375
7830		31.250000
7831		35.156250
7832		31.250000
7833		35.156250
7834		29.296875
7835		39.062500
7836		29.296875
7837		37.109375
7838		31.250000
7839		35.156250
7840		31.250000
7841		35.156250
7842		29.296875
7843		35.156250
7844		29.296875
7845		37.109375
7846		31.250000
7847		35.156250
7848		29.296875
7849		33.203125
7850		27.343750
7851		37.109375
7852		27.343750
7853		33.203125
7854		29.296875
7855		31.250000
7856		29.296875
7857		31.250000
7858		27.343750
7859		31.250000
7860		23.437500
7861		31.250000
7862		23.437500
7863		31.250000
7864		25.390625
7865		29.296875
7866		21.484375
7867		31.250000
7868		21.484375
7869		31.250000
7870		21.484375
7871		29.296875
7872		21.484375
7873		25.390625
7874		21.484375
7875		23.437500
7876		19.531250
7877		23.437500
7878		17.578125
7879		25.390625
7880		17.578125
7881		21.484375
7882		17.578125
7883		21.484375
7884		15.625000
7885		21.484375
7886		11.718750
7887		21.484375
7888		13.671875
7889		17.578125
7890		13.671875
7891		15.625000
7892		11.718750
7893		15.625000
7894		9.765625
7895		15.625000
7896		9.765625
7897		15.625000
7898		7.812500
7899		11.718750
7900		5.859375
7901		11.718750
7902		5.859375
7903		9.765625
7904		5.859375
7905		7.812500
7906		3.906250
7907		7.812500
7908		1.953125
7909		5.859375
7910		1.953125
7911		3.906250
7912		0.000000
7913		3.906250
7914		0.000000
7915		1.953125
7916		-3.906250
7917		3.906250
7918		-1.953125
7919		0.000000
7920		-3.906250
7921		0.000000
7922		-3.906250
7923		-1.953125
7924		-5.859375
7925		-1.953125
7926		-5.859375
7927		-1.953125
7928		-5.859375
7929		-3.906250
7930		-7.812500
7931		-5.859375
7932		-7.812500
7933		-5.859375
7934		-9.765625
7935		-5.859375
7936		-9.765625
7937		-7.812500
7938		-11.718750
7939		-5.859375
7940		-11.718750
7941		-7.812500
7942		-11.718750
7943		-7.812500
7944		-11.718750
7945		-9.765625
7946		-11.718750
7947		-9.765625
7948		-11.718750
7949		-9.765625
7950		-13.671875
7951		-9.765625
7952		-13.671875
7953		-11.718750
7954		-13.671875
7955		-9.765625
7956		-13.671875
7957		-11.718750
7958		-13.671875
7959		-9.765625
7960		-13.671875
7961		-9.765625
7962		-15.625000
7963		-9.765625
7964		-15.625000
7965		-9.765625
7966		-15.625000
7967		-9.765625
7968		-13.671875
7969		-9.765625
7970		-13.671875
7971		-9.765625
7972		-11.718750
7973		-9.765625
7974		-11.718750
7975		-9.765625
7976		-11.718750
7977		-7.812500
7978		-11.718750
7979		-5.859375
7980		-11.718750
7981		-5.859375
7982		-11.718750
7983		-5.859375
7984		-9.765625
7985		-5.859375
7986		-9.765625
7987		-3.906250
7988		-7.812500
7989		-3.906250
7990		-7.812500
7991		-3.906250
7992		-7.812500
7993		0.000000
7994		-5.859375
7995		0.000000
7996		-5.859375
7997		0.000000
7998		-3.906250
7999		1.953125
8000		-3.906250
8001		1.953125
8002		-1.953125
8003		3.906250
8004		0.000000
8005		3.906250
8006		0.000000
8007		3.906250
8008		1.953125
8009		5.859375
8010		1.953125
8011		7.812500
8012		3.906250
8013		7.812500
8014		3.906250
8015		9.765625
8016		3.906250
8017		11.718750
8018		7.812500
8019		11.718750
8020		7.812500
8021		13.671875
8022		7.812500
8023		13.671875
8024		11.718750
8025		13.671875
8026		11.718750
8027		15.625000
8028		13.671875
8029		17.578125
8030		13.671875
8031		19.531250
8032		13.671875
8033		21.484375
8034		15.625000
8035		19.531250
8036		17.578125
8037		21.484375
8038		17.578125
8039		23.437500
8040		19.531250
8041		23.437500
8042		21.484375
8043		23.437500
8044		21.484375
8045		25.390625
8046		21.484375
8047		27.343750
8048		21.484375
8049		27.343750
8050		23.437500
8051		29.296875
8052		25.390625
8053		29.296875
8054		25.390625
8055		29.296875
8056		27.343750
8057		29.296875
8058		27.343750
8059		29.296875
8060		27.343750
8061		33.203125
8062		27.343750
8063		33.203125
8064		29.296875
8065		33.203125
8066		27.343750
8067		35.156250
8068		29.296875
8069		33.203125
8070		31.250000
8071		35.156250
8072		31.250000
8073		35.156250
8074		31.250000
8075		35.156250
8076		31.250000
8077		35.156250
8078		31.250000
8079		35.156250
8080		31.250000
8081		35.156250
8082		31.250000
8083		37.109375
8084		33.203125
8085		35.156250
8086		31.250000
8087		35.156250
8088		31.250000
8089		35.156250
8090		33.203125
8091		35.156250
8092		31.250000
8093		35.156250
8094		31.250000
8095		35.156250
8096		31.250000
8097		35.156250
8098		31.250000
8099		35.156250
8100		29.296875
8101		35.156250
8102		29.296875
8103		33.203125
8104		29.296875
8105		33.203125
8106		29.296875
8107		33.203125
8108		29.296875
8109		31.250000
8110		27.343750
8111		31.250000
8112		27.343750
8113		31.250000
8114		27.343750
8115		29.296875
8116		23.437500
8117		31.250000
8118		23.437500
8119		29.296875
8120		23.437500
8121		27.343750
8122		23.437500
8123		27.343750
8124		23.437500
8125		25.390625
8126		21.484375
8127		25.390625
8128		21.484375
8129		25.390625
8130		19.531250
8131		23.437500
8132		17.578125
8133		21.484375
8134		15.625000
8135		23.437500
8136		15.625000
8137		19.531250
8138		13.671875
8139		19.531250
8140		15.625000
8141		19.531250
8142		13.671875
8143		15.625000
8144		11.718750
8145		15.625000
8146		9.765625
8147		15.625000
8148		9.765625
8149		13.671875
8150		9.765625
8151		13.671875
8152		7.812500
8153		11.718750
8154		5.859375
8155		9.765625
8156		3.906250
8157		9.765625
8158		3.906250
8159		7.812500
8160		3.906250
8161		5.859375
8162		1.953125
8163		5.859375
8164		0.000000
8165		3.906250
8166		-1.953125
8167		3.906250
8168		-1.953125
8169		1.953125
8170		-1.953125
8171		1.953125
8172		-3.906250
8173		1.953125
8174		-3.906250
8175		-1.953125
8176		-3.906250
8177		-1.953125
8178		-5.859375
8179		-1.953125
8180		-7.812500
8181		-3.906250
8182		-7.812500
8183		-3.906250
8184		-7.812500
8185		-5.859375
8186		-9.765625
8187		-5.859375
8188		-9.765625
8189		-7.812500
8190		-11.718750
8191		-7.812500
8192		-11.718750
8193		-7.812500
8194		-13.671875
8195		-7.812500
8196		-11.718750
8197		-9.765625
8198		-11.718750
8199		-9.765625
8200		-13.671875
8201		-7.812500
8202		-13.671875
8203		-9.765625
8204		-13.671875
8205		-9.765625
8206		-13.671875
8207		-9.765625
8208		-13.671875
8209		-11.718750
8210		-13.671875
8211		-11.718750
8212		-15.625000
8213		-9.765625
8214		-13.671875
8215		-11.718750
8216		-13.671875
8217		-9.765625
8218		-13.671875
8219		-9.765625
8220		-13.671875
8221		-9.765625
8222		-13.671875
8223		-9.765625
8224		-13.671875
8225		-9.765625
8226		-11.718750
8227		-9.765625
8228		-11.718750
8229		-7.812500
8230		-11.718750
8231		-7.812500
8232		-11.718750
8233		-7.812500
8234		-9.765625
8235		-7.812500
8236		-9.765625
8237		-5.859375
8238		-9.765625
8239		-5.859375
8240		-9.765625
8241		-3.906250
8242		-7.812500
8243		-3.906250
8244		-5.859375
8245		-1.953125
8246		-5.859375
8247		-1.953125
8248		-3.906250
8249		-1.953125
8250		-3.906250
8251		0.000000
8252		-3.906250
8253		0.000000
8254		-1.953125
8255		1.953125
8256		0.000000
8257		1.953125
8258		0.000000
8259		3.906250
8260		1.953125
8261		3.906250
8262		1.953125
8263		5.859375
8264		3.906250
8265		7.812500
8266		3.906250
8267		7.812500
8268		5.859375
8269		9.765625
8270		5.859375
8271		9.765625
8272		7.812500
8273		11.718750
8274		7.812500
8275		11.718750
8276		9.765625
8277		13.671875
8278		11.718750
8279		15.625000
8280		13.671875
8281		15.625000
8282		13.671875
8283		17.578125
8284		15.625000
8285		17.578125
8286		15.625000
8287		19.531250
8288		17.578125
8289		19.531250
8290		17.578125
8291		21.484375
8292		19.531250
8293		23.437500
8294		19.531250
8295		23.437500
8296		21.484375
8297		25.390625
8298		21.484375
8299		25.390625
8300		23.437500
8301		27.343750
8302		23.437500
8303		27.343750
8304		25.390625
8305		27.343750
8306		25.390625
8307		29.296875
8308		25.390625
8309		29.296875
8310		27.343750
8311		29.296875
8312		27.343750
8313		31.250000
8314		29.296875
8315		31.250000
8316		29.296875
8317		31.250000
8318		29.296875
8319		33.203125
8320		29.296875
8321		33.203125
8322		31.250000
8323		33.203125
8324		31.250000
8325		35.156250
8326		31.250000
8327		35.156250
8328		31.250000
8329		35.156250
8330		31.250000
8331		35.156250
8332		31.250000
8333		35.156250
8334		31.250000
8335		35.156250
8336		31.250000
8337		35.156250
8338		31.250000
8339		35.156250
8340		31.250000
8341		35.156250
8342		33.203125
8343		35.156250
8344		31.250000
8345		35.156250
8346		31.250000
8347		35.156250
8348		31.250000
8349		35.156250
8350		31.250000
8351		35.156250
8352		31.250000
8353		33.203125
8354		29.296875
8355		33.203125
8356		29.296875
8357		33.203125
8358		29.296875
8359		33.203125
8360		29.296875
8361		31.250000
8362		27.343750
8363		33.203125
8364		27.343750
8365		31.250000
8366		27.343750
8367		31.250000
8368		27.343750
8369		29.296875
8370		25.390625
8371		29.296875
8372		25.390625
8373		29.296875
8374		23.437500
8375		27.343750
8376		23.437500
8377		27.343750
8378		23.437500
8379		25.390625
8380		21.484375
8381		25.390625
8382		21.484375
8383		23.437500
8384		19.531250
8385		23.437500
8386		19.531250
8387		21.484375
8388		17.578125
8389		21.484375
8390		17.578125
8391		19.531250
8392		15.625000
8393		19.531250
8394		13.671875
8395		17.578125
8396		13.671875
8397		17.578125
8398		11.718750
8399		15.625000
8400		11.718750
8401		13.671875
8402		9.765625
8403		13.671875
8404		7.812500
8405		11.718750
8406		7.812500
8407		11.718750
8408		5.859375
8409		9.765625
8410		5.859375
8411		7.812500
8412		1.953125
8413		7.812500
8414		3.906250
8415		5.859375
8416		1.953125
8417		5.859375
8418		0.000000
8419		3.906250
8420		0.000000
8421		3.906250
8422		-1.953125
8423		1.953125
8424		-3.906250
8425		0.000000
8426		-3.906250
8427		0.000000
8428		-3.906250
8429		-1.953125
8430		-5.859375
8431		-1.953125
8432		-5.859375
8433		-1.953125
8434		-7.812500
8435		-3.906250
8436		-7.812500
8437		-3.906250
8438		-9.765625
8439		-5.859375
8440		-9.765625
8441		-5.859375
8442		-9.765625
8443		-5.859375
8444		-9.765625
8445		-7.812500
8446		-11.718750
8447		-7.812500
8448		-11.718750
8449		-7.812500
8450		-13.671875
8451		-9.765625
8452		-11.718750
8453		-9.765625
8454		-13.671875
8455		-9.765625
8456		-13.671875
8457		-9.765625
8458		-13.671875
8459		-9.765625
8460		-13.671875
8461		-9.765625
8462		-13.671875
8463		-11.718750
8464		-15.625000
8465		-9.765625
8466		-13.671875
8467		-9.765625
8468		-13.671875
8469		-9.765625
8470		-13.671875
8471		-9.765625
8472		-13.671875
8473		-9.765625
8474		-13.671875
8475		-9.765625
8476		-13.671875
8477		-7.812500
8478		-11.718750
8479		-9.765625
8480		-13.671875
8481		-7.812500
8482		-11.718750
8483		-7.812500
8484		-11.718750
8485		-7.812500
8486		-11.718750
8487		-5.859375
8488		-9.765625
8489		-5.859375
8490		-9.765625
8491		-5.859375
8492		-9.765625
8493		-5.859375
8494		-7.812500
8495		-3.906250
8496		-7.812500
8497		-1.953125
8498		-5.859375
8499		-1.953125
8500		-5.859375
8501		-1.953125
8502		-3.906250
8503		0.000000
8504		-3.906250
8505		0.000000
8506		-3.906250
8507		1.953125
8508		-1.953125
8509		1.953125
8510		0.000000
8511		3.906250
8512		1.953125
8513		3.906250
8514		1.953125
8515		5.859375
8516		1.953125
8517		5.859375
8518		3.906250
8519		7.812500
8520		5.859375
8521		9.765625
8522		5.859375
8523		9.765625
8524		7.812500
8525		11.718750
8526		7.812500
8527		11.718750
8528		9.765625
8529		13.671875
8530		9.765625
8531		15.625000
8532		11.718750
8533		15.625000
8534		13.671875
8535		17.578125
8536		13.671875
8537		17.578125
8538		15.625000
8539		19.531250
8540		15.625000
8541		19.531250
8542		17.578125
8543		21.484375
8544		19.531250
8545		21.484375
8546		19.531250
8547		23.437500
8548		19.531250
8549		25.390625
8550		21.484375
8551		25.390625
8552		21.484375
8553		25.390625
8554		23.437500
8555		27.343750
8556		23.437500
8557		27.343750
8558		25.390625
8559		29.296875
8560		25.390625
8561		29.296875
8562		27.343750
8563		29.296875
8564		27.343750
8565		31.250000
8566		27.343750
8567		31.250000
8568		29.296875
8569		33.203125
8570		29.296875
8571		31.250000
8572		29.296875
8573		33.203125
8574		29.296875
8575		33.203125
8576		29.296875
8577		35.156250
8578		31.250000
8579		33.203125
8580		31.250000
8581		35.156250
8582		31.250000
8583		35.156250
8584		31.250000
8585		35.156250
8586		31.250000
8587		35.156250
8588		31.250000
8589		35.156250
8590		31.250000
8591		35.156250
8592		31.250000
8593		37.109375
8594		33.203125
8595		35.156250
8596		33.203125
8597		35.156250
8598		31.250000
8599		35.156250
8600		31.250000
8601		35.156250
8602		31.250000
8603		35.156250
8604		31.250000
8605		35.156250
8606		31.250000
8607		33.203125
8608		29.296875
8609		35.156250
8610		29.296875
8611		33.203125
8612		29.296875
8613		33.203125
8614		27.343750
8615		33.203125
8616		27.343750
8617		31.250000
8618		27.343750
8619		31.250000
8620		27.343750
8621		29.296875
8622		25.390625
8623		29.296875
8624		25.390625
8625		29.296875
8626		25.390625
8627		27.343750
8628		23.437500
8629		27.343750
8630		23.437500
8631		25.390625
8632		21.484375
8633		25.390625
8634		19.531250
8635		23.437500
8636		19.531250
8637		23.437500
8638		19.531250
8639		23.437500
8640		17.578125
8641		21.484375
8642		17.578125
8643		19.531250
8644		15.625000
8645		19.531250
8646		13.671875
8647		17.578125
8648		13.671875
8649		17.578125
8650		11.718750
8651		15.625000
8652		11.718750
8653		15.625000
8654		9.765625
8655		13.671875
8656		7.812500
8657		13.671875
8658		7.812500
8659		11.718750
8660		5.859375
8661		9.765625
8662		5.859375
8663		9.765625
8664		3.906250
8665		7.812500
8666		3.906250
8667		7.812500
8668		1.953125
8669		5.859375
8670		1.953125
8671		3.906250
8672		0.000000
8673		3.906250
8674		-1.953125
8675		1.953125
8676		-1.953125
8677		1.953125
8678		-3.906250
8679		0.000000
8680		-3.906250
8681		0.000000
8682		-5.859375
8683		-1.953125
8684		-5.859375
8685		-1.953125
8686		-5.859375
8687		-3.906250
8688		-7.812500
8689		-3.906250
8690		-7.812500
8691		-5.859375
8692		-9.765625
8693		-5.859375
8694		-9.765625
8695		-5.859375
8696		-9.765625
8697		-7.812500
8698		-11.718750
8699		-7.812500
8700		-11.718750
8701		-7.812500
8702		-11.718750
8703		-9.765625
8704		-11.718750
8705		-9.765625
8706		-13.671875
8707		-9.765625
8708		-13.671875
8709		-9.765625
8710		-13.671875
8711		-9.765625
8712		-13.671875
8713		-11.718750
8714		-13.671875
8715		-9.765625
8716		-13.671875
8717		-9.765625
8718		-13.671875
8719		-11.718750
8720		-13.671875
8721		-11.718750
8722		-13.671875
8723		-11.718750
8724		-13.671875
8725		-11.718750
8726		-13.671875
8727		-9.765625
8728		-13.671875
8729		-9.765625
8730		-11.718750
8731		-9.765625
8732		-13.671875
8733		-7.812500
8734		-11.718750
8735		-9.765625
8736		-11.718750
8737		-7.812500
8738		-11.718750
8739		-7.812500
8740		-9.765625
8741		-5.859375
8742		-9.765625
8743		-5.859375
8744		-9.765625
8745		-5.859375
8746		-7.812500
8747		-5.859375
8748		-7.812500
8749		-3.906250
8750		-7.812500
8751		-3.906250
8752		-5.859375
8753		-1.953125
8754		-3.906250
8755		-1.953125
8756		-3.906250
8757		0.000000
8758		-3.906250
8759		0.000000
8760		-1.953125
8761		1.953125
8762		-1.953125
8763		1.953125
8764		0.000000
8765		3.906250
8766		0.000000
8767		5.859375
8768		1.953125
8769		5.859375
8770		3.906250
8771		5.859375
8772		3.906250
8773		7.812500
8774		5.859375
8775		9.765625
8776		5.859375
8777		9.765625
8778		7.812500
8779		11.718750
8780		9.765625
8781		11.718750
8782		9.765625
8783		15.625000
8784		9.765625
8785		15.625000
8786		11.718750
8787		15.625000
8788		13.671875
8789		17.578125
8790		13.671875
8791		17.578125
8792		15.625000
8793		19.531250
8794		17.578125
8795		21.484375
8796		17.578125
8797		21.484375
8798		19.531250
8799		21.484375
8800		19.531250
8801		23.437500
8802		21.484375
8803		23.437500
8804		21.484375
8805		25.390625
8806		21.484375
8807		27.343750
8808		23.437500
8809		27.343750
8810		25.390625
8811		27.343750
8812		25.390625
8813		29.296875
8814		25.390625
8815		29.296875
8816		25.390625
8817		31.250000
8818		27.343750
8819		31.250000
8820		27.343750
8821		31.250000
8822		29.296875
8823		31.250000
8824		29.296875
8825		33.203125
8826		29.296875
8827		33.203125
8828		31.250000
8829		33.203125
8830		31.250000
8831		35.156250
8832		31.250000
8833		33.203125
8834		29.296875
8835		35.156250
8836		31.250000
8837		35.156250
8838		31.250000
8839		35.156250
8840		33.203125
8841		35.156250
8842		31.250000
8843		35.156250
8844		31.250000
8845		35.156250
8846		31.250000
8847		35.156250
8848		33.203125
8849		35.156250
8850		31.250000
8851		37.109375
8852		31.250000
8853		35.156250
8854		31.250000
8855		35.156250
8856		31.250000
8857		35.156250
8858		31.250000
8859		35.156250
8860		31.250000
8861		33.203125
8862		29.296875
8863		33.203125
8864		29.296875
8865		33.203125
8866		29.296875
8867		33.203125
8868		27.343750
8869		33.203125
8870		27.343750
8871		31.250000
8872		27.343750
8873		31.250000
8874		27.343750
8875		29.296875
8876		25.390625
8877		29.296875
8878		25.390625
8879		29.296875
8880		25.390625
8881		27.343750
8882		23.437500
8883		27.343750
8884		21.484375
8885		25.390625
8886		21.484375
8887		25.390625
8888		21.484375
8889		23.437500
8890		19.531250
8891		23.437500
8892		19.531250
8893		21.484375
8894		17.578125
8895		21.484375
8896		17.578125
8897		21.484375
8898		15.625000
8899		19.531250
8900		13.671875
8901		17.578125
8902		13.671875
8903		17.578125
8904		11.718750
8905		15.625000
8906		11.718750
8907		13.671875
8908		9.765625
8909		13.671875
8910		9.765625
8911		11.718750
8912		7.812500
8913		11.718750
8914		5.859375
8915		9.765625
8916		5.859375
8917		7.812500
8918		3.906250
8919		7.812500
8920		3.906250
8921		7.812500
8922		1.953125
8923		5.859375
8924		0.000000
8925		3.906250
8926		0.000000
8927		3.906250
8928		-1.953125
8929		1.953125
8930		-1.953125
8931		1.953125
8932		-3.906250
8933		0.000000
8934		-3.906250
8935		0.000000
8936		-5.859375
8937		-1.953125
8938		-5.859375
8939		-1.953125
8940		-7.812500
8941		-3.906250
8942		-7.812500
8943		-3.906250
8944		-7.812500
8945		-3.906250
8946		-9.765625
8947		-5.859375
8948		-9.765625
8949		-5.859375
8950		-11.718750
8951		-7.812500
8952		-11.718750
8953		-7.812500
8954		-11.718750
8955		-7.812500
8956		-11.718750
8957		-7.812500
8958		-13.671875
8959		-9.765625
8960		-13.671875
8961		-9.765625
8962		-13.671875
8963		-9.765625
8964		-13.671875
8965		-9.765625
8966		-13.671875
8967		-9.765625
8968		-13.671875
8969		-9.765625
8970		-13.671875
8971		-9.765625
8972		-13.671875
8973		-9.765625
8974		-13.671875
8975		-9.765625
8976		-13.671875
8977		-9.765625
8978		-13.671875
8979		-9.765625
8980		-13.671875
8981		-9.765625
8982		-13.671875
8983		-9.765625
8984		-13.671875
8985		-9.765625
8986		-11.718750
8987		-7.812500
8988		-11.718750
8989		-7.812500
8990		-11.718750
8991		-7.812500
8992		-11.718750
8993		-5.859375
8994		-9.765625
8995		-5.859375
8996		-9.765625
8997		-5.859375
8998		-7.812500
8999		-5.859375
9000		-7.812500
9001		-3.906250
9002		-7.812500
9003		-3.906250
9004		-7.812500
9005		-1.953125
9006		-5.859375
9007		-1.953125
9008		-3.906250
9009		0.000000
9010		-3.906250
9011		0.000000
9012		-1.953125
9013		1.953125
9014		-1.953125
9015		1.953125
9016		0.000000
9017		1.953125
9018		0.000000
9019		3.906250
9020		1.953125
9021		5.859375
9022		1.953125
9023		7.812500
9024		3.906250
9025		7.812500
9026		5.859375
9027		7.812500
9028		5.859375
9029		9.765625
9030		5.859375
9031		11.718750
9032		7.812500
9033		11.718750
9034		9.765625
9035		13.671875
9036		9.765625
9037		13.671875
9038		11.718750
9039		15.625000
9040		13.671875
9041		17.578125
9042		13.671875
9043		17.578125
9044		15.625000
9045		19.531250
9046		15.625000
9047		19.531250
9048		17.578125
9049		19.531250
9050		19.531250
9051		21.484375
9052		19.531250
9053		23.437500
9054		19.531250
9055		23.437500
9056		21.484375
9057		25.390625
9058		23.437500
9059		27.343750
9060		23.437500
9061		27.343750
9062		23.437500
9063		27.343750
9064		25.390625
9065		29.296875
9066		25.390625
9067		29.296875
9068		27.343750
9069		31.250000
9070		27.343750
9071		31.250000
9072		27.343750
9073		33.203125
9074		29.296875
9075		31.250000
9076		29.296875
9077		33.203125
9078		29.296875
9079		33.203125
9080		29.296875
9081		35.156250
9082		31.250000
9083		33.203125
9084		31.250000
9085		33.203125
9086		31.250000
9087		35.156250
9088		31.250000
9089		35.156250
9090		31.250000
9091		35.156250
9092		31.250000
9093		35.156250
9094		31.250000
9095		35.156250
9096		33.203125
9097		37.109375
9098		33.203125
9099		35.156250
9100		33.203125
9101		35.156250
9102		31.250000
9103		35.156250
9104		31.250000
9105		35.156250
9106		31.250000
9107		35.156250
9108		31.250000
9109		35.156250
9110		31.250000
9111		35.156250
9112		31.250000
9113		35.156250
9114		31.250000
9115		35.156250
9116		31.250000
9117		33.203125
9118		29.296875
9119		33.203125
9120		29.296875
9121		33.203125
9122		29.296875
9123		31.250000
9124		27.343750
9125		31.250000
9126		27.343750
9127		31.250000
9128		27.343750
9129		29.296875
9130		23.437500
9131		29.296875
9132		25.390625
9133		27.343750
9134		25.390625
9135		27.343750
9136		23.437500
9137		27.343750
9138		21.484375
9139		27.343750
9140		21.484375
9141		25.390625
9142		19.531250
9143		25.390625
9144		19.531250
9145		23.437500
9146		17.578125
9147		21.484375
9148		17.578125
9149		21.484375
9150		15.625000
9151		19.531250
9152		15.625000
9153		19.531250
9154		13.671875
9155		17.578125
9156		13.671875
9157		15.625000
9158		11.718750
9159		15.625000
9160		9.765625
9161		13.671875
9162		9.765625
9163		13.671875
9164		7.812500
9165		11.718750
9166		7.812500
9167		9.765625
9168		5.859375
9169		9.765625
9170		3.906250
9171		9.765625
9172		3.906250
9173		7.812500
9174		1.953125
9175		7.812500
9176		1.953125
9177		5.859375
9178		0.000000
9179		3.906250
9180		0.000000
9181		3.906250
9182		-1.953125
9183		1.953125
9184		-1.953125
9185		0.000000
9186		-3.906250
9187		0.000000
9188		-3.906250
9189		0.000000
9190		-5.859375
9191		-1.953125
9192		-5.859375
9193		-1.953125
9194		-7.812500
9195		-3.906250
9196		-7.812500
9197		-3.906250
9198		-9.765625
9199		-3.906250
9200		-9.765625
9201		-5.859375
9202		-9.765625
9203		-7.812500
9204		-9.765625
9205		-7.812500
9206		-11.718750
9207		-7.812500
9208		-11.718750
9209		-7.812500
9210		-11.718750
9211		-7.812500
9212		-13.671875
9213		-7.812500
9214		-13.671875
9215		-9.765625
9216		-13.671875
9217		-9.765625
9218		-13.671875
9219		-9.765625
9220		-13.671875
9221		-9.765625
9222		-13.671875
9223		-9.765625
9224		-13.671875
9225		-9.765625
9226		-13.671875
9227		-9.765625
9228		-13.671875
9229		-9.765625
9230		-13.671875
9231		-9.765625
9232		-13.671875
9233		-9.765625
9234		-11.718750
9235		-9.765625
9236		-13.671875
9237		-7.812500
9238		-11.718750
9239		-7.812500
9240		-11.718750
9241		-7.812500
9242		-11.718750
9243		-7.812500
9244		-11.718750
9245		-7.812500
9246		-9.765625
9247		-5.859375
9248		-9.765625
9249		-5.859375
9250		-7.812500
9251		-3.906250
9252		-7.812500
9253		-5.859375
9254		-7.812500
9255		-3.906250
9256		-5.859375
9257		-1.953125
9258		-5.859375
9259		-1.953125
9260		-3.906250
9261		0.000000
9262		-3.906250
9263		0.000000
9264		-1.953125
9265		1.953125
9266		-1.953125
9267		1.953125
9268		0.000000
9269		1.953125
9270		0.000000
9271		3.906250
9272		1.953125
9273		3.906250
9274		1.953125
9275		5.859375
9276		3.906250
9277		7.812500
9278		3.906250
9279		7.812500
9280		5.859375
9281		9.765625
9282		5.859375
9283		11.718750
9284		7.812500
9285		11.718750
9286		7.812500
9287		11.718750
9288		9.765625
9289		13.671875
9290		11.718750
9291		15.625000
9292		11.718750
9293		15.625000
9294		13.671875
9295		17.578125
9296		13.671875
9297		19.531250
9298		15.625000
9299		19.531250
9300		17.578125
9301		19.531250
9302		17.578125
9303		21.484375
9304		19.531250
9305		23.437500
9306		19.531250
9307		23.437500
9308		19.531250
9309		25.390625
9310		21.484375
9311		25.390625
9312		23.437500
9313		27.343750
9314		23.437500
9315		27.343750
9316		23.437500
9317		29.296875
9318		25.390625
9319		29.296875
9320		25.390625
9321		31.250000
9322		27.343750
9323		31.250000
9324		27.343750
9325		31.250000
9326		29.296875
9327		31.250000
9328		29.296875
9329		33.203125
9330		29.296875
9331		33.203125
9332		29.296875
9333		33.203125
9334		31.250000
9335		33.203125
9336		31.250000
9337		33.203125
9338		31.250000
9339		35.156250
9340		31.250000
9341		35.156250
9342		31.250000
9343		35.156250
9344		33.203125
9345		35.156250
9346		33.203125
9347		35.156250
9348		33.203125
9349		35.156250
9350		31.250000
9351		35.156250
9352		33.203125
9353		35.156250
9354		31.250000
9355		37.109375
9356		33.203125
9357		35.156250
9358		31.250000
9359		35.156250
9360		31.250000
9361		35.156250
9362		31.250000
9363		35.156250
9364		31.250000
9365		35.156250
9366		31.250000
9367		35.156250
9368		31.250000
9369		33.203125
9370		31.250000
9371		33.203125
9372		29.296875
9373		33.203125
9374		29.296875
9375		33.203125
9376		27.343750
9377		33.203125
9378		27.343750
9379		31.250000
9380		27.343750
9381		31.250000
9382		27.343750
9383		29.296875
9384		25.390625
9385		29.296875
9386		25.390625
9387		27.343750
9388		23.437500
9389		29.296875
9390		23.437500
9391		27.343750
9392		23.437500
9393		27.343750
9394		21.484375
9395		25.390625
9396		19.531250
9397		23.437500
9398		19.531250
9399		23.437500
9400		17.578125
9401		23.437500
9402		17.578125
9403		21.484375
9404		15.625000
9405		19.531250
9406		15.625000
9407		19.531250
9408		13.671875
9409		17.578125
9410		13.671875
9411		17.578125
9412		11.718750
9413		15.625000
9414		9.765625
9415		15.625000
9416		7.812500
9417		13.671875
9418		9.765625
9419		11.718750
9420		7.812500
9421		9.765625
9422		5.859375
9423		9.765625
9424		5.859375
9425		7.812500
9426		3.906250
9427		7.812500
9428		3.906250
9429		5.859375
9430		1.953125
9431		5.859375
9432		0.000000
9433		3.906250
9434		0.000000
9435		3.906250
9436		-1.953125
9437		1.953125
9438		-3.906250
9439		0.000000
9440		-3.906250
9441		0.000000
9442		-3.906250
9443		0.000000
9444		-5.859375
9445		-1.953125
9446		-5.859375
9447		-1.953125
9448		-7.812500
9449		-3.906250
9450		-7.812500
9451		-3.906250
9452		-7.812500
9453		-5.859375
9454		-9.765625
9455		-5.859375
9456		-9.765625
9457		-5.859375
9458		-9.765625
9459		-7.812500
9460		-11.718750
9461		-7.812500
9462		-11.718750
9463		-7.812500
9464		-11.718750
9465		-9.765625
9466		-11.718750
9467		-9.765625
9468		-13.671875
9469		-9.765625
9470		-11.718750
9471		-9.765625
9472		-13.671875
9473		-9.765625
9474		-13.671875
9475		-9.765625
9476		-13.671875
9477		-9.765625
9478		-13.671875
9479		-9.765625
9480		-13.671875
9481		-9.765625
9482		-13.671875
9483		-9.765625
9484		-13.671875
9485		-9.765625
9486		-11.718750
9487		-9.765625
9488		-11.718750
9489		-9.765625
9490		-11.718750
9491		-7.812500
9492		-11.718750
9493		-7.812500
9494		-11.718750
9495		-7.812500
9496		-11.718750
9497		-7.812500
9498		-9.765625
9499		-7.812500
9500		-9.765625
9501		-5.859375
9502		-9.765625
9503		-5.859375
9504		-7.812500
9505		-5.859375
9506		-7.812500
9507		-3.906250
9508		-7.812500
9509		-3.906250
9510		-5.859375
9511		-1.953125
9512		-3.906250
9513		-1.953125
9514		-3.906250
9515		0.000000
9516		-3.906250
9517		0.000000
9518		-1.953125
9519		1.953125
9520		0.000000
9521		1.953125
9522		0.000000
9523		3.906250
9524		0.000000
9525		3.906250
9526		1.953125
9527		5.859375
9528		3.906250
9529		5.859375
9530		3.906250
9531		7.812500
9532		5.859375
9533		7.812500
9534		5.859375
9535		9.765625
9536		7.812500
9537		9.765625
9538		9.765625
9539		11.718750
9540		9.765625
9541		13.671875
9542		11.718750
9543		15.625000
9544		11.718750
9545		15.625000
9546		13.671875
9547		17.578125
9548		15.625000
9549		17.578125
9550		15.625000
9551		19.531250
9552		15.625000
9553		19.531250
9554		17.578125
9555		21.484375
9556		19.531250
9557		23.437500
9558		19.531250
9559		23.437500
9560		21.484375
9561		25.390625
9562		21.484375
9563		25.390625
9564		23.437500
9565		25.390625
9566		23.437500
9567		27.343750
9568		23.437500
9569		27.343750
9570		25.390625
9571		29.296875
9572		27.343750
9573		29.296875
9574		27.343750
9575		31.250000
9576		27.343750
9577		31.250000
9578		27.343750
9579		31.250000
9580		29.296875
9581		33.203125
9582		29.296875
9583		33.203125
9584		29.296875
9585		33.203125
9586		31.250000
9587		33.203125
9588		31.250000
9589		33.203125
9590		31.250000
9591		35.156250
9592		31.250000
9593		35.156250
9594		31.250000
9595		35.156250
9596		33.203125
9597		35.156250
9598		33.203125
9599		37.109375
9600		33.203125
9601		37.109375
9602		31.250000
9603		35.156250
9604		33.203125
9605		35.156250
9606		33.203125
9607		37.109375
9608		33.203125
9609		35.156250
9610		33.203125
9611		35.156250
9612		33.203125
9613		35.156250
9614		31.250000
9615		35.156250
9616		31.250000
9617		35.156250
9618		31.250000
9619		35.156250
9620		31.250000
9621		33.203125
9622		31.250000
9623		33.203125
9624		31.250000
9625		33.203125
9626		29.296875
9627		33.203125
9628		29.296875
9629		33.203125
9630		27.343750
9631		31.250000
9632		27.343750
9633		31.250000
9634		27.343750
9635		31.250000
9636		25.390625
9637		31.250000
9638		25.390625
9639		29.296875
9640		25.390625
9641		27.343750
9642		23.437500
9643		27.343750
9644		23.437500
9645		25.390625
9646		23.437500
9647		25.390625
9648		21.484375
9649		25.390625
9650		21.484375
9651		23.437500
9652		19.531250
9653		21.484375
9654		19.531250
9655		21.484375
9656		15.625000
9657		21.484375
9658		15.625000
9659		19.531250
9660		13.671875
9661		17.578125
9662		13.671875
9663		17.578125
9664		11.718750
9665		15.625000
9666		11.718750
9667		15.625000
9668		9.765625
9669		13.671875
9670		9.765625
9671		13.671875
9672		7.812500
9673		11.718750
9674		7.812500
9675		11.718750
9676		5.859375
9677		9.765625
9678		5.859375
9679		7.812500
9680		1.953125
9681		7.812500
9682		1.953125
9683		5.859375
9684		1.953125
9685		5.859375
9686		0.000000
9687		5.859375
9688		0.000000
9689		1.953125
9690		-1.953125
9691		1.953125
9692		-1.953125
9693		1.953125
9694		-3.906250
9695		0.000000
9696		-3.906250
9697		-1.953125
9698		-5.859375
9699		-1.953125
9700		-5.859375
9701		-1.953125
9702		-7.812500
9703		-3.906250
9704		-7.812500
9705		-3.906250
9706		-7.812500
9707		-5.859375
9708		-9.765625
9709		-5.859375
9710		-9.765625
9711		-5.859375
9712		-9.765625
9713		-7.812500
9714		-11.718750
9715		-7.812500
9716		-11.718750
9717		-7.812500
9718		-11.718750
9719		-7.812500
9720		-11.718750
9721		-7.812500
9722		-11.718750
9723		-9.765625
9724		-13.671875
9725		-9.765625
9726		-11.718750
9727		-9.765625
9728		-13.671875
9729		-9.765625
9730		-13.671875
9731		-9.765625
9732		-13.671875
9733		-9.765625
9734		-11.718750
9735		-9.765625
9736		-11.718750
9737		-9.765625
9738		-11.718750
9739		-9.765625
9740		-11.718750
9741		-7.812500
9742		-11.718750
9743		-7.812500
9744		-11.718750
9745		-7.812500
9746		-11.718750
9747		-7.812500
9748		-11.718750
9749		-7.812500
9750		-9.765625
9751		-5.859375
9752		-9.765625
9753		-5.859375
9754		-7.812500
9755		-5.859375
9756		-7.812500
9757		-5.859375
9758		-7.812500
9759		-3.906250
9760		-7.812500
9761		-3.906250
9762		-5.859375
9763		-1.953125
9764		-5.859375
9765		-1.953125
9766		-3.906250
9767		0.000000
9768		-3.906250
9769		0.000000
9770		-1.953125
9771		1.953125
9772		0.000000
9773		1.953125
9774		0.000000
9775		3.906250
9776		0.000000
9777		3.906250
9778		1.953125
9779		5.859375
9780		1.953125
9781		5.859375
9782		3.906250
9783		7.812500
9784		5.859375
9785		9.765625
9786		5.859375
9787		11.718750
9788		7.812500
9789		11.718750
9790		9.765625
9791		11.718750
9792		7.812500
9793		13.671875
9794		11.718750
9795		15.625000
9796		11.718750
9797		15.625000
9798		13.671875
9799		17.578125
9800		13.671875
9801		17.578125
9802		15.625000
9803		19.531250
9804		15.625000
9805		19.531250
9806		17.578125
9807		21.484375
9808		17.578125
9809		23.437500
9810		19.531250
9811		23.437500
9812		19.531250
9813		25.390625
9814		21.484375
9815		25.390625
9816		23.437500
9817		27.343750
9818		23.437500
9819		27.343750
9820		23.437500
9821		29.296875
9822		25.390625
9823		29.296875
9824		27.343750
9825		29.296875
9826		27.343750
9827		31.250000
9828		27.343750
9829		31.250000
9830		27.343750
9831		31.250000
9832		29.296875
9833		33.203125
9834		29.296875
9835		33.203125
9836		31.250000
9837		35.156250
9838		31.250000
9839		33.203125
9840		31.250000
9841		35.156250
9842		31.250000
9843		35.156250
9844		31.250000
9845		35.156250
9846		33.203125
9847		35.156250
9848		33.203125
9849		37.109375
9850		33.203125
9851		37.109375
9852		33.203125
9853		37.109375
9854		33.203125
9855		37.109375
9856		33.203125
9857		35.156250
9858		33.203125
9859		37.109375
9860		33.203125
9861		37.109375
9862		33.203125
9863		37.109375
9864		33.203125
9865		35.156250
9866		33.203125
9867		37.109375
9868		33.203125
9869		35.156250
9870		33.203125
9871		35.156250
9872		33.203125
9873		35.156250
9874		31.250000
9875		35.156250
9876		31.250000
9877		35.156250
9878		31.250000
9879		33.203125
9880		29.296875
9881		33.203125
9882		29.296875
9883		33.203125
9884		29.296875
9885		33.203125
9886		27.343750
9887		31.250000
9888		25.390625
9889		31.250000
9890		27.343750
9891		29.296875
9892		25.390625
9893		29.296875
9894		25.390625
9895		29.296875
9896		23.437500
9897		27.343750
9898		23.437500
9899		27.343750
9900		23.437500
9901		25.390625
9902		21.484375
9903		25.390625
9904		19.531250
9905		23.437500
9906		19.531250
9907		23.437500
9908		17.578125
9909		21.484375
9910		17.578125
9911		21.484375
9912		15.625000
9913		19.531250
9914		15.625000
9915		19.531250
9916		13.671875
9917		17.578125
9918		11.718750
9919		17.578125
9920		11.718750
9921		15.625000
9922		11.718750
9923		13.671875
9924		9.765625
9925		11.718750
9926		7.812500
9927		11.718750
9928		7.812500
9929		9.765625
9930		5.859375
9931		9.765625
9932		5.859375
9933		7.812500
9934		3.906250
9935		7.812500
9936		1.953125
9937		5.859375
9938		0.000000
9939		5.859375
9940		0.000000
9941		3.906250
9942		-1.953125
9943		3.906250
9944		-1.953125
9945		1.953125
9946		-3.906250
9947		0.000000
9948		-3.906250
9949		0.000000
9950		-3.906250
9951		-1.953125
9952		-5.859375
9953		-1.953125
9954		-7.812500
9955		-1.953125
9956		-5.859375
9957		-3.906250
9958		-7.812500
9959		-3.906250
9960		-9.765625
9961		-3.906250
9962		-9.765625
9963		-5.859375
9964		-9.765625
9965		-5.859375
9966		-9.765625
9967		-7.812500
9968		-11.718750
9969		-7.812500
9970		-11.718750
9971		-7.812500
9972		-11.718750
9973		-7.812500
9974		-11.718750
9975		-9.765625
9976		-13.671875
9977		-9.765625
9978		-11.718750
9979		-9.765625
9980		-13.671875
9981		-9.765625
9982		-13.671875
9983		-9.765625
9984		-13.671875
9985		-9.765625
9986		-13.671875
9987		-9.765625
9988		-13.671875
9989		-7.812500
9990		-11.718750
9991		-9.765625
9992		-11.718750
9993		-9.765625
9994		-13.671875
9995		-7.812500
9996		-11.718750
9997		-7.812500
9998		-11.718750
9999		-7.812500
10000		-11.718750
