Channel              :		CH1
Frequency            :		1.055kHz
Period               :		0.948ms
PK-PK                :		56.64mV
Probe attenuation    :		1X
Voltage per ADC value:		0.122070mV
Time interval        :		2.00000us

index		CH1_Voltage(mV)
1		-19.531250
2		-19.531250
3		-23.437500
4		-19.531250
5		-21.484375
6		-19.531250
7		-23.437500
8		-19.531250
9		-23.437500
10		-21.484375
11		-23.437500
12		-21.484375
13		-23.437500
14		-21.484375
15		-25.390625
16		-19.531250
17		-23.437500
18		-21.484375
19		-25.390625
20		-21.484375
21		-25.390625
22		-21.484375
23		-25.390625
24		-21.484375
25		-25.390625
26		-21.484375
27		-25.390625
28		-23.437500
29		-25.390625
30		-21.484375
31		-25.390625
32		-23.437500
33		-27.343750
34		-21.484375
35		-25.390625
36		-23.437500
37		-25.390625
38		-23.437500
39		-27.343750
40		-23.437500
41		-27.343750
42		-23.437500
43		-27.343750
44		-23.437500
45		-25.390625
46		-23.437500
47		-27.343750
48		-23.437500
49		-27.343750
50		-23.437500
51		-25.390625
52		-23.437500
53		-25.390625
54		-23.437500
55		-27.343750
56		-23.437500
57		-27.343750
58		-23.437500
59		-27.343750
60		-23.437500
61		-27.343750
62		-21.484375
63		-25.390625
64		-23.437500
65		-25.390625
66		-21.484375
67		-25.390625
68		-23.437500
69		-25.390625
70		-23.437500
71		-25.390625
72		-21.484375
73		-25.390625
74		-21.484375
75		-25.390625
76		-21.484375
77		-25.390625
78		-21.484375
79		-23.437500
80		-19.531250
81		-23.437500
82		-19.531250
83		-23.437500
84		-19.531250
85		-23.437500
86		-21.484375
87		-23.437500
88		-17.578125
89		-23.437500
90		-19.531250
91		-23.437500
92		-19.531250
93		-21.484375
94		-19.531250
95		-21.484375
96		-17.578125
97		-21.484375
98		-17.578125
99		-21.484375
100		-17.578125
101		-19.531250
102		-17.578125
103		-19.531250
104		-15.625000
105		-19.531250
106		-15.625000
107		-19.531250
108		-15.625000
109		-19.531250
110		-15.625000
111		-17.578125
112		-15.625000
113		-17.578125
114		-13.671875
115		-17.578125
116		-13.671875
117		-17.578125
118		-11.718750
119		-15.625000
120		-13.671875
121		-15.625000
122		-11.718750
123		-15.625000
124		-11.718750
125		-15.625000
126		-9.765625
127		-13.671875
128		-11.718750
129		-13.671875
130		-9.765625
131		-13.671875
132		-9.765625
133		-11.718750
134		-7.812500
135		-11.718750
136		-7.812500
137		-9.765625
138		-7.812500
139		-11.718750
140		-5.859375
141		-9.765625
142		-5.859375
143		-9.765625
144		-5.859375
145		-7.812500
146		-5.859375
147		-7.812500
148		-3.906250
149		-7.812500
150		-3.906250
151		-5.859375
152		-3.906250
153		-5.859375
154		-1.953125
155		-5.859375
156		-1.953125
157		-5.859375
158		-1.953125
159		-3.906250
160		0.000000
161		-3.906250
162		0.000000
163		-1.953125
164		1.953125
165		-3.906250
166		1.953125
167		-1.953125
168		1.953125
169		0.000000
170		1.953125
171		-1.953125
172		3.906250
173		0.000000
174		3.906250
175		0.000000
176		3.906250
177		0.000000
178		5.859375
179		1.953125
180		5.859375
181		1.953125
182		5.859375
183		1.953125
184		7.812500
185		3.906250
186		7.812500
187		5.859375
188		7.812500
189		3.906250
190		7.812500
191		5.859375
192		9.765625
193		5.859375
194		9.765625
195		7.812500
196		9.765625
197		7.812500
198		11.718750
199		7.812500
200		11.718750
201		7.812500
202		11.718750
203		9.765625
204		11.718750
205		9.765625
206		13.671875
207		9.765625
208		13.671875
209		9.765625
210		13.671875
211		9.765625
212		13.671875
213		11.718750
214		15.625000
215		11.718750
216		15.625000
217		11.718750
218		15.625000
219		13.671875
220		15.625000
221		13.671875
222		15.625000
223		11.718750
224		17.578125
225		13.671875
226		17.578125
227		15.625000
228		17.578125
229		15.625000
230		19.531250
231		15.625000
232		19.531250
233		15.625000
234		19.531250
235		15.625000
236		19.531250
237		17.578125
238		19.531250
239		17.578125
240		21.484375
241		15.625000
242		21.484375
243		17.578125
244		21.484375
245		17.578125
246		21.484375
247		17.578125
248		21.484375
249		17.578125
250		21.484375
251		17.578125
252		23.437500
253		19.531250
254		23.437500
255		19.531250
256		23.437500
257		19.531250
258		23.437500
259		19.531250
260		23.437500
261		19.531250
262		23.437500
263		19.531250
264		23.437500
265		19.531250
266		23.437500
267		19.531250
268		23.437500
269		21.484375
270		23.437500
271		21.484375
272		23.437500
273		19.531250
274		23.437500
275		21.484375
276		23.437500
277		21.484375
278		25.390625
279		21.484375
280		23.437500
281		21.484375
282		23.437500
283		19.531250
284		23.437500
285		21.484375
286		25.390625
287		21.484375
288		23.437500
289		19.531250
290		23.437500
291		21.484375
292		23.437500
293		19.531250
294		23.437500
295		21.484375
296		23.437500
297		21.484375
298		23.437500
299		19.531250
300		23.437500
301		19.531250
302		23.437500
303		19.531250
304		23.437500
305		19.531250
306		23.437500
307		19.531250
308		25.390625
309		19.531250
310		23.437500
311		19.531250
312		23.437500
313		19.531250
314		21.484375
315		19.531250
316		21.484375
317		19.531250
318		21.484375
319		17.578125
320		23.437500
321		19.531250
322		21.484375
323		17.578125
324		21.484375
325		17.578125
326		21.484375
327		17.578125
328		21.484375
329		15.625000
330		19.531250
331		15.625000
332		19.531250
333		15.625000
334		19.531250
335		15.625000
336		21.484375
337		15.625000
338		19.531250
339		13.671875
340		17.578125
341		13.671875
342		17.578125
343		13.671875
344		17.578125
345		13.671875
346		17.578125
347		13.671875
348		17.578125
349		11.718750
350		15.625000
351		11.718750
352		15.625000
353		11.718750
354		15.625000
355		11.718750
356		15.625000
357		9.765625
358		15.625000
359		9.765625
360		13.671875
361		9.765625
362		13.671875
363		9.765625
364		11.718750
365		7.812500
366		11.718750
367		7.812500
368		11.718750
369		7.812500
370		11.718750
371		7.812500
372		9.765625
373		5.859375
374		11.718750
375		5.859375
376		9.765625
377		5.859375
378		9.765625
379		5.859375
380		7.812500
381		3.906250
382		7.812500
383		3.906250
384		7.812500
385		1.953125
386		7.812500
387		3.906250
388		5.859375
389		1.953125
390		3.906250
391		0.000000
392		5.859375
393		0.000000
394		3.906250
395		0.000000
396		3.906250
397		0.000000
398		1.953125
399		-1.953125
400		1.953125
401		-1.953125
402		1.953125
403		-3.906250
404		1.953125
405		-1.953125
406		0.000000
407		-3.906250
408		0.000000
409		-5.859375
410		0.000000
411		-5.859375
412		-1.953125
413		-5.859375
414		-1.953125
415		-5.859375
416		-1.953125
417		-7.812500
418		-3.906250
419		-7.812500
420		-3.906250
421		-7.812500
422		-5.859375
423		-9.765625
424		-5.859375
425		-9.765625
426		-5.859375
427		-9.765625
428		-5.859375
429		-9.765625
430		-7.812500
431		-11.718750
432		-7.812500
433		-11.718750
434		-7.812500
435		-13.671875
436		-9.765625
437		-11.718750
438		-9.765625
439		-13.671875
440		-9.765625
441		-13.671875
442		-9.765625
443		-13.671875
444		-11.718750
445		-15.625000
446		-11.718750
447		-15.625000
448		-11.718750
449		-15.625000
450		-13.671875
451		-15.625000
452		-13.671875
453		-17.578125
454		-13.671875
455		-17.578125
456		-15.625000
457		-17.578125
458		-13.671875
459		-19.531250
460		-15.625000
461		-19.531250
462		-15.625000
463		-19.531250
464		-15.625000
465		-19.531250
466		-15.625000
467		-21.484375
468		-17.578125
469		-21.484375
470		-17.578125
471		-21.484375
472		-17.578125
473		-21.484375
474		-19.531250
475		-21.484375
476		-17.578125
477		-21.484375
478		-19.531250
479		-23.437500
480		-19.531250
481		-23.437500
482		-19.531250
483		-23.437500
484		-19.531250
485		-23.437500
486		-19.531250
487		-23.437500
488		-19.531250
489		-25.390625
490		-21.484375
491		-25.390625
492		-19.531250
493		-25.390625
494		-21.484375
495		-25.390625
496		-21.484375
497		-25.390625
498		-21.484375
499		-25.390625
500		-21.484375
501		-25.390625
502		-21.484375
503		-25.390625
504		-23.437500
505		-25.390625
506		-23.437500
507		-27.343750
508		-21.484375
509		-25.390625
510		-21.484375
511		-25.390625
512		-23.437500
513		-27.343750
514		-21.484375
515		-25.390625
516		-23.437500
517		-27.343750
518		-21.484375
519		-27.343750
520		-21.484375
521		-27.343750
522		-23.437500
523		-25.390625
524		-23.437500
525		-25.390625
526		-21.484375
527		-27.343750
528		-23.437500
529		-25.390625
530		-21.484375
531		-25.390625
532		-23.437500
533		-27.343750
534		-21.484375
535		-25.390625
536		-23.437500
537		-27.343750
538		-21.484375
539		-25.390625
540		-23.437500
541		-25.390625
542		-21.484375
543		-25.390625
544		-21.484375
545		-25.390625
546		-21.484375
547		-25.390625
548		-21.484375
549		-23.437500
550		-21.484375
551		-23.437500
552		-21.484375
553		-23.437500
554		-19.531250
555		-23.437500
556		-21.484375
557		-23.437500
558		-21.484375
559		-23.437500
560		-19.531250
561		-23.437500
562		-19.531250
563		-23.437500
564		-17.578125
565		-21.484375
566		-17.578125
567		-21.484375
568		-17.578125
569		-21.484375
570		-17.578125
571		-21.484375
572		-17.578125
573		-19.531250
574		-17.578125
575		-21.484375
576		-15.625000
577		-19.531250
578		-15.625000
579		-19.531250
580		-15.625000
581		-19.531250
582		-15.625000
583		-17.578125
584		-15.625000
585		-17.578125
586		-13.671875
587		-17.578125
588		-13.671875
589		-15.625000
590		-13.671875
591		-15.625000
592		-11.718750
593		-15.625000
594		-11.718750
595		-15.625000
596		-11.718750
597		-15.625000
598		-9.765625
599		-13.671875
600		-9.765625
601		-13.671875
602		-9.765625
603		-13.671875
604		-7.812500
605		-11.718750
606		-9.765625
607		-11.718750
608		-7.812500
609		-9.765625
610		-7.812500
611		-9.765625
612		-7.812500
613		-9.765625
614		-5.859375
615		-9.765625
616		-5.859375
617		-9.765625
618		-3.906250
619		-7.812500
620		-3.906250
621		-7.812500
622		-3.906250
623		-5.859375
624		-3.906250
625		-5.859375
626		-1.953125
627		-5.859375
628		-1.953125
629		-5.859375
630		-1.953125
631		-3.906250
632		0.000000
633		-3.906250
634		0.000000
635		-1.953125
636		0.000000
637		-1.953125
638		1.953125
639		-1.953125
640		1.953125
641		0.000000
642		1.953125
643		-1.953125
644		3.906250
645		0.000000
646		3.906250
647		0.000000
648		3.906250
649		1.953125
650		3.906250
651		1.953125
652		5.859375
653		1.953125
654		5.859375
655		1.953125
656		5.859375
657		3.906250
658		5.859375
659		3.906250
660		7.812500
661		3.906250
662		9.765625
663		5.859375
664		9.765625
665		5.859375
666		9.765625
667		5.859375
668		9.765625
669		5.859375
670		11.718750
671		5.859375
672		11.718750
673		7.812500
674		11.718750
675		9.765625
676		11.718750
677		7.812500
678		13.671875
679		9.765625
680		13.671875
681		9.765625
682		13.671875
683		9.765625
684		15.625000
685		11.718750
686		15.625000
687		11.718750
688		15.625000
689		13.671875
690		15.625000
691		13.671875
692		15.625000
693		11.718750
694		17.578125
695		13.671875
696		17.578125
697		13.671875
698		17.578125
699		13.671875
700		19.531250
701		15.625000
702		19.531250
703		15.625000
704		19.531250
705		15.625000
706		19.531250
707		17.578125
708		19.531250
709		15.625000
710		21.484375
711		15.625000
712		21.484375
713		17.578125
714		21.484375
715		17.578125
716		21.484375
717		17.578125
718		21.484375
719		17.578125
720		21.484375
721		17.578125
722		21.484375
723		19.531250
724		21.484375
725		19.531250
726		21.484375
727		19.531250
728		23.437500
729		19.531250
730		23.437500
731		19.531250
732		23.437500
733		19.531250
734		23.437500
735		19.531250
736		23.437500
737		21.484375
738		23.437500
739		19.531250
740		25.390625
741		21.484375
742		23.437500
743		19.531250
744		25.390625
745		21.484375
746		25.390625
747		19.531250
748		25.390625
749		21.484375
750		25.390625
751		21.484375
752		25.390625
753		21.484375
754		25.390625
755		19.531250
756		25.390625
757		21.484375
758		23.437500
759		21.484375
760		23.437500
761		21.484375
762		25.390625
763		21.484375
764		25.390625
765		21.484375
766		23.437500
767		21.484375
768		23.437500
769		21.484375
770		23.437500
771		21.484375
772		25.390625
773		21.484375
774		25.390625
775		21.484375
776		23.437500
777		19.531250
778		25.390625
779		21.484375
780		23.437500
781		19.531250
782		23.437500
783		19.531250
784		23.437500
785		19.531250
786		23.437500
787		19.531250
788		23.437500
789		19.531250
790		23.437500
791		19.531250
792		21.484375
793		17.578125
794		23.437500
795		19.531250
796		21.484375
797		17.578125
798		21.484375
799		17.578125
800		21.484375
801		17.578125
802		21.484375
803		17.578125
804		21.484375
805		15.625000
806		21.484375
807		17.578125
808		19.531250
809		17.578125
810		19.531250
811		15.625000
812		19.531250
813		15.625000
814		19.531250
815		13.671875
816		19.531250
817		15.625000
818		17.578125
819		13.671875
820		17.578125
821		13.671875
822		17.578125
823		11.718750
824		17.578125
825		13.671875
826		15.625000
827		11.718750
828		15.625000
829		11.718750
830		15.625000
831		11.718750
832		13.671875
833		11.718750
834		13.671875
835		9.765625
836		13.671875
837		9.765625
838		13.671875
839		9.765625
840		13.671875
841		9.765625
842		11.718750
843		7.812500
844		11.718750
845		7.812500
846		11.718750
847		7.812500
848		9.765625
849		5.859375
850		9.765625
851		5.859375
852		9.765625
853		5.859375
854		7.812500
855		5.859375
856		7.812500
857		3.906250
858		7.812500
859		3.906250
860		5.859375
861		1.953125
862		7.812500
863		1.953125
864		5.859375
865		1.953125
866		5.859375
867		1.953125
868		3.906250
869		0.000000
870		3.906250
871		0.000000
872		3.906250
873		-1.953125
874		3.906250
875		-1.953125
876		1.953125
877		-1.953125
878		1.953125
879		-1.953125
880		0.000000
881		-3.906250
882		0.000000
883		-3.906250
884		0.000000
885		-3.906250
886		-1.953125
887		-5.859375
888		-1.953125
889		-7.812500
890		-1.953125
891		-5.859375
892		-3.906250
893		-7.812500
894		-3.906250
895		-7.812500
896		-3.906250
897		-7.812500
898		-3.906250
899		-9.765625
900		-5.859375
901		-9.765625
902		-5.859375
903		-9.765625
904		-5.859375
905		-11.718750
906		-7.812500
907		-11.718750
908		-7.812500
909		-11.718750
910		-9.765625
911		-13.671875
912		-9.765625
913		-13.671875
914		-9.765625
915		-13.671875
916		-9.765625
917		-13.671875
918		-11.718750
919		-15.625000
920		-11.718750
921		-15.625000
922		-11.718750
923		-15.625000
924		-11.718750
925		-15.625000
926		-13.671875
927		-15.625000
928		-13.671875
929		-17.578125
930		-13.671875
931		-17.578125
932		-13.671875
933		-17.578125
934		-15.625000
935		-17.578125
936		-15.625000
937		-19.531250
938		-15.625000
939		-19.531250
940		-15.625000
941		-21.484375
942		-15.625000
943		-19.531250
944		-17.578125
945		-21.484375
946		-17.578125
947		-21.484375
948		-17.578125
949		-23.437500
950		-17.578125
951		-21.484375
952		-17.578125
953		-21.484375
954		-19.531250
955		-23.437500
956		-19.531250
957		-23.437500
958		-19.531250
959		-23.437500
960		-21.484375
961		-23.437500
962		-19.531250
963		-23.437500
964		-19.531250
965		-23.437500
966		-21.484375
967		-25.390625
968		-21.484375
969		-25.390625
970		-21.484375
971		-25.390625
972		-21.484375
973		-25.390625
974		-21.484375
975		-25.390625
976		-21.484375
977		-25.390625
978		-21.484375
979		-27.343750
980		-21.484375
981		-25.390625
982		-21.484375
983		-25.390625
984		-21.484375
985		-25.390625
986		-23.437500
987		-25.390625
988		-21.484375
989		-25.390625
990		-21.484375
991		-25.390625
992		-21.484375
993		-25.390625
994		-23.437500
995		-27.343750
996		-21.484375
997		-25.390625
998		-21.484375
999		-25.390625
1000		-21.484375
1001		-25.390625
1002		-21.484375
1003		-25.390625
1004		-21.484375
1005		-25.390625
1006		-21.484375
1007		-25.390625
1008		-21.484375
1009		-25.390625
1010		-23.437500
1011		-25.390625
1012		-21.484375
1013		-25.390625
1014		-21.484375
1015		-25.390625
1016		-21.484375
1017		-25.390625
1018		-21.484375
1019		-25.390625
1020		-19.531250
1021		-23.437500
1022		-21.484375
1023		-23.437500
1024		-19.531250
1025		-25.390625
1026		-19.531250
1027		-23.437500
1028		-19.531250
1029		-23.437500
1030		-19.531250
1031		-23.437500
1032		-19.531250
1033		-23.437500
1034		-19.531250
1035		-23.437500
1036		-19.531250
1037		-21.484375
1038		-17.578125
1039		-21.484375
1040		-17.578125
1041		-21.484375
1042		-17.578125
1043		-19.531250
1044		-17.578125
1045		-21.484375
1046		-15.625000
1047		-21.484375
1048		-15.625000
1049		-19.531250
1050		-15.625000
1051		-19.531250
1052		-15.625000
1053		-17.578125
1054		-15.625000
1055		-17.578125
1056		-15.625000
1057		-17.578125
1058		-13.671875
1059		-17.578125
1060		-13.671875
1061		-15.625000
1062		-13.671875
1063		-17.578125
1064		-11.718750
1065		-15.625000
1066		-11.718750
1067		-15.625000
1068		-11.718750
1069		-13.671875
1070		-11.718750
1071		-13.671875
1072		-9.765625
1073		-13.671875
1074		-9.765625
1075		-13.671875
1076		-9.765625
1077		-11.718750
1078		-9.765625
1079		-11.718750
1080		-7.812500
1081		-11.718750
1082		-7.812500
1083		-11.718750
1084		-7.812500
1085		-9.765625
1086		-7.812500
1087		-9.765625
1088		-5.859375
1089		-7.812500
1090		-5.859375
1091		-9.765625
1092		-3.906250
1093		-7.812500
1094		-3.906250
1095		-7.812500
1096		-3.906250
1097		-5.859375
1098		-1.953125
1099		-5.859375
1100		-1.953125
1101		-5.859375
1102		-1.953125
1103		-3.906250
1104		0.000000
1105		-3.906250
1106		0.000000
1107		-3.906250
1108		0.000000
1109		-3.906250
1110		1.953125
1111		-1.953125
1112		1.953125
1113		-1.953125
1114		1.953125
1115		-1.953125
1116		1.953125
1117		0.000000
1118		3.906250
1119		0.000000
1120		3.906250
1121		0.000000
1122		3.906250
1123		1.953125
1124		5.859375
1125		1.953125
1126		5.859375
1127		3.906250
1128		5.859375
1129		1.953125
1130		7.812500
1131		3.906250
1132		7.812500
1133		3.906250
1134		7.812500
1135		5.859375
1136		9.765625
1137		5.859375
1138		9.765625
1139		5.859375
1140		11.718750
1141		5.859375
1142		9.765625
1143		7.812500
1144		9.765625
1145		7.812500
1146		11.718750
1147		7.812500
1148		13.671875
1149		7.812500
1150		13.671875
1151		9.765625
1152		13.671875
1153		9.765625
1154		13.671875
1155		11.718750
1156		13.671875
1157		11.718750
1158		13.671875
1159		11.718750
1160		15.625000
1161		13.671875
1162		15.625000
1163		13.671875
1164		17.578125
1165		13.671875
1166		17.578125
1167		13.671875
1168		17.578125
1169		13.671875
1170		17.578125
1171		15.625000
1172		17.578125
1173		15.625000
1174		17.578125
1175		13.671875
1176		19.531250
1177		17.578125
1178		19.531250
1179		17.578125
1180		19.531250
1181		15.625000
1182		19.531250
1183		17.578125
1184		19.531250
1185		17.578125
1186		21.484375
1187		15.625000
1188		21.484375
1189		17.578125
1190		21.484375
1191		17.578125
1192		21.484375
1193		17.578125
1194		23.437500
1195		19.531250
1196		21.484375
1197		19.531250
1198		23.437500
1199		19.531250
1200		23.437500
1201		19.531250
1202		23.437500
1203		19.531250
1204		23.437500
1205		19.531250
1206		23.437500
1207		19.531250
1208		23.437500
1209		19.531250
1210		23.437500
1211		21.484375
1212		23.437500
1213		21.484375
1214		23.437500
1215		19.531250
1216		25.390625
1217		21.484375
1218		25.390625
1219		21.484375
1220		25.390625
1221		21.484375
1222		25.390625
1223		21.484375
1224		23.437500
1225		19.531250
1226		25.390625
1227		21.484375
1228		23.437500
1229		21.484375
1230		23.437500
1231		19.531250
1232		25.390625
1233		21.484375
1234		25.390625
1235		21.484375
1236		25.390625
1237		21.484375
1238		25.390625
1239		21.484375
1240		25.390625
1241		21.484375
1242		25.390625
1243		19.531250
1244		25.390625
1245		21.484375
1246		23.437500
1247		21.484375
1248		23.437500
1249		21.484375
1250		25.390625
1251		21.484375
1252		25.390625
1253		19.531250
1254		25.390625
1255		19.531250
1256		23.437500
1257		19.531250
1258		23.437500
1259		19.531250
1260		23.437500
1261		19.531250
1262		23.437500
1263		19.531250
1264		23.437500
1265		17.578125
1266		23.437500
1267		19.531250
1268		23.437500
1269		17.578125
1270		21.484375
1271		19.531250
1272		21.484375
1273		17.578125
1274		21.484375
1275		17.578125
1276		21.484375
1277		17.578125
1278		21.484375
1279		17.578125
1280		19.531250
1281		15.625000
1282		21.484375
1283		15.625000
1284		19.531250
1285		15.625000
1286		19.531250
1287		15.625000
1288		19.531250
1289		15.625000
1290		19.531250
1291		15.625000
1292		17.578125
1293		13.671875
1294		19.531250
1295		13.671875
1296		17.578125
1297		13.671875
1298		17.578125
1299		11.718750
1300		17.578125
1301		11.718750
1302		15.625000
1303		11.718750
1304		15.625000
1305		11.718750
1306		15.625000
1307		9.765625
1308		13.671875
1309		9.765625
1310		13.671875
1311		9.765625
1312		13.671875
1313		9.765625
1314		11.718750
1315		7.812500
1316		11.718750
1317		7.812500
1318		11.718750
1319		7.812500
1320		11.718750
1321		5.859375
1322		9.765625
1323		5.859375
1324		9.765625
1325		5.859375
1326		9.765625
1327		3.906250
1328		9.765625
1329		5.859375
1330		7.812500
1331		1.953125
1332		7.812500
1333		3.906250
1334		7.812500
1335		1.953125
1336		5.859375
1337		1.953125
1338		5.859375
1339		1.953125
1340		3.906250
1341		1.953125
1342		5.859375
1343		0.000000
1344		3.906250
1345		0.000000
1346		3.906250
1347		0.000000
1348		1.953125
1349		-1.953125
1350		3.906250
1351		-1.953125
1352		1.953125
1353		-1.953125
1354		0.000000
1355		-3.906250
1356		0.000000
1357		-3.906250
1358		0.000000
1359		-5.859375
1360		0.000000
1361		-5.859375
1362		0.000000
1363		-5.859375
1364		-1.953125
1365		-5.859375
1366		-1.953125
1367		-7.812500
1368		-3.906250
1369		-7.812500
1370		-3.906250
1371		-7.812500
1372		-5.859375
1373		-9.765625
1374		-5.859375
1375		-9.765625
1376		-5.859375
1377		-9.765625
1378		-5.859375
1379		-9.765625
1380		-7.812500
1381		-9.765625
1382		-7.812500
1383		-11.718750
1384		-7.812500
1385		-13.671875
1386		-7.812500
1387		-13.671875
1388		-9.765625
1389		-13.671875
1390		-9.765625
1391		-13.671875
1392		-11.718750
1393		-13.671875
1394		-11.718750
1395		-15.625000
1396		-9.765625
1397		-15.625000
1398		-13.671875
1399		-17.578125
1400		-11.718750
1401		-17.578125
1402		-13.671875
1403		-17.578125
1404		-13.671875
1405		-17.578125
1406		-13.671875
1407		-17.578125
1408		-15.625000
1409		-19.531250
1410		-15.625000
1411		-19.531250
1412		-15.625000
1413		-19.531250
1414		-17.578125
1415		-21.484375
1416		-15.625000
1417		-21.484375
1418		-15.625000
1419		-21.484375
1420		-17.578125
1421		-21.484375
1422		-17.578125
1423		-21.484375
1424		-17.578125
1425		-21.484375
1426		-17.578125
1427		-23.437500
1428		-17.578125
1429		-21.484375
1430		-19.531250
1431		-21.484375
1432		-19.531250
1433		-23.437500
1434		-19.531250
1435		-23.437500
1436		-19.531250
1437		-23.437500
1438		-19.531250
1439		-23.437500
1440		-19.531250
1441		-23.437500
1442		-19.531250
1443		-23.437500
1444		-21.484375
1445		-25.390625
1446		-19.531250
1447		-23.437500
1448		-21.484375
1449		-25.390625
1450		-21.484375
1451		-25.390625
1452		-21.484375
1453		-25.390625
1454		-21.484375
1455		-25.390625
1456		-23.437500
1457		-25.390625
1458		-21.484375
1459		-25.390625
1460		-21.484375
1461		-27.343750
1462		-21.484375
1463		-25.390625
1464		-23.437500
1465		-25.390625
1466		-21.484375
1467		-25.390625
1468		-21.484375
1469		-25.390625
1470		-21.484375
1471		-25.390625
1472		-21.484375
1473		-25.390625
1474		-21.484375
1475		-25.390625
1476		-21.484375
1477		-25.390625
1478		-21.484375
1479		-25.390625
1480		-21.484375
1481		-25.390625
1482		-23.437500
1483		-25.390625
1484		-21.484375
1485		-25.390625
1486		-21.484375
1487		-25.390625
1488		-21.484375
1489		-25.390625
1490		-21.484375
1491		-25.390625
1492		-21.484375
1493		-25.390625
1494		-21.484375
1495		-25.390625
1496		-21.484375
1497		-23.437500
1498		-21.484375
1499		-23.437500
1500		-19.531250
1501		-23.437500
1502		-19.531250
1503		-23.437500
1504		-19.531250
1505		-21.484375
1506		-19.531250
1507		-23.437500
1508		-19.531250
1509		-21.484375
1510		-17.578125
1511		-21.484375
1512		-17.578125
1513		-21.484375
1514		-19.531250
1515		-19.531250
1516		-17.578125
1517		-21.484375
1518		-15.625000
1519		-19.531250
1520		-17.578125
1521		-19.531250
1522		-15.625000
1523		-19.531250
1524		-15.625000
1525		-19.531250
1526		-15.625000
1527		-19.531250
1528		-15.625000
1529		-19.531250
1530		-13.671875
1531		-17.578125
1532		-15.625000
1533		-17.578125
1534		-13.671875
1535		-17.578125
1536		-13.671875
1537		-15.625000
1538		-11.718750
1539		-15.625000
1540		-11.718750
1541		-15.625000
1542		-11.718750
1543		-13.671875
1544		-11.718750
1545		-13.671875
1546		-9.765625
1547		-13.671875
1548		-9.765625
1549		-11.718750
1550		-9.765625
1551		-13.671875
1552		-9.765625
1553		-11.718750
1554		-7.812500
1555		-11.718750
1556		-7.812500
1557		-9.765625
1558		-7.812500
1559		-9.765625
1560		-5.859375
1561		-9.765625
1562		-5.859375
1563		-9.765625
1564		-5.859375
1565		-7.812500
1566		-5.859375
1567		-7.812500
1568		-3.906250
1569		-7.812500
1570		-1.953125
1571		-7.812500
1572		-3.906250
1573		-5.859375
1574		-1.953125
1575		-5.859375
1576		-1.953125
1577		-5.859375
1578		0.000000
1579		-3.906250
1580		0.000000
1581		-1.953125
1582		0.000000
1583		-1.953125
1584		1.953125
1585		-1.953125
1586		1.953125
1587		-1.953125
1588		1.953125
1589		-1.953125
1590		1.953125
1591		0.000000
1592		3.906250
1593		0.000000
1594		3.906250
1595		0.000000
1596		5.859375
1597		1.953125
1598		3.906250
1599		1.953125
1600		5.859375
1601		1.953125
1602		7.812500
1603		3.906250
1604		7.812500
1605		3.906250
1606		7.812500
1607		5.859375
1608		7.812500
1609		5.859375
1610		9.765625
1611		5.859375
1612		9.765625
1613		5.859375
1614		9.765625
1615		7.812500
1616		9.765625
1617		7.812500
1618		11.718750
1619		7.812500
1620		11.718750
1621		7.812500
1622		11.718750
1623		9.765625
1624		11.718750
1625		9.765625
1626		13.671875
1627		9.765625
1628		13.671875
1629		9.765625
1630		13.671875
1631		11.718750
1632		13.671875
1633		11.718750
1634		15.625000
1635		11.718750
1636		17.578125
1637		13.671875
1638		17.578125
1639		13.671875
1640		17.578125
1641		13.671875
1642		17.578125
1643		13.671875
1644		17.578125
1645		13.671875
1646		17.578125
1647		13.671875
1648		19.531250
1649		15.625000
1650		17.578125
1651		15.625000
1652		19.531250
1653		15.625000
1654		19.531250
1655		15.625000
1656		19.531250
1657		17.578125
1658		21.484375
1659		17.578125
1660		21.484375
1661		17.578125
1662		21.484375
1663		17.578125
1664		21.484375
1665		17.578125
1666		21.484375
1667		19.531250
1668		21.484375
1669		19.531250
1670		21.484375
1671		19.531250
1672		21.484375
1673		19.531250
1674		23.437500
1675		19.531250
1676		23.437500
1677		19.531250
1678		23.437500
1679		19.531250
1680		25.390625
1681		21.484375
1682		23.437500
1683		21.484375
1684		23.437500
1685		19.531250
1686		25.390625
1687		21.484375
1688		23.437500
1689		21.484375
1690		25.390625
1691		21.484375
1692		23.437500
1693		21.484375
1694		23.437500
1695		21.484375
1696		23.437500
1697		21.484375
1698		25.390625
1699		21.484375
1700		23.437500
1701		21.484375
1702		25.390625
1703		21.484375
1704		25.390625
1705		21.484375
1706		25.390625
1707		21.484375
1708		25.390625
1709		21.484375
1710		25.390625
1711		21.484375
1712		25.390625
1713		21.484375
1714		25.390625
1715		21.484375
1716		23.437500
1717		21.484375
1718		23.437500
1719		19.531250
1720		25.390625
1721		21.484375
1722		25.390625
1723		19.531250
1724		23.437500
1725		19.531250
1726		23.437500
1727		21.484375
1728		23.437500
1729		19.531250
1730		23.437500
1731		19.531250
1732		23.437500
1733		21.484375
1734		23.437500
1735		19.531250
1736		23.437500
1737		19.531250
1738		23.437500
1739		19.531250
1740		23.437500
1741		19.531250
1742		23.437500
1743		19.531250
1744		21.484375
1745		17.578125
1746		21.484375
1747		17.578125
1748		23.437500
1749		17.578125
1750		21.484375
1751		15.625000
1752		21.484375
1753		15.625000
1754		19.531250
1755		15.625000
1756		21.484375
1757		15.625000
1758		19.531250
1759		15.625000
1760		19.531250
1761		15.625000
1762		19.531250
1763		15.625000
1764		19.531250
1765		15.625000
1766		17.578125
1767		15.625000
1768		17.578125
1769		13.671875
1770		17.578125
1771		13.671875
1772		17.578125
1773		11.718750
1774		15.625000
1775		13.671875
1776		15.625000
1777		11.718750
1778		15.625000
1779		11.718750
1780		15.625000
1781		9.765625
1782		15.625000
1783		11.718750
1784		13.671875
1785		9.765625
1786		15.625000
1787		9.765625
1788		13.671875
1789		7.812500
1790		13.671875
1791		9.765625
1792		11.718750
1793		7.812500
1794		11.718750
1795		7.812500
1796		9.765625
1797		5.859375
1798		11.718750
1799		5.859375
1800		9.765625
1801		5.859375
1802		7.812500
1803		5.859375
1804		9.765625
1805		3.906250
1806		7.812500
1807		3.906250
1808		7.812500
1809		1.953125
1810		5.859375
1811		1.953125
1812		5.859375
1813		1.953125
1814		5.859375
1815		0.000000
1816		5.859375
1817		1.953125
1818		3.906250
1819		0.000000
1820		3.906250
1821		0.000000
1822		3.906250
1823		-1.953125
1824		1.953125
1825		-1.953125
1826		1.953125
1827		-1.953125
1828		0.000000
1829		-3.906250
1830		0.000000
1831		-3.906250
1832		0.000000
1833		-3.906250
1834		0.000000
1835		-3.906250
1836		-1.953125
1837		-5.859375
1838		0.000000
1839		-5.859375
1840		-3.906250
1841		-5.859375
1842		-3.906250
1843		-7.812500
1844		-3.906250
1845		-7.812500
1846		-3.906250
1847		-9.765625
1848		-5.859375
1849		-9.765625
1850		-5.859375
1851		-9.765625
1852		-7.812500
1853		-11.718750
1854		-5.859375
1855		-11.718750
1856		-7.812500
1857		-11.718750
1858		-7.812500
1859		-13.671875
1860		-7.812500
1861		-13.671875
1862		-9.765625
1863		-13.671875
1864		-9.765625
1865		-15.625000
1866		-9.765625
1867		-13.671875
1868		-11.718750
1869		-15.625000
1870		-11.718750
1871		-15.625000
1872		-11.718750
1873		-15.625000
1874		-13.671875
1875		-15.625000
1876		-13.671875
1877		-17.578125
1878		-13.671875
1879		-17.578125
1880		-13.671875
1881		-19.531250
1882		-13.671875
1883		-17.578125
1884		-15.625000
1885		-17.578125
1886		-15.625000
1887		-19.531250
1888		-15.625000
1889		-19.531250
1890		-15.625000
1891		-21.484375
1892		-17.578125
1893		-21.484375
1894		-17.578125
1895		-21.484375
1896		-17.578125
1897		-21.484375
1898		-17.578125
1899		-21.484375
1900		-17.578125
1901		-21.484375
1902		-19.531250
1903		-23.437500
1904		-19.531250
1905		-23.437500
1906		-19.531250
1907		-23.437500
1908		-19.531250
1909		-23.437500
1910		-19.531250
1911		-23.437500
1912		-19.531250
1913		-23.437500
1914		-19.531250
1915		-23.437500
1916		-21.484375
1917		-23.437500
1918		-21.484375
1919		-23.437500
1920		-21.484375
1921		-25.390625
1922		-21.484375
1923		-25.390625
1924		-21.484375
1925		-25.390625
1926		-21.484375
1927		-25.390625
1928		-21.484375
1929		-25.390625
1930		-21.484375
1931		-25.390625
1932		-21.484375
1933		-25.390625
1934		-21.484375
1935		-25.390625
1936		-23.437500
1937		-25.390625
1938		-21.484375
1939		-25.390625
1940		-21.484375
1941		-25.390625
1942		-21.484375
1943		-25.390625
1944		-23.437500
1945		-25.390625
1946		-21.484375
1947		-25.390625
1948		-21.484375
1949		-27.343750
1950		-21.484375
1951		-25.390625
1952		-23.437500
1953		-25.390625
1954		-21.484375
1955		-25.390625
1956		-21.484375
1957		-25.390625
1958		-21.484375
1959		-25.390625
1960		-21.484375
1961		-25.390625
1962		-21.484375
1963		-25.390625
1964		-21.484375
1965		-25.390625
1966		-19.531250
1967		-23.437500
1968		-21.484375
1969		-23.437500
1970		-21.484375
1971		-25.390625
1972		-19.531250
1973		-23.437500
1974		-19.531250
1975		-23.437500
1976		-19.531250
1977		-23.437500
1978		-19.531250
1979		-23.437500
1980		-19.531250
1981		-23.437500
1982		-19.531250
1983		-21.484375
1984		-19.531250
1985		-21.484375
1986		-19.531250
1987		-23.437500
1988		-17.578125
1989		-21.484375
1990		-17.578125
1991		-21.484375
1992		-17.578125
1993		-19.531250
1994		-17.578125
1995		-19.531250
1996		-15.625000
1997		-19.531250
1998		-15.625000
1999		-19.531250
2000		-15.625000
2001		-17.578125
2002		-15.625000
2003		-17.578125
2004		-15.625000
2005		-17.578125
2006		-13.671875
2007		-17.578125
2008		-13.671875
2009		-17.578125
2010		-13.671875
2011		-15.625000
2012		-11.718750
2013		-15.625000
2014		-11.718750
2015		-15.625000
2016		-11.718750
2017		-15.625000
2018		-11.718750
2019		-13.671875
2020		-11.718750
2021		-15.625000
2022		-7.812500
2023		-13.671875
2024		-9.765625
2025		-11.718750
2026		-7.812500
2027		-11.718750
2028		-7.812500
2029		-9.765625
2030		-7.812500
2031		-11.718750
2032		-5.859375
2033		-11.718750
2034		-5.859375
2035		-9.765625
2036		-5.859375
2037		-9.765625
2038		-3.906250
2039		-7.812500
2040		-3.906250
2041		-7.812500
2042		-3.906250
2043		-7.812500
2044		-1.953125
2045		-5.859375
2046		-1.953125
2047		-5.859375
2048		-1.953125
2049		-5.859375
2050		0.000000
2051		-3.906250
2052		-1.953125
2053		-3.906250
2054		0.000000
2055		-3.906250
2056		0.000000
2057		-3.906250
2058		1.953125
2059		-1.953125
2060		1.953125
2061		-1.953125
2062		1.953125
2063		-1.953125
2064		3.906250
2065		-1.953125
2066		5.859375
2067		0.000000
2068		3.906250
2069		1.953125
2070		3.906250
2071		1.953125
2072		5.859375
2073		1.953125
2074		5.859375
2075		3.906250
2076		5.859375
2077		3.906250
2078		5.859375
2079		3.906250
2080		7.812500
2081		3.906250
2082		9.765625
2083		3.906250
2084		9.765625
2085		5.859375
2086		9.765625
2087		5.859375
2088		9.765625
2089		5.859375
2090		13.671875
2091		3.906250
2092		13.671875
2093		7.812500
2094		13.671875
2095		7.812500
2096		13.671875
2097		5.859375
2098		13.671875
2099		7.812500
2100		15.625000
2101		7.812500
2102		13.671875
2103		11.718750
2104		13.671875
2105		9.765625
2106		15.625000
2107		9.765625
2108		17.578125
2109		9.765625
2110		17.578125
2111		9.765625
2112		17.578125
2113		11.718750
2114		19.531250
2115		11.718750
2116		19.531250
2117		11.718750
2118		19.531250
2119		15.625000
2120		17.578125
2121		15.625000
2122		19.531250
2123		13.671875
2124		21.484375
2125		13.671875
2126		21.484375
2127		13.671875
2128		21.484375
2129		13.671875
2130		21.484375
2131		15.625000
2132		21.484375
2133		15.625000
2134		23.437500
2135		17.578125
2136		21.484375
2137		19.531250
2138		21.484375
2139		15.625000
2140		23.437500
2141		15.625000
2142		23.437500
2143		17.578125
2144		25.390625
2145		17.578125
2146		25.390625
2147		17.578125
2148		25.390625
2149		17.578125
2150		25.390625
2151		17.578125
2152		25.390625
2153		21.484375
2154		23.437500
2155		17.578125
2156		25.390625
2157		17.578125
2158		25.390625
2159		17.578125
2160		25.390625
2161		17.578125
2162		25.390625
2163		17.578125
2164		27.343750
2165		19.531250
2166		25.390625
2167		19.531250
2168		25.390625
2169		21.484375
2170		23.437500
2171		21.484375
2172		25.390625
2173		19.531250
2174		27.343750
2175		19.531250
2176		27.343750
2177		19.531250
2178		27.343750
2179		19.531250
2180		27.343750
2181		19.531250
2182		27.343750
2183		19.531250
2184		27.343750
2185		19.531250
2186		25.390625
2187		21.484375
2188		23.437500
2189		19.531250
2190		25.390625
2191		19.531250
2192		27.343750
2193		17.578125
2194		25.390625
2195		17.578125
2196		25.390625
2197		19.531250
2198		25.390625
2199		17.578125
2200		25.390625
2201		17.578125
2202		25.390625
2203		21.484375
2204		23.437500
2205		17.578125
2206		25.390625
2207		17.578125
2208		25.390625
2209		17.578125
2210		25.390625
2211		17.578125
2212		25.390625
2213		15.625000
2214		25.390625
2215		15.625000
2216		25.390625
2217		15.625000
2218		25.390625
2219		19.531250
2220		21.484375
2221		17.578125
2222		21.484375
2223		15.625000
2224		23.437500
2225		15.625000
2226		23.437500
2227		13.671875
2228		23.437500
2229		13.671875
2230		21.484375
2231		13.671875
2232		21.484375
2233		13.671875
2234		21.484375
2235		13.671875
2236		21.484375
2237		15.625000
2238		17.578125
2239		11.718750
2240		19.531250
2241		11.718750
2242		19.531250
2243		11.718750
2244		19.531250
2245		9.765625
2246		19.531250
2247		9.765625
2248		17.578125
2249		9.765625
2250		17.578125
2251		9.765625
2252		17.578125
2253		11.718750
2254		13.671875
2255		11.718750
2256		13.671875
2257		7.812500
2258		15.625000
2259		7.812500
2260		15.625000
2261		5.859375
2262		15.625000
2263		5.859375
2264		13.671875
2265		5.859375
2266		13.671875
2267		5.859375
2268		13.671875
2269		3.906250
2270		13.671875
2271		5.859375
2272		9.765625
2273		3.906250
2274		11.718750
2275		1.953125
2276		11.718750
2277		1.953125
2278		9.765625
2279		0.000000
2280		9.765625
2281		0.000000
2282		9.765625
2283		0.000000
2284		7.812500
2285		0.000000
2286		7.812500
2287		1.953125
2288		3.906250
2289		0.000000
2290		3.906250
2291		-1.953125
2292		5.859375
2293		-1.953125
2294		5.859375
2295		-3.906250
2296		3.906250
2297		-3.906250
2298		3.906250
2299		-5.859375
2300		3.906250
2301		-5.859375
2302		1.953125
2303		-3.906250
2304		0.000000
2305		-3.906250
2306		-1.953125
2307		-7.812500
2308		0.000000
2309		-7.812500
2310		0.000000
2311		-7.812500
2312		0.000000
2313		-9.765625
2314		-1.953125
2315		-9.765625
2316		-1.953125
2317		-9.765625
2318		-1.953125
2319		-9.765625
2320		-1.953125
2321		-7.812500
2322		-5.859375
2323		-11.718750
2324		-3.906250
2325		-13.671875
2326		-3.906250
2327		-13.671875
2328		-5.859375
2329		-13.671875
2330		-5.859375
2331		-13.671875
2332		-5.859375
2333		-15.625000
2334		-7.812500
2335		-15.625000
2336		-7.812500
2337		-13.671875
2338		-9.765625
2339		-13.671875
2340		-11.718750
2341		-17.578125
2342		-9.765625
2343		-17.578125
2344		-9.765625
2345		-17.578125
2346		-9.765625
2347		-19.531250
2348		-11.718750
2349		-19.531250
2350		-11.718750
2351		-19.531250
2352		-11.718750
2353		-19.531250
2354		-11.718750
2355		-17.578125
2356		-15.625000
2357		-21.484375
2358		-13.671875
2359		-21.484375
2360		-13.671875
2361		-21.484375
2362		-13.671875
2363		-23.437500
2364		-13.671875
2365		-23.437500
2366		-15.625000
2367		-23.437500
2368		-15.625000
2369		-23.437500
2370		-15.625000
2371		-21.484375
2372		-19.531250
2373		-21.484375
2374		-19.531250
2375		-25.390625
2376		-15.625000
2377		-25.390625
2378		-17.578125
2379		-25.390625
2380		-17.578125
2381		-25.390625
2382		-17.578125
2383		-25.390625
2384		-17.578125
2385		-25.390625
2386		-17.578125
2387		-23.437500
2388		-21.484375
2389		-23.437500
2390		-21.484375
2391		-27.343750
2392		-17.578125
2393		-27.343750
2394		-19.531250
2395		-27.343750
2396		-19.531250
2397		-27.343750
2398		-19.531250
2399		-27.343750
2400		-19.531250
2401		-29.296875
2402		-19.531250
2403		-27.343750
2404		-19.531250
2405		-25.390625
2406		-23.437500
2407		-27.343750
2408		-19.531250
2409		-27.343750
2410		-19.531250
2411		-29.296875
2412		-19.531250
2413		-27.343750
2414		-19.531250
2415		-27.343750
2416		-19.531250
2417		-29.296875
2418		-19.531250
2419		-27.343750
2420		-19.531250
2421		-25.390625
2422		-23.437500
2423		-25.390625
2424		-23.437500
2425		-27.343750
2426		-19.531250
2427		-27.343750
2428		-19.531250
2429		-27.343750
2430		-19.531250
2431		-27.343750
2432		-19.531250
2433		-27.343750
2434		-19.531250
2435		-27.343750
2436		-19.531250
2437		-27.343750
2438		-19.531250
2439		-23.437500
2440		-21.484375
2441		-27.343750
2442		-19.531250
2443		-27.343750
2444		-17.578125
2445		-27.343750
2446		-17.578125
2447		-27.343750
2448		-17.578125
2449		-25.390625
2450		-17.578125
2451		-25.390625
2452		-17.578125
2453		-25.390625
2454		-17.578125
2455		-21.484375
2456		-19.531250
2457		-23.437500
2458		-19.531250
2459		-23.437500
2460		-15.625000
2461		-23.437500
2462		-15.625000
2463		-23.437500
2464		-15.625000
2465		-23.437500
2466		-15.625000
2467		-21.484375
2468		-15.625000
2469		-21.484375
2470		-13.671875
2471		-19.531250
2472		-15.625000
2473		-17.578125
2474		-15.625000
2475		-21.484375
2476		-11.718750
2477		-19.531250
2478		-11.718750
2479		-19.531250
2480		-11.718750
2481		-19.531250
2482		-11.718750
2483		-19.531250
2484		-9.765625
2485		-19.531250
2486		-9.765625
2487		-19.531250
2488		-9.765625
2489		-15.625000
2490		-11.718750
2491		-15.625000
2492		-9.765625
2493		-15.625000
2494		-7.812500
2495		-15.625000
2496		-7.812500
2497		-15.625000
2498		-7.812500
2499		-15.625000
2500		-7.812500
2501		-13.671875
2502		-5.859375
2503		-13.671875
2504		-5.859375
2505		-9.765625
2506		-7.812500
2507		-9.765625
2508		-7.812500
2509		-11.718750
2510		-3.906250
2511		-11.718750
2512		-1.953125
2513		-9.765625
2514		-1.953125
2515		-9.765625
2516		-1.953125
2517		-9.765625
2518		-1.953125
2519		-9.765625
2520		0.000000
2521		-7.812500
2522		0.000000
2523		-5.859375
2524		-1.953125
2525		-5.859375
2526		0.000000
2527		-5.859375
2528		1.953125
2529		-5.859375
2530		1.953125
2531		-5.859375
2532		1.953125
2533		-3.906250
2534		3.906250
2535		-3.906250
2536		3.906250
2537		-3.906250
2538		5.859375
2539		0.000000
2540		1.953125
2541		1.953125
2542		3.906250
2543		-1.953125
2544		5.859375
2545		-1.953125
2546		7.812500
2547		0.000000
2548		7.812500
2549		0.000000
2550		9.765625
2551		1.953125
2552		9.765625
2553		1.953125
2554		9.765625
2555		3.906250
2556		7.812500
2557		5.859375
2558		7.812500
2559		3.906250
2560		11.718750
2561		3.906250
2562		11.718750
2563		3.906250
2564		13.671875
2565		5.859375
2566		13.671875
2567		5.859375
2568		13.671875
2569		5.859375
2570		15.625000
2571		7.812500
2572		15.625000
2573		9.765625
2574		13.671875
2575		7.812500
2576		15.625000
2577		7.812500
2578		17.578125
2579		9.765625
2580		17.578125
2581		9.765625
2582		17.578125
2583		9.765625
2584		19.531250
2585		11.718750
2586		19.531250
2587		11.718750
2588		19.531250
2589		13.671875
2590		17.578125
2591		15.625000
2592		17.578125
2593		11.718750
2594		19.531250
2595		11.718750
2596		21.484375
2597		13.671875
2598		21.484375
2599		13.671875
2600		21.484375
2601		13.671875
2602		23.437500
2603		13.671875
2604		23.437500
2605		15.625000
2606		21.484375
2607		17.578125
2608		19.531250
2609		17.578125
2610		23.437500
2611		15.625000
2612		23.437500
2613		15.625000
2614		23.437500
2615		15.625000
2616		23.437500
2617		15.625000
2618		25.390625
2619		17.578125
2620		25.390625
2621		17.578125
2622		25.390625
2623		19.531250
2624		23.437500
2625		21.484375
2626		23.437500
2627		17.578125
2628		25.390625
2629		17.578125
2630		25.390625
2631		17.578125
2632		27.343750
2633		17.578125
2634		27.343750
2635		17.578125
2636		27.343750
2637		19.531250
2638		25.390625
2639		19.531250
2640		25.390625
2641		21.484375
2642		23.437500
2643		19.531250
2644		27.343750
2645		19.531250
2646		27.343750
2647		19.531250
2648		27.343750
2649		19.531250
2650		27.343750
2651		19.531250
2652		27.343750
2653		19.531250
2654		27.343750
2655		19.531250
2656		27.343750
2657		21.484375
2658		23.437500
2659		19.531250
2660		25.390625
2661		19.531250
2662		27.343750
2663		19.531250
2664		27.343750
2665		19.531250
2666		27.343750
2667		17.578125
2668		27.343750
2669		17.578125
2670		27.343750
2671		17.578125
2672		27.343750
2673		21.484375
2674		23.437500
2675		21.484375
2676		23.437500
2677		17.578125
2678		25.390625
2679		17.578125
2680		25.390625
2681		17.578125
2682		25.390625
2683		17.578125
2684		25.390625
2685		17.578125
2686		25.390625
2687		17.578125
2688		25.390625
2689		17.578125
2690		23.437500
2691		19.531250
2692		21.484375
2693		17.578125
2694		23.437500
2695		15.625000
2696		23.437500
2697		15.625000
2698		23.437500
2699		15.625000
2700		23.437500
2701		13.671875
2702		21.484375
2703		13.671875
2704		23.437500
2705		15.625000
2706		21.484375
2707		15.625000
2708		19.531250
2709		15.625000
2710		19.531250
2711		11.718750
2712		21.484375
2713		11.718750
2714		21.484375
2715		11.718750
2716		19.531250
2717		11.718750
2718		19.531250
2719		11.718750
2720		19.531250
2721		9.765625
2722		19.531250
2723		11.718750
2724		17.578125
2725		11.718750
2726		15.625000
2727		9.765625
2728		17.578125
2729		7.812500
2730		15.625000
2731		7.812500
2732		15.625000
2733		7.812500
2734		15.625000
2735		5.859375
2736		15.625000
2737		5.859375
2738		13.671875
2739		5.859375
2740		13.671875
2741		7.812500
2742		11.718750
2743		5.859375
2744		9.765625
2745		3.906250
2746		11.718750
2747		1.953125
2748		11.718750
2749		1.953125
2750		11.718750
2751		1.953125
2752		9.765625
2753		1.953125
2754		9.765625
2755		0.000000
2756		9.765625
2757		3.906250
2758		5.859375
2759		1.953125
2760		5.859375
2761		0.000000
2762		5.859375
2763		-1.953125
2764		5.859375
2765		-1.953125
2766		5.859375
2767		-3.906250
2768		5.859375
2769		-3.906250
2770		3.906250
2771		-3.906250
2772		3.906250
2773		-3.906250
2774		3.906250
2775		-1.953125
2776		0.000000
2777		-5.859375
2778		1.953125
2779		-5.859375
2780		1.953125
2781		-7.812500
2782		1.953125
2783		-7.812500
2784		0.000000
2785		-7.812500
2786		0.000000
2787		-9.765625
2788		-1.953125
2789		-9.765625
2790		-1.953125
2791		-7.812500
2792		-5.859375
2793		-7.812500
2794		-5.859375
2795		-11.718750
2796		-3.906250
2797		-11.718750
2798		-3.906250
2799		-11.718750
2800		-3.906250
2801		-13.671875
2802		-5.859375
2803		-13.671875
2804		-5.859375
2805		-13.671875
2806		-5.859375
2807		-13.671875
2808		-7.812500
2809		-11.718750
2810		-9.765625
2811		-15.625000
2812		-7.812500
2813		-17.578125
2814		-7.812500
2815		-17.578125
2816		-7.812500
2817		-17.578125
2818		-9.765625
2819		-17.578125
2820		-9.765625
2821		-19.531250
2822		-9.765625
2823		-17.578125
2824		-11.718750
2825		-17.578125
2826		-13.671875
2827		-19.531250
2828		-13.671875
2829		-21.484375
2830		-11.718750
2831		-21.484375
2832		-13.671875
2833		-21.484375
2834		-13.671875
2835		-21.484375
2836		-13.671875
2837		-21.484375
2838		-13.671875
2839		-23.437500
2840		-13.671875
2841		-19.531250
2842		-17.578125
2843		-21.484375
2844		-17.578125
2845		-25.390625
2846		-15.625000
2847		-25.390625
2848		-15.625000
2849		-25.390625
2850		-17.578125
2851		-25.390625
2852		-17.578125
2853		-25.390625
2854		-17.578125
2855		-25.390625
2856		-17.578125
2857		-25.390625
2858		-17.578125
2859		-23.437500
2860		-19.531250
2861		-27.343750
2862		-19.531250
2863		-25.390625
2864		-17.578125
2865		-27.343750
2866		-17.578125
2867		-27.343750
2868		-19.531250
2869		-27.343750
2870		-19.531250
2871		-27.343750
2872		-19.531250
2873		-27.343750
2874		-19.531250
2875		-25.390625
2876		-21.484375
2877		-25.390625
2878		-21.484375
2879		-27.343750
2880		-19.531250
2881		-27.343750
2882		-19.531250
2883		-27.343750
2884		-19.531250
2885		-27.343750
2886		-19.531250
2887		-29.296875
2888		-19.531250
2889		-27.343750
2890		-21.484375
2891		-25.390625
2892		-21.484375
2893		-25.390625
2894		-23.437500
2895		-27.343750
2896		-21.484375
2897		-27.343750
2898		-19.531250
2899		-27.343750
2900		-19.531250
2901		-27.343750
2902		-19.531250
2903		-27.343750
2904		-19.531250
2905		-27.343750
2906		-19.531250
2907		-27.343750
2908		-19.531250
2909		-23.437500
2910		-21.484375
2911		-25.390625
2912		-21.484375
2913		-27.343750
2914		-19.531250
2915		-27.343750
2916		-19.531250
2917		-25.390625
2918		-17.578125
2919		-25.390625
2920		-17.578125
2921		-25.390625
2922		-17.578125
2923		-25.390625
2924		-17.578125
2925		-21.484375
2926		-19.531250
2927		-21.484375
2928		-19.531250
2929		-23.437500
2930		-15.625000
2931		-23.437500
2932		-17.578125
2933		-23.437500
2934		-15.625000
2935		-23.437500
2936		-15.625000
2937		-23.437500
2938		-15.625000
2939		-23.437500
2940		-13.671875
2941		-21.484375
2942		-15.625000
2943		-19.531250
2944		-15.625000
2945		-21.484375
2946		-13.671875
2947		-19.531250
2948		-13.671875
2949		-21.484375
2950		-13.671875
2951		-19.531250
2952		-11.718750
2953		-19.531250
2954		-11.718750
2955		-19.531250
2956		-11.718750
2957		-17.578125
2958		-11.718750
2959		-15.625000
2960		-13.671875
2961		-15.625000
2962		-11.718750
2963		-17.578125
2964		-9.765625
2965		-17.578125
2966		-9.765625
2967		-15.625000
2968		-7.812500
2969		-15.625000
2970		-7.812500
2971		-15.625000
2972		-7.812500
2973		-13.671875
2974		-5.859375
2975		-11.718750
2976		-7.812500
2977		-9.765625
2978		-7.812500
2979		-11.718750
2980		-3.906250
2981		-11.718750
2982		-3.906250
2983		-11.718750
2984		-3.906250
2985		-9.765625
2986		-1.953125
2987		-9.765625
2988		-1.953125
2989		-9.765625
2990		-1.953125
2991		-7.812500
2992		-1.953125
2993		-5.859375
2994		-3.906250
2995		-3.906250
2996		0.000000
2997		-5.859375
2998		1.953125
2999		-7.812500
3000		0.000000
3001		-5.859375
3002		1.953125
3003		-3.906250
3004		3.906250
3005		-1.953125
3006		1.953125
3007		-1.953125
3008		3.906250
3009		0.000000
3010		1.953125
3011		0.000000
3012		1.953125
3013		0.000000
3014		3.906250
3015		-1.953125
3016		5.859375
3017		-1.953125
3018		5.859375
3019		0.000000
3020		7.812500
3021		0.000000
3022		7.812500
3023		3.906250
3024		7.812500
3025		3.906250
3026		7.812500
3027		5.859375
3028		7.812500
3029		3.906250
3030		9.765625
3031		5.859375
3032		9.765625
3033		5.859375
3034		9.765625
3035		5.859375
3036		11.718750
3037		7.812500
3038		11.718750
3039		7.812500
3040		11.718750
3041		7.812500
3042		13.671875
3043		9.765625
3044		11.718750
3045		9.765625
3046		11.718750
3047		7.812500
3048		15.625000
3049		9.765625
3050		13.671875
3051		11.718750
3052		13.671875
3053		11.718750
3054		15.625000
3055		11.718750
3056		15.625000
3057		11.718750
3058		15.625000
3059		11.718750
3060		17.578125
3061		13.671875
3062		15.625000
3063		13.671875
3064		19.531250
3065		13.671875
3066		17.578125
3067		15.625000
3068		19.531250
3069		15.625000
3070		19.531250
3071		15.625000
3072		19.531250
3073		15.625000
3074		19.531250
3075		15.625000
3076		21.484375
3077		17.578125
3078		19.531250
3079		15.625000
3080		21.484375
3081		17.578125
3082		21.484375
3083		17.578125
3084		21.484375
3085		17.578125
3086		21.484375
3087		19.531250
3088		23.437500
3089		19.531250
3090		23.437500
3091		19.531250
3092		23.437500
3093		19.531250
3094		23.437500
3095		19.531250
3096		23.437500
3097		19.531250
3098		25.390625
3099		19.531250
3100		23.437500
3101		19.531250
3102		23.437500
3103		19.531250
3104		23.437500
3105		19.531250
3106		25.390625
3107		21.484375
3108		25.390625
3109		21.484375
3110		25.390625
3111		21.484375
3112		23.437500
3113		19.531250
3114		25.390625
3115		21.484375
3116		25.390625
3117		21.484375
3118		25.390625
3119		21.484375
3120		25.390625
3121		21.484375
3122		25.390625
3123		21.484375
3124		25.390625
3125		19.531250
3126		25.390625
3127		21.484375
3128		25.390625
3129		21.484375
3130		23.437500
3131		19.531250
3132		25.390625
3133		21.484375
3134		25.390625
3135		21.484375
3136		25.390625
3137		21.484375
3138		23.437500
3139		21.484375
3140		25.390625
3141		21.484375
3142		25.390625
3143		19.531250
3144		25.390625
3145		21.484375
3146		23.437500
3147		19.531250
3148		25.390625
3149		21.484375
3150		23.437500
3151		19.531250
3152		23.437500
3153		19.531250
3154		23.437500
3155		19.531250
3156		23.437500
3157		19.531250
3158		23.437500
3159		19.531250
3160		23.437500
3161		19.531250
3162		21.484375
3163		15.625000
3164		25.390625
3165		17.578125
3166		23.437500
3167		17.578125
3168		21.484375
3169		17.578125
3170		21.484375
3171		17.578125
3172		21.484375
3173		17.578125
3174		21.484375
3175		15.625000
3176		19.531250
3177		17.578125
3178		19.531250
3179		17.578125
3180		19.531250
3181		13.671875
3182		21.484375
3183		15.625000
3184		19.531250
3185		13.671875
3186		17.578125
3187		15.625000
3188		17.578125
3189		13.671875
3190		17.578125
3191		13.671875
3192		17.578125
3193		11.718750
3194		15.625000
3195		13.671875
3196		15.625000
3197		9.765625
3198		17.578125
3199		11.718750
3200		15.625000
3201		9.765625
3202		15.625000
3203		9.765625
3204		15.625000
3205		9.765625
3206		13.671875
3207		9.765625
3208		13.671875
3209		7.812500
3210		11.718750
3211		9.765625
3212		11.718750
3213		7.812500
3214		11.718750
3215		5.859375
3216		11.718750
3217		5.859375
3218		9.765625
3219		5.859375
3220		9.765625
3221		5.859375
3222		9.765625
3223		5.859375
3224		7.812500
3225		3.906250
3226		7.812500
3227		3.906250
3228		9.765625
3229		1.953125
3230		5.859375
3231		1.953125
3232		5.859375
3233		1.953125
3234		5.859375
3235		1.953125
3236		5.859375
3237		1.953125
3238		3.906250
3239		0.000000
3240		3.906250
3241		-1.953125
3242		1.953125
3243		-1.953125
3244		1.953125
3245		-1.953125
3246		1.953125
3247		-1.953125
3248		0.000000
3249		-3.906250
3250		1.953125
3251		-3.906250
3252		0.000000
3253		-3.906250
3254		-1.953125
3255		-3.906250
3256		-1.953125
3257		-5.859375
3258		-1.953125
3259		-5.859375
3260		-1.953125
3261		-7.812500
3262		-1.953125
3263		-5.859375
3264		-3.906250
3265		-7.812500
3266		-3.906250
3267		-7.812500
3268		-5.859375
3269		-9.765625
3270		-5.859375
3271		-9.765625
3272		-5.859375
3273		-9.765625
3274		-7.812500
3275		-11.718750
3276		-7.812500
3277		-11.718750
3278		-7.812500
3279		-11.718750
3280		-9.765625
3281		-11.718750
3282		-9.765625
3283		-13.671875
3284		-9.765625
3285		-13.671875
3286		-9.765625
3287		-13.671875
3288		-9.765625
3289		-15.625000
3290		-11.718750
3291		-15.625000
3292		-11.718750
3293		-17.578125
3294		-11.718750
3295		-15.625000
3296		-13.671875
3297		-15.625000
3298		-13.671875
3299		-17.578125
3300		-13.671875
3301		-17.578125
3302		-13.671875
3303		-19.531250
3304		-13.671875
3305		-17.578125
3306		-15.625000
3307		-19.531250
3308		-15.625000
3309		-19.531250
3310		-15.625000
3311		-19.531250
3312		-15.625000
3313		-19.531250
3314		-17.578125
3315		-21.484375
3316		-15.625000
3317		-21.484375
3318		-17.578125
3319		-21.484375
3320		-17.578125
3321		-21.484375
3322		-17.578125
3323		-23.437500
3324		-19.531250
3325		-23.437500
3326		-19.531250
3327		-23.437500
3328		-19.531250
3329		-23.437500
3330		-19.531250
3331		-23.437500
3332		-21.484375
3333		-23.437500
3334		-19.531250
3335		-23.437500
3336		-21.484375
3337		-25.390625
3338		-21.484375
3339		-25.390625
3340		-21.484375
3341		-25.390625
3342		-21.484375
3343		-25.390625
3344		-21.484375
3345		-25.390625
3346		-21.484375
3347		-25.390625
3348		-21.484375
3349		-25.390625
3350		-21.484375
3351		-25.390625
3352		-21.484375
3353		-25.390625
3354		-21.484375
3355		-25.390625
3356		-21.484375
3357		-25.390625
3358		-23.437500
3359		-25.390625
3360		-23.437500
3361		-27.343750
3362		-21.484375
3363		-25.390625
3364		-23.437500
3365		-27.343750
3366		-23.437500
3367		-25.390625
3368		-23.437500
3369		-25.390625
3370		-23.437500
3371		-25.390625
3372		-21.484375
3373		-25.390625
3374		-23.437500
3375		-25.390625
3376		-23.437500
3377		-25.390625
3378		-21.484375
3379		-25.390625
3380		-21.484375
3381		-23.437500
3382		-21.484375
3383		-25.390625
3384		-21.484375
3385		-25.390625
3386		-21.484375
3387		-23.437500
3388		-21.484375
3389		-23.437500
3390		-21.484375
3391		-23.437500
3392		-19.531250
3393		-23.437500
3394		-19.531250
3395		-23.437500
3396		-19.531250
3397		-23.437500
3398		-19.531250
3399		-23.437500
3400		-17.578125
3401		-21.484375
3402		-19.531250
3403		-21.484375
3404		-19.531250
3405		-21.484375
3406		-17.578125
3407		-21.484375
3408		-17.578125
3409		-21.484375
3410		-17.578125
3411		-21.484375
3412		-15.625000
3413		-19.531250
3414		-17.578125
3415		-19.531250
3416		-17.578125
3417		-19.531250
3418		-15.625000
3419		-19.531250
3420		-15.625000
3421		-19.531250
3422		-15.625000
3423		-19.531250
3424		-15.625000
3425		-17.578125
3426		-15.625000
3427		-17.578125
3428		-13.671875
3429		-17.578125
3430		-13.671875
3431		-15.625000
3432		-13.671875
3433		-15.625000
3434		-11.718750
3435		-15.625000
3436		-11.718750
3437		-13.671875
3438		-11.718750
3439		-13.671875
3440		-9.765625
3441		-13.671875
3442		-9.765625
3443		-13.671875
3444		-9.765625
3445		-13.671875
3446		-7.812500
3447		-11.718750
3448		-9.765625
3449		-11.718750
3450		-7.812500
3451		-11.718750
3452		-7.812500
3453		-9.765625
3454		-7.812500
3455		-9.765625
3456		-5.859375
3457		-9.765625
3458		-5.859375
3459		-9.765625
3460		-3.906250
3461		-7.812500
3462		-3.906250
3463		-5.859375
3464		-3.906250
3465		-5.859375
3466		-3.906250
3467		-7.812500
3468		-1.953125
3469		-5.859375
3470		-1.953125
3471		-5.859375
3472		-1.953125
3473		-3.906250
3474		0.000000
3475		-3.906250
3476		0.000000
3477		-1.953125
3478		0.000000
3479		-3.906250
3480		1.953125
3481		-1.953125
3482		1.953125
3483		-1.953125
3484		1.953125
3485		0.000000
3486		1.953125
3487		0.000000
3488		3.906250
3489		0.000000
3490		3.906250
3491		0.000000
3492		3.906250
3493		1.953125
3494		5.859375
3495		1.953125
3496		5.859375
3497		3.906250
3498		5.859375
3499		3.906250
3500		5.859375
3501		3.906250
3502		7.812500
3503		3.906250
3504		7.812500
3505		5.859375
3506		9.765625
3507		5.859375
3508		9.765625
3509		5.859375
3510		9.765625
3511		5.859375
3512		11.718750
3513		7.812500
3514		11.718750
3515		7.812500
3516		11.718750
3517		7.812500
3518		11.718750
3519		9.765625
3520		13.671875
3521		9.765625
3522		13.671875
3523		9.765625
3524		13.671875
3525		11.718750
3526		13.671875
3527		11.718750
3528		15.625000
3529		11.718750
3530		15.625000
3531		13.671875
3532		15.625000
3533		11.718750
3534		17.578125
3535		13.671875
3536		17.578125
3537		13.671875
3538		17.578125
3539		13.671875
3540		19.531250
3541		15.625000
3542		17.578125
3543		15.625000
3544		19.531250
3545		15.625000
3546		21.484375
3547		15.625000
3548		19.531250
3549		17.578125
3550		19.531250
3551		15.625000
3552		21.484375
3553		17.578125
3554		21.484375
3555		17.578125
3556		21.484375
3557		17.578125
3558		21.484375
3559		17.578125
3560		21.484375
3561		17.578125
3562		21.484375
3563		17.578125
3564		23.437500
3565		19.531250
3566		21.484375
3567		19.531250
3568		21.484375
3569		19.531250
3570		23.437500
3571		19.531250
3572		23.437500
3573		19.531250
3574		23.437500
3575		19.531250
3576		23.437500
3577		21.484375
3578		23.437500
3579		19.531250
3580		25.390625
3581		19.531250
3582		23.437500
3583		21.484375
3584		23.437500
3585		19.531250
3586		25.390625
3587		21.484375
3588		23.437500
3589		21.484375
3590		23.437500
3591		21.484375
3592		25.390625
3593		21.484375
3594		25.390625
3595		21.484375
3596		25.390625
3597		21.484375
3598		23.437500
3599		21.484375
3600		23.437500
3601		19.531250
3602		25.390625
3603		21.484375
3604		25.390625
3605		21.484375
3606		25.390625
3607		21.484375
3608		23.437500
3609		21.484375
3610		25.390625
3611		21.484375
3612		25.390625
3613		19.531250
3614		25.390625
3615		21.484375
3616		23.437500
3617		19.531250
3618		25.390625
3619		19.531250
3620		23.437500
3621		19.531250
3622		23.437500
3623		21.484375
3624		23.437500
3625		19.531250
3626		23.437500
3627		19.531250
3628		23.437500
3629		19.531250
3630		23.437500
3631		19.531250
3632		21.484375
3633		19.531250
3634		21.484375
3635		19.531250
3636		23.437500
3637		17.578125
3638		23.437500
3639		17.578125
3640		21.484375
3641		17.578125
3642		21.484375
3643		17.578125
3644		21.484375
3645		17.578125
3646		21.484375
3647		17.578125
3648		21.484375
3649		17.578125
3650		19.531250
3651		15.625000
3652		19.531250
3653		15.625000
3654		19.531250
3655		15.625000
3656		19.531250
3657		15.625000
3658		19.531250
3659		13.671875
3660		19.531250
3661		13.671875
3662		17.578125
3663		13.671875
3664		17.578125
3665		13.671875
3666		15.625000
3667		13.671875
3668		15.625000
3669		11.718750
3670		17.578125
3671		11.718750
3672		15.625000
3673		11.718750
3674		15.625000
3675		11.718750
3676		13.671875
3677		9.765625
3678		13.671875
3679		9.765625
3680		13.671875
3681		9.765625
3682		13.671875
3683		9.765625
3684		11.718750
3685		7.812500
3686		13.671875
3687		7.812500
3688		11.718750
3689		5.859375
3690		9.765625
3691		5.859375
3692		9.765625
3693		5.859375
3694		9.765625
3695		5.859375
3696		9.765625
3697		3.906250
3698		7.812500
3699		3.906250
3700		7.812500
3701		3.906250
3702		7.812500
3703		1.953125
3704		7.812500
3705		1.953125
3706		5.859375
3707		1.953125
3708		5.859375
3709		0.000000
3710		3.906250
3711		0.000000
3712		3.906250
3713		-1.953125
3714		3.906250
3715		0.000000
3716		1.953125
3717		0.000000
3718		1.953125
3719		-1.953125
3720		1.953125
3721		-1.953125
3722		0.000000
3723		-3.906250
3724		1.953125
3725		-3.906250
3726		0.000000
3727		-5.859375
3728		-1.953125
3729		-5.859375
3730		-1.953125
3731		-5.859375
3732		-1.953125
3733		-5.859375
3734		-3.906250
3735		-7.812500
3736		-3.906250
3737		-7.812500
3738		-3.906250
3739		-7.812500
3740		-3.906250
3741		-7.812500
3742		-5.859375
3743		-9.765625
3744		-5.859375
3745		-9.765625
3746		-5.859375
3747		-11.718750
3748		-5.859375
3749		-9.765625
3750		-7.812500
3751		-11.718750
3752		-7.812500
3753		-13.671875
3754		-7.812500
3755		-11.718750
3756		-9.765625
3757		-13.671875
3758		-9.765625
3759		-13.671875
3760		-11.718750
3761		-13.671875
3762		-9.765625
3763		-15.625000
3764		-11.718750
3765		-17.578125
3766		-11.718750
3767		-15.625000
3768		-13.671875
3769		-15.625000
3770		-13.671875
3771		-17.578125
3772		-13.671875
3773		-17.578125
3774		-13.671875
3775		-17.578125
3776		-15.625000
3777		-17.578125
3778		-15.625000
3779		-19.531250
3780		-15.625000
3781		-19.531250
3782		-15.625000
3783		-19.531250
3784		-17.578125
3785		-19.531250
3786		-17.578125
3787		-21.484375
3788		-17.578125
3789		-21.484375
3790		-17.578125
3791		-21.484375
3792		-17.578125
3793		-21.484375
3794		-17.578125
3795		-21.484375
3796		-17.578125
3797		-23.437500
3798		-19.531250
3799		-23.437500
3800		-17.578125
3801		-23.437500
3802		-19.531250
3803		-25.390625
3804		-19.531250
3805		-25.390625
3806		-19.531250
3807		-23.437500
3808		-21.484375
3809		-23.437500
3810		-21.484375
3811		-25.390625
3812		-21.484375
3813		-25.390625
3814		-21.484375
3815		-25.390625
3816		-21.484375
3817		-23.437500
3818		-21.484375
3819		-25.390625
3820		-21.484375
3821		-25.390625
3822		-21.484375
3823		-25.390625
3824		-21.484375
3825		-25.390625
3826		-21.484375
3827		-25.390625
3828		-21.484375
3829		-25.390625
3830		-23.437500
3831		-27.343750
3832		-21.484375
3833		-25.390625
3834		-23.437500
3835		-25.390625
3836		-23.437500
3837		-25.390625
3838		-21.484375
3839		-25.390625
3840		-23.437500
3841		-25.390625
3842		-23.437500
3843		-25.390625
3844		-23.437500
3845		-25.390625
3846		-21.484375
3847		-25.390625
3848		-21.484375
3849		-25.390625
3850		-21.484375
3851		-25.390625
3852		-23.437500
3853		-25.390625
3854		-21.484375
3855		-25.390625
3856		-21.484375
3857		-25.390625
3858		-21.484375
3859		-25.390625
3860		-21.484375
3861		-23.437500
3862		-21.484375
3863		-23.437500
3864		-21.484375
3865		-23.437500
3866		-19.531250
3867		-23.437500
3868		-21.484375
3869		-23.437500
3870		-19.531250
3871		-23.437500
3872		-19.531250
3873		-23.437500
3874		-19.531250
3875		-23.437500
3876		-19.531250
3877		-23.437500
3878		-17.578125
3879		-21.484375
3880		-19.531250
3881		-21.484375
3882		-17.578125
3883		-21.484375
3884		-17.578125
3885		-19.531250
3886		-17.578125
3887		-21.484375
3888		-15.625000
3889		-19.531250
3890		-15.625000
3891		-19.531250
3892		-15.625000
3893		-19.531250
3894		-15.625000
3895		-17.578125
3896		-15.625000
3897		-17.578125
3898		-13.671875
3899		-19.531250
3900		-13.671875
3901		-17.578125
3902		-13.671875
3903		-17.578125
3904		-11.718750
3905		-17.578125
3906		-13.671875
3907		-15.625000
3908		-11.718750
3909		-15.625000
3910		-11.718750
3911		-15.625000
3912		-11.718750
3913		-15.625000
3914		-11.718750
3915		-13.671875
3916		-9.765625
3917		-11.718750
3918		-9.765625
3919		-11.718750
3920		-9.765625
3921		-11.718750
3922		-7.812500
3923		-11.718750
3924		-7.812500
3925		-11.718750
3926		-7.812500
3927		-9.765625
3928		-7.812500
3929		-9.765625
3930		-5.859375
3931		-9.765625
3932		-5.859375
3933		-7.812500
3934		-3.906250
3935		-7.812500
3936		-5.859375
3937		-7.812500
3938		-3.906250
3939		-5.859375
3940		-3.906250
3941		-5.859375
3942		-1.953125
3943		-5.859375
3944		-1.953125
3945		-3.906250
3946		0.000000
3947		-3.906250
3948		0.000000
3949		-3.906250
3950		0.000000
3951		-1.953125
3952		0.000000
3953		-1.953125
3954		0.000000
3955		-1.953125
3956		1.953125
3957		-1.953125
3958		1.953125
3959		0.000000
3960		3.906250
3961		0.000000
3962		3.906250
3963		0.000000
3964		3.906250
3965		1.953125
3966		3.906250
3967		0.000000
3968		5.859375
3969		3.906250
3970		5.859375
3971		3.906250
3972		5.859375
3973		3.906250
3974		7.812500
3975		3.906250
3976		7.812500
3977		3.906250
3978		9.765625
3979		3.906250
3980		7.812500
3981		5.859375
3982		9.765625
3983		5.859375
3984		9.765625
3985		7.812500
3986		9.765625
3987		7.812500
3988		11.718750
3989		7.812500
3990		11.718750
3991		9.765625
3992		11.718750
3993		9.765625
3994		13.671875
3995		9.765625
3996		13.671875
3997		9.765625
3998		13.671875
3999		9.765625
4000		15.625000
4001		11.718750
4002		13.671875
4003		11.718750
4004		15.625000
4005		11.718750
4006		15.625000
4007		13.671875
4008		17.578125
4009		13.671875
4010		17.578125
4011		13.671875
4012		17.578125
4013		13.671875
4014		17.578125
4015		13.671875
4016		17.578125
4017		15.625000
4018		19.531250
4019		15.625000
4020		17.578125
4021		15.625000
4022		19.531250
4023		17.578125
4024		19.531250
4025		17.578125
4026		19.531250
4027		17.578125
4028		21.484375
4029		17.578125
4030		21.484375
4031		17.578125
4032		21.484375
4033		17.578125
4034		21.484375
4035		19.531250
4036		21.484375
4037		19.531250
4038		21.484375
4039		17.578125
4040		23.437500
4041		19.531250
4042		23.437500
4043		19.531250
4044		23.437500
4045		19.531250
4046		23.437500
4047		19.531250
4048		23.437500
4049		19.531250
4050		23.437500
4051		19.531250
4052		23.437500
4053		21.484375
4054		23.437500
4055		21.484375
4056		23.437500
4057		21.484375
4058		23.437500
4059		21.484375
4060		23.437500
4061		21.484375
4062		23.437500
4063		21.484375
4064		23.437500
4065		21.484375
4066		25.390625
4067		21.484375
4068		25.390625
4069		21.484375
4070		23.437500
4071		19.531250
4072		25.390625
4073		21.484375
4074		25.390625
4075		21.484375
4076		25.390625
4077		21.484375
4078		25.390625
4079		21.484375
4080		25.390625
4081		21.484375
4082		25.390625
4083		21.484375
4084		25.390625
4085		21.484375
4086		23.437500
4087		21.484375
4088		23.437500
4089		19.531250
4090		25.390625
4091		21.484375
4092		23.437500
4093		19.531250
4094		23.437500
4095		19.531250
4096		23.437500
4097		19.531250
4098		23.437500
4099		19.531250
4100		23.437500
4101		19.531250
4102		23.437500
4103		19.531250
4104		21.484375
4105		17.578125
4106		23.437500
4107		17.578125
4108		23.437500
4109		19.531250
4110		21.484375
4111		19.531250
4112		21.484375
4113		17.578125
4114		21.484375
4115		17.578125
4116		21.484375
4117		17.578125
4118		21.484375
4119		17.578125
4120		19.531250
4121		17.578125
4122		19.531250
4123		17.578125
4124		21.484375
4125		15.625000
4126		19.531250
4127		15.625000
4128		19.531250
4129		15.625000
4130		19.531250
4131		15.625000
4132		19.531250
4133		13.671875
4134		17.578125
4135		13.671875
4136		17.578125
4137		13.671875
4138		15.625000
4139		11.718750
4140		15.625000
4141		11.718750
4142		15.625000
4143		11.718750
4144		15.625000
4145		11.718750
4146		15.625000
4147		11.718750
4148		15.625000
4149		9.765625
4150		13.671875
4151		9.765625
4152		13.671875
4153		9.765625
4154		11.718750
4155		7.812500
4156		13.671875
4157		7.812500
4158		11.718750
4159		7.812500
4160		11.718750
4161		7.812500
4162		9.765625
4163		7.812500
4164		9.765625
4165		5.859375
4166		9.765625
4167		3.906250
4168		9.765625
4169		5.859375
4170		7.812500
4171		5.859375
4172		7.812500
4173		3.906250
4174		7.812500
4175		3.906250
4176		5.859375
4177		1.953125
4178		5.859375
4179		1.953125
4180		5.859375
4181		1.953125
4182		3.906250
4183		0.000000
4184		3.906250
4185		0.000000
4186		3.906250
4187		0.000000
4188		1.953125
4189		0.000000
4190		1.953125
4191		-1.953125
4192		1.953125
4193		-1.953125
4194		1.953125
4195		-3.906250
4196		0.000000
4197		-3.906250
4198		0.000000
4199		-3.906250
4200		0.000000
4201		-5.859375
4202		0.000000
4203		-5.859375
4204		-1.953125
4205		-5.859375
4206		-1.953125
4207		-5.859375
4208		-3.906250
4209		-7.812500
4210		-3.906250
4211		-7.812500
4212		-5.859375
4213		-7.812500
4214		-5.859375
4215		-7.812500
4216		-5.859375
4217		-9.765625
4218		-7.812500
4219		-9.765625
4220		-7.812500
4221		-9.765625
4222		-7.812500
4223		-11.718750
4224		-7.812500
4225		-11.718750
4226		-7.812500
4227		-13.671875
4228		-7.812500
4229		-13.671875
4230		-9.765625
4231		-13.671875
4232		-9.765625
4233		-15.625000
4234		-11.718750
4235		-15.625000
4236		-11.718750
4237		-15.625000
4238		-11.718750
4239		-17.578125
4240		-11.718750
4241		-17.578125
4242		-13.671875
4243		-17.578125
4244		-13.671875
4245		-17.578125
4246		-13.671875
4247		-17.578125
4248		-15.625000
4249		-17.578125
4250		-15.625000
4251		-19.531250
4252		-15.625000
4253		-19.531250
4254		-15.625000
4255		-19.531250
4256		-17.578125
4257		-19.531250
4258		-15.625000
4259		-21.484375
4260		-17.578125
4261		-21.484375
4262		-17.578125
4263		-21.484375
4264		-17.578125
4265		-23.437500
4266		-17.578125
4267		-23.437500
4268		-19.531250
4269		-23.437500
4270		-19.531250
4271		-21.484375
4272		-19.531250
4273		-25.390625
4274		-19.531250
4275		-23.437500
4276		-19.531250
4277		-23.437500
4278		-19.531250
4279		-25.390625
4280		-19.531250
4281		-25.390625
4282		-21.484375
4283		-25.390625
4284		-21.484375
4285		-25.390625
4286		-21.484375
4287		-25.390625
4288		-21.484375
4289		-25.390625
4290		-23.437500
4291		-27.343750
4292		-21.484375
4293		-25.390625
4294		-21.484375
4295		-25.390625
4296		-21.484375
4297		-25.390625
4298		-23.437500
4299		-25.390625
4300		-23.437500
4301		-25.390625
4302		-21.484375
4303		-25.390625
4304		-23.437500
4305		-25.390625
4306		-23.437500
4307		-27.343750
4308		-21.484375
4309		-27.343750
4310		-23.437500
4311		-25.390625
4312		-23.437500
4313		-25.390625
4314		-23.437500
4315		-25.390625
4316		-23.437500
4317		-25.390625
4318		-21.484375
4319		-27.343750
4320		-21.484375
4321		-25.390625
4322		-23.437500
4323		-25.390625
4324		-23.437500
4325		-27.343750
4326		-21.484375
4327		-25.390625
4328		-21.484375
4329		-25.390625
4330		-21.484375
4331		-25.390625
4332		-21.484375
4333		-25.390625
4334		-21.484375
4335		-25.390625
4336		-19.531250
4337		-25.390625
4338		-21.484375
4339		-23.437500
4340		-21.484375
4341		-23.437500
4342		-21.484375
4343		-23.437500
4344		-19.531250
4345		-23.437500
4346		-19.531250
4347		-23.437500
4348		-19.531250
4349		-23.437500
4350		-19.531250
4351		-23.437500
4352		-19.531250
4353		-21.484375
4354		-17.578125
4355		-21.484375
4356		-19.531250
4357		-23.437500
4358		-17.578125
4359		-21.484375
4360		-17.578125
4361		-21.484375
4362		-17.578125
4363		-19.531250
4364		-15.625000
4365		-19.531250
4366		-15.625000
4367		-19.531250
4368		-15.625000
4369		-19.531250
4370		-15.625000
4371		-17.578125
4372		-15.625000
4373		-17.578125
4374		-15.625000
4375		-17.578125
4376		-13.671875
4377		-17.578125
4378		-13.671875
4379		-17.578125
4380		-13.671875
4381		-17.578125
4382		-11.718750
4383		-15.625000
4384		-11.718750
4385		-15.625000
4386		-11.718750
4387		-15.625000
4388		-9.765625
4389		-13.671875
4390		-11.718750
4391		-13.671875
4392		-7.812500
4393		-13.671875
4394		-9.765625
4395		-11.718750
4396		-7.812500
4397		-11.718750
4398		-9.765625
4399		-11.718750
4400		-7.812500
4401		-9.765625
4402		-5.859375
4403		-9.765625
4404		-5.859375
4405		-9.765625
4406		-5.859375
4407		-7.812500
4408		-5.859375
4409		-7.812500
4410		-3.906250
4411		-7.812500
4412		-3.906250
4413		-5.859375
4414		-3.906250
4415		-5.859375
4416		-1.953125
4417		-5.859375
4418		-1.953125
4419		-3.906250
4420		-1.953125
4421		-5.859375
4422		0.000000
4423		-3.906250
4424		0.000000
4425		-3.906250
4426		1.953125
4427		-1.953125
4428		1.953125
4429		-1.953125
4430		1.953125
4431		-1.953125
4432		1.953125
4433		0.000000
4434		1.953125
4435		0.000000
4436		3.906250
4437		0.000000
4438		3.906250
4439		1.953125
4440		3.906250
4441		0.000000
4442		5.859375
4443		1.953125
4444		5.859375
4445		1.953125
4446		5.859375
4447		3.906250
4448		7.812500
4449		3.906250
4450		7.812500
4451		3.906250
4452		7.812500
4453		5.859375
4454		9.765625
4455		5.859375
4456		9.765625
4457		7.812500
4458		9.765625
4459		5.859375
4460		11.718750
4461		7.812500
4462		11.718750
4463		7.812500
4464		11.718750
4465		9.765625
4466		11.718750
4467		9.765625
4468		13.671875
4469		9.765625
4470		13.671875
4471		9.765625
4472		13.671875
4473		11.718750
4474		13.671875
4475		11.718750
4476		15.625000
4477		11.718750
4478		15.625000
4479		13.671875
4480		15.625000
4481		13.671875
4482		15.625000
4483		13.671875
4484		17.578125
4485		13.671875
4486		17.578125
4487		13.671875
4488		19.531250
4489		15.625000
4490		17.578125
4491		15.625000
4492		17.578125
4493		13.671875
4494		19.531250
4495		15.625000
4496		19.531250
4497		15.625000
4498		19.531250
4499		17.578125
4500		19.531250
4501		17.578125
4502		19.531250
4503		17.578125
4504		21.484375
4505		17.578125
4506		21.484375
4507		17.578125
4508		21.484375
4509		17.578125
4510		23.437500
4511		19.531250
4512		21.484375
4513		17.578125
4514		21.484375
4515		19.531250
4516		23.437500
4517		19.531250
4518		23.437500
4519		19.531250
4520		23.437500
4521		19.531250
4522		23.437500
4523		19.531250
4524		23.437500
4525		19.531250
4526		25.390625
4527		19.531250
4528		23.437500
4529		19.531250
4530		25.390625
4531		21.484375
4532		23.437500
4533		19.531250
4534		23.437500
4535		21.484375
4536		25.390625
4537		19.531250
4538		25.390625
4539		21.484375
4540		23.437500
4541		21.484375
4542		23.437500
4543		19.531250
4544		25.390625
4545		21.484375
4546		23.437500
4547		21.484375
4548		23.437500
4549		21.484375
4550		25.390625
4551		21.484375
4552		23.437500
4553		21.484375
4554		23.437500
4555		19.531250
4556		25.390625
4557		21.484375
4558		23.437500
4559		19.531250
4560		25.390625
4561		19.531250
4562		23.437500
4563		19.531250
4564		23.437500
4565		19.531250
4566		23.437500
4567		19.531250
4568		23.437500
4569		19.531250
4570		23.437500
4571		19.531250
4572		23.437500
4573		19.531250
4574		23.437500
4575		19.531250
4576		21.484375
4577		17.578125
4578		23.437500
4579		19.531250
4580		23.437500
4581		19.531250
4582		23.437500
4583		19.531250
4584		21.484375
4585		17.578125
4586		21.484375
4587		17.578125
4588		21.484375
4589		17.578125
4590		21.484375
4591		17.578125
4592		21.484375
4593		17.578125
4594		21.484375
4595		17.578125
4596		19.531250
4597		15.625000
4598		19.531250
4599		15.625000
4600		19.531250
4601		15.625000
4602		19.531250
4603		15.625000
4604		19.531250
4605		13.671875
4606		17.578125
4607		15.625000
4608		17.578125
4609		13.671875
4610		17.578125
4611		13.671875
4612		17.578125
4613		11.718750
4614		15.625000
4615		11.718750
4616		15.625000
4617		11.718750
4618		15.625000
4619		11.718750
4620		15.625000
4621		9.765625
4622		15.625000
4623		11.718750
4624		13.671875
4625		9.765625
4626		13.671875
4627		9.765625
4628		13.671875
4629		7.812500
4630		11.718750
4631		7.812500
4632		11.718750
4633		7.812500
4634		11.718750
4635		7.812500
4636		9.765625
4637		5.859375
4638		9.765625
4639		5.859375
4640		9.765625
4641		5.859375
4642		7.812500
4643		3.906250
4644		9.765625
4645		3.906250
4646		7.812500
4647		1.953125
4648		7.812500
4649		1.953125
4650		5.859375
4651		1.953125
4652		5.859375
4653		1.953125
4654		5.859375
4655		0.000000
4656		3.906250
4657		1.953125
4658		3.906250
4659		0.000000
4660		1.953125
4661		0.000000
4662		3.906250
4663		-1.953125
4664		1.953125
4665		-1.953125
4666		1.953125
4667		-3.906250
4668		0.000000
4669		-3.906250
4670		0.000000
4671		-3.906250
4672		0.000000
4673		-5.859375
4674		-1.953125
4675		-3.906250
4676		-1.953125
4677		-5.859375
4678		-1.953125
4679		-5.859375
4680		-1.953125
4681		-7.812500
4682		-3.906250
4683		-7.812500
4684		-3.906250
4685		-9.765625
4686		-5.859375
4687		-9.765625
4688		-5.859375
4689		-9.765625
4690		-5.859375
4691		-9.765625
4692		-7.812500
4693		-9.765625
4694		-7.812500
4695		-11.718750
4696		-7.812500
4697		-11.718750
4698		-7.812500
4699		-11.718750
4700		-7.812500
4701		-13.671875
4702		-9.765625
4703		-13.671875
4704		-9.765625
4705		-13.671875
4706		-9.765625
4707		-13.671875
4708		-11.718750
4709		-15.625000
4710		-11.718750
4711		-17.578125
4712		-11.718750
4713		-15.625000
4714		-11.718750
4715		-17.578125
4716		-11.718750
4717		-17.578125
4718		-13.671875
4719		-17.578125
4720		-13.671875
4721		-19.531250
4722		-13.671875
4723		-19.531250
4724		-13.671875
4725		-19.531250
4726		-15.625000
4727		-21.484375
4728		-15.625000
4729		-19.531250
4730		-17.578125
4731		-21.484375
4732		-17.578125
4733		-21.484375
4734		-15.625000
4735		-21.484375
4736		-17.578125
4737		-21.484375
4738		-17.578125
4739		-23.437500
4740		-19.531250
4741		-23.437500
4742		-19.531250
4743		-21.484375
4744		-19.531250
4745		-23.437500
4746		-19.531250
4747		-23.437500
4748		-19.531250
4749		-23.437500
4750		-19.531250
4751		-25.390625
4752		-19.531250
4753		-25.390625
4754		-21.484375
4755		-25.390625
4756		-21.484375
4757		-25.390625
4758		-21.484375
4759		-23.437500
4760		-21.484375
4761		-25.390625
4762		-21.484375
4763		-25.390625
4764		-21.484375
4765		-25.390625
4766		-21.484375
4767		-25.390625
4768		-21.484375
4769		-25.390625
4770		-21.484375
4771		-27.343750
4772		-21.484375
4773		-27.343750
4774		-21.484375
4775		-25.390625
4776		-23.437500
4777		-27.343750
4778		-21.484375
4779		-27.343750
4780		-23.437500
4781		-27.343750
4782		-23.437500
4783		-27.343750
4784		-23.437500
4785		-27.343750
4786		-23.437500
4787		-27.343750
4788		-23.437500
4789		-27.343750
4790		-23.437500
4791		-25.390625
4792		-23.437500
4793		-25.390625
4794		-23.437500
4795		-27.343750
4796		-21.484375
4797		-25.390625
4798		-23.437500
4799		-25.390625
4800		-21.484375
4801		-25.390625
4802		-23.437500
4803		-25.390625
4804		-21.484375
4805		-25.390625
4806		-21.484375
4807		-25.390625
4808		-21.484375
4809		-23.437500
4810		-21.484375
4811		-25.390625
4812		-21.484375
4813		-25.390625
4814		-21.484375
4815		-23.437500
4816		-19.531250
4817		-23.437500
4818		-21.484375
4819		-23.437500
4820		-19.531250
4821		-23.437500
4822		-19.531250
4823		-23.437500
4824		-19.531250
4825		-21.484375
4826		-19.531250
4827		-21.484375
4828		-19.531250
4829		-21.484375
4830		-19.531250
4831		-21.484375
4832		-17.578125
4833		-21.484375
4834		-17.578125
4835		-21.484375
4836		-17.578125
4837		-21.484375
4838		-17.578125
4839		-21.484375
4840		-17.578125
4841		-21.484375
4842		-15.625000
4843		-19.531250
4844		-15.625000
4845		-19.531250
4846		-15.625000
4847		-17.578125
4848		-13.671875
4849		-17.578125
4850		-13.671875
4851		-17.578125
4852		-13.671875
4853		-17.578125
4854		-13.671875
4855		-15.625000
4856		-13.671875
4857		-15.625000
4858		-11.718750
4859		-13.671875
4860		-11.718750
4861		-13.671875
4862		-11.718750
4863		-15.625000
4864		-9.765625
4865		-13.671875
4866		-9.765625
4867		-13.671875
4868		-9.765625
4869		-11.718750
4870		-9.765625
4871		-11.718750
4872		-7.812500
4873		-11.718750
4874		-7.812500
4875		-9.765625
4876		-7.812500
4877		-9.765625
4878		-7.812500
4879		-9.765625
4880		-5.859375
4881		-9.765625
4882		-5.859375
4883		-7.812500
4884		-3.906250
4885		-7.812500
4886		-3.906250
4887		-7.812500
4888		-3.906250
4889		-5.859375
4890		-3.906250
4891		-7.812500
4892		-1.953125
4893		-3.906250
4894		-1.953125
4895		-3.906250
4896		-1.953125
4897		-3.906250
4898		0.000000
4899		-3.906250
4900		0.000000
4901		-3.906250
4902		0.000000
4903		-1.953125
4904		1.953125
4905		-1.953125
4906		1.953125
4907		-1.953125
4908		3.906250
4909		0.000000
4910		1.953125
4911		1.953125
4912		3.906250
4913		0.000000
4914		3.906250
4915		1.953125
4916		5.859375
4917		1.953125
4918		5.859375
4919		3.906250
4920		5.859375
4921		3.906250
4922		5.859375
4923		3.906250
4924		7.812500
4925		3.906250
4926		9.765625
4927		5.859375
4928		7.812500
4929		5.859375
4930		9.765625
4931		5.859375
4932		9.765625
4933		5.859375
4934		9.765625
4935		7.812500
4936		11.718750
4937		7.812500
4938		11.718750
4939		7.812500
4940		11.718750
4941		7.812500
4942		13.671875
4943		9.765625
4944		13.671875
4945		11.718750
4946		13.671875
4947		9.765625
4948		13.671875
4949		11.718750
4950		13.671875
4951		11.718750
4952		15.625000
4953		13.671875
4954		15.625000
4955		11.718750
4956		15.625000
4957		11.718750
4958		17.578125
4959		13.671875
4960		15.625000
4961		13.671875
4962		17.578125
4963		13.671875
4964		17.578125
4965		15.625000
4966		17.578125
4967		15.625000
4968		19.531250
4969		15.625000
4970		19.531250
4971		15.625000
4972		19.531250
4973		17.578125
4974		19.531250
4975		15.625000
4976		21.484375
4977		17.578125
4978		19.531250
4979		17.578125
4980		21.484375
4981		17.578125
4982		21.484375
4983		17.578125
4984		21.484375
4985		17.578125
4986		21.484375
4987		17.578125
4988		21.484375
4989		19.531250
4990		21.484375
4991		19.531250
4992		23.437500
4993		19.531250
4994		21.484375
4995		19.531250
4996		23.437500
4997		17.578125
4998		23.437500
4999		19.531250
5000		23.437500
5001		19.531250
5002		23.437500
5003		19.531250
5004		23.437500
5005		19.531250
5006		23.437500
5007		21.484375
5008		23.437500
5009		21.484375
5010		23.437500
5011		21.484375
5012		23.437500
5013		19.531250
5014		25.390625
5015		21.484375
5016		23.437500
5017		21.484375
5018		23.437500
5019		21.484375
5020		23.437500
5021		21.484375
5022		25.390625
5023		21.484375
5024		25.390625
5025		19.531250
5026		25.390625
5027		21.484375
5028		23.437500
5029		21.484375
5030		23.437500
5031		19.531250
5032		25.390625
5033		19.531250
5034		23.437500
5035		19.531250
5036		23.437500
5037		19.531250
5038		23.437500
5039		19.531250
5040		23.437500
5041		19.531250
5042		23.437500
5043		19.531250
5044		25.390625
5045		19.531250
5046		23.437500
5047		19.531250
5048		21.484375
5049		19.531250
5050		23.437500
5051		19.531250
5052		21.484375
5053		19.531250
5054		21.484375
5055		19.531250
5056		21.484375
5057		19.531250
5058		21.484375
5059		17.578125
5060		21.484375
5061		17.578125
5062		21.484375
5063		17.578125
5064		21.484375
5065		15.625000
5066		19.531250
5067		17.578125
5068		19.531250
5069		17.578125
5070		19.531250
5071		15.625000
5072		19.531250
5073		15.625000
5074		19.531250
5075		15.625000
5076		19.531250
5077		15.625000
5078		17.578125
5079		15.625000
5080		17.578125
5081		13.671875
5082		17.578125
5083		13.671875
5084		17.578125
5085		13.671875
5086		17.578125
5087		13.671875
5088		15.625000
5089		11.718750
5090		15.625000
5091		11.718750
5092		15.625000
5093		9.765625
5094		15.625000
5095		11.718750
5096		13.671875
5097		9.765625
5098		13.671875
5099		9.765625
5100		13.671875
5101		9.765625
5102		11.718750
5103		9.765625
5104		11.718750
5105		7.812500
5106		11.718750
5107		7.812500
5108		11.718750
5109		5.859375
5110		9.765625
5111		7.812500
5112		9.765625
5113		5.859375
5114		7.812500
5115		5.859375
5116		9.765625
5117		3.906250
5118		7.812500
5119		3.906250
5120		7.812500
5121		3.906250
5122		7.812500
5123		3.906250
5124		5.859375
5125		1.953125
5126		5.859375
5127		1.953125
5128		5.859375
5129		1.953125
5130		3.906250
5131		0.000000
5132		3.906250
5133		0.000000
5134		3.906250
5135		0.000000
5136		1.953125
5137		-1.953125
5138		1.953125
5139		-1.953125
5140		1.953125
5141		-1.953125
5142		0.000000
5143		-3.906250
5144		0.000000
5145		-3.906250
5146		-1.953125
5147		-5.859375
5148		-1.953125
5149		-5.859375
5150		-1.953125
5151		-5.859375
5152		-1.953125
5153		-5.859375
5154		-3.906250
5155		-7.812500
5156		-3.906250
5157		-7.812500
5158		-3.906250
5159		-9.765625
5160		-3.906250
5161		-7.812500
5162		-5.859375
5163		-9.765625
5164		-7.812500
5165		-11.718750
5166		-5.859375
5167		-11.718750
5168		-7.812500
5169		-11.718750
5170		-7.812500
5171		-11.718750
5172		-9.765625
5173		-13.671875
5174		-9.765625
5175		-13.671875
5176		-9.765625
5177		-15.625000
5178		-9.765625
5179		-13.671875
5180		-11.718750
5181		-15.625000
5182		-11.718750
5183		-15.625000
5184		-11.718750
5185		-15.625000
5186		-11.718750
5187		-17.578125
5188		-13.671875
5189		-17.578125
5190		-13.671875
5191		-17.578125
5192		-13.671875
5193		-19.531250
5194		-13.671875
5195		-17.578125
5196		-15.625000
5197		-17.578125
5198		-15.625000
5199		-19.531250
5200		-15.625000
5201		-19.531250
5202		-15.625000
5203		-21.484375
5204		-17.578125
5205		-21.484375
5206		-17.578125
5207		-21.484375
5208		-17.578125
5209		-21.484375
5210		-17.578125
5211		-21.484375
5212		-19.531250
5213		-21.484375
5214		-19.531250
5215		-23.437500
5216		-19.531250
5217		-23.437500
5218		-19.531250
5219		-23.437500
5220		-21.484375
5221		-25.390625
5222		-19.531250
5223		-23.437500
5224		-19.531250
5225		-25.390625
5226		-21.484375
5227		-25.390625
5228		-19.531250
5229		-23.437500
5230		-21.484375
5231		-25.390625
5232		-21.484375
5233		-25.390625
5234		-21.484375
5235		-27.343750
5236		-21.484375
5237		-27.343750
5238		-21.484375
5239		-25.390625
5240		-21.484375
5241		-25.390625
5242		-21.484375
5243		-27.343750
5244		-21.484375
5245		-25.390625
5246		-23.437500
5247		-25.390625
5248		-23.437500
5249		-25.390625
5250		-23.437500
5251		-27.343750
5252		-21.484375
5253		-27.343750
5254		-23.437500
5255		-27.343750
5256		-23.437500
5257		-27.343750
5258		-23.437500
5259		-27.343750
5260		-23.437500
5261		-27.343750
5262		-21.484375
5263		-25.390625
5264		-23.437500
5265		-27.343750
5266		-23.437500
5267		-27.343750
5268		-23.437500
5269		-25.390625
5270		-23.437500
5271		-25.390625
5272		-23.437500
5273		-25.390625
5274		-23.437500
5275		-25.390625
5276		-21.484375
5277		-25.390625
5278		-21.484375
5279		-25.390625
5280		-23.437500
5281		-25.390625
5282		-21.484375
5283		-25.390625
5284		-21.484375
5285		-25.390625
5286		-21.484375
5287		-25.390625
5288		-21.484375
5289		-23.437500
5290		-21.484375
5291		-25.390625
5292		-21.484375
5293		-25.390625
5294		-19.531250
5295		-23.437500
5296		-19.531250
5297		-23.437500
5298		-19.531250
5299		-23.437500
5300		-17.578125
5301		-23.437500
5302		-17.578125
5303		-23.437500
5304		-17.578125
5305		-21.484375
5306		-17.578125
5307		-21.484375
5308		-17.578125
5309		-21.484375
5310		-17.578125
5311		-21.484375
5312		-15.625000
5313		-19.531250
5314		-17.578125
5315		-19.531250
5316		-15.625000
5317		-19.531250
5318		-15.625000
5319		-19.531250
5320		-15.625000
5321		-17.578125
5322		-15.625000
5323		-17.578125
5324		-13.671875
5325		-17.578125
5326		-13.671875
5327		-17.578125
5328		-11.718750
5329		-15.625000
5330		-13.671875
5331		-15.625000
5332		-13.671875
5333		-15.625000
5334		-11.718750
5335		-15.625000
5336		-11.718750
5337		-15.625000
5338		-9.765625
5339		-13.671875
5340		-9.765625
5341		-13.671875
5342		-9.765625
5343		-11.718750
5344		-9.765625
5345		-11.718750
5346		-7.812500
5347		-11.718750
5348		-7.812500
5349		-11.718750
5350		-7.812500
5351		-9.765625
5352		-7.812500
5353		-9.765625
5354		-5.859375
5355		-9.765625
5356		-5.859375
5357		-7.812500
5358		-3.906250
5359		-7.812500
5360		-3.906250
5361		-7.812500
5362		-3.906250
5363		-5.859375
5364		-3.906250
5365		-5.859375
5366		-3.906250
5367		-5.859375
5368		-1.953125
5369		-5.859375
5370		0.000000
5371		-3.906250
5372		0.000000
5373		-3.906250
5374		0.000000
5375		-3.906250
5376		1.953125
5377		-1.953125
5378		1.953125
5379		-1.953125
5380		1.953125
5381		0.000000
5382		1.953125
5383		0.000000
5384		3.906250
5385		0.000000
5386		3.906250
5387		1.953125
5388		3.906250
5389		0.000000
5390		5.859375
5391		1.953125
5392		5.859375
5393		1.953125
5394		5.859375
5395		1.953125
5396		7.812500
5397		3.906250
5398		7.812500
5399		5.859375
5400		7.812500
5401		5.859375
5402		7.812500
5403		5.859375
5404		9.765625
5405		5.859375
5406		9.765625
5407		7.812500
5408		9.765625
5409		7.812500
5410		11.718750
5411		7.812500
5412		11.718750
5413		7.812500
5414		11.718750
5415		9.765625
5416		11.718750
5417		7.812500
5418		13.671875
5419		9.765625
5420		13.671875
5421		9.765625
5422		15.625000
5423		11.718750
5424		15.625000
5425		11.718750
5426		15.625000
5427		11.718750
5428		15.625000
5429		11.718750
5430		15.625000
5431		13.671875
5432		15.625000
5433		13.671875
5434		17.578125
5435		13.671875
5436		17.578125
5437		13.671875
5438		17.578125
5439		15.625000
5440		17.578125
5441		13.671875
5442		19.531250
5443		15.625000
5444		19.531250
5445		15.625000
5446		19.531250
5447		17.578125
5448		19.531250
5449		17.578125
5450		19.531250
5451		17.578125
5452		21.484375
5453		17.578125
5454		21.484375
5455		17.578125
5456		21.484375
5457		17.578125
5458		21.484375
5459		17.578125
5460		21.484375
5461		17.578125
5462		21.484375
5463		17.578125
5464		23.437500
5465		19.531250
5466		21.484375
5467		19.531250
5468		23.437500
5469		19.531250
5470		23.437500
5471		19.531250
5472		23.437500
5473		19.531250
5474		23.437500
5475		19.531250
5476		23.437500
5477		19.531250
5478		23.437500
5479		19.531250
5480		23.437500
5481		21.484375
5482		23.437500
5483		21.484375
5484		23.437500
5485		19.531250
5486		23.437500
5487		19.531250
5488		23.437500
5489		21.484375
5490		25.390625
5491		21.484375
5492		23.437500
5493		19.531250
5494		23.437500
5495		19.531250
5496		23.437500
5497		21.484375
5498		23.437500
5499		19.531250
5500		23.437500
5501		19.531250
5502		23.437500
5503		19.531250
5504		25.390625
5505		19.531250
5506		23.437500
5507		19.531250
5508		23.437500
5509		19.531250
5510		23.437500
5511		19.531250
5512		23.437500
5513		19.531250
5514		23.437500
5515		21.484375
5516		23.437500
5517		19.531250
5518		23.437500
5519		19.531250
5520		23.437500
5521		19.531250
5522		23.437500
5523		19.531250
5524		23.437500
5525		19.531250
5526		21.484375
5527		19.531250
5528		21.484375
5529		17.578125
5530		23.437500
5531		17.578125
5532		21.484375
5533		17.578125
5534		21.484375
5535		17.578125
5536		21.484375
5537		17.578125
5538		21.484375
5539		17.578125
5540		21.484375
5541		15.625000
5542		19.531250
5543		15.625000
5544		19.531250
5545		15.625000
5546		19.531250
5547		15.625000
5548		19.531250
5549		15.625000
5550		17.578125
5551		13.671875
5552		17.578125
5553		13.671875
5554		17.578125
5555		13.671875
5556		17.578125
5557		11.718750
5558		17.578125
5559		13.671875
5560		17.578125
5561		11.718750
5562		15.625000
5563		11.718750
5564		17.578125
5565		11.718750
5566		15.625000
5567		11.718750
5568		13.671875
5569		9.765625
5570		13.671875
5571		9.765625
5572		13.671875
5573		9.765625
5574		11.718750
5575		9.765625
5576		11.718750
5577		7.812500
5578		11.718750
5579		7.812500
5580		11.718750
5581		7.812500
5582		11.718750
5583		7.812500
5584		9.765625
5585		5.859375
5586		9.765625
5587		5.859375
5588		9.765625
5589		3.906250
5590		7.812500
5591		3.906250
5592		7.812500
5593		3.906250
5594		7.812500
5595		3.906250
5596		5.859375
5597		1.953125
5598		5.859375
5599		1.953125
5600		3.906250
5601		1.953125
5602		3.906250
5603		0.000000
5604		3.906250
5605		0.000000
5606		3.906250
5607		0.000000
5608		3.906250
5609		-1.953125
5610		1.953125
5611		-1.953125
5612		1.953125
5613		-3.906250
5614		1.953125
5615		-1.953125
5616		0.000000
5617		-3.906250
5618		0.000000
5619		-3.906250
5620		0.000000
5621		-5.859375
5622		-1.953125
5623		-5.859375
5624		-1.953125
5625		-5.859375
5626		-3.906250
5627		-7.812500
5628		-3.906250
5629		-7.812500
5630		-3.906250
5631		-7.812500
5632		-3.906250
5633		-7.812500
5634		-5.859375
5635		-9.765625
5636		-5.859375
5637		-9.765625
5638		-5.859375
5639		-9.765625
5640		-5.859375
5641		-11.718750
5642		-7.812500
5643		-11.718750
5644		-7.812500
5645		-11.718750
5646		-9.765625
5647		-13.671875
5648		-9.765625
5649		-13.671875
5650		-9.765625
5651		-13.671875
5652		-9.765625
5653		-15.625000
5654		-9.765625
5655		-15.625000
5656		-11.718750
5657		-15.625000
5658		-13.671875
5659		-15.625000
5660		-13.671875
5661		-17.578125
5662		-13.671875
5663		-17.578125
5664		-11.718750
5665		-19.531250
5666		-13.671875
5667		-17.578125
5668		-15.625000
5669		-17.578125
5670		-15.625000
5671		-19.531250
5672		-15.625000
5673		-19.531250
5674		-15.625000
5675		-21.484375
5676		-15.625000
5677		-21.484375
5678		-17.578125
5679		-21.484375
5680		-17.578125
5681		-21.484375
5682		-17.578125
5683		-21.484375
5684		-17.578125
5685		-23.437500
5686		-19.531250
5687		-23.437500
5688		-19.531250
5689		-23.437500
5690		-19.531250
5691		-23.437500
5692		-19.531250
5693		-23.437500
5694		-19.531250
5695		-23.437500
5696		-19.531250
5697		-23.437500
5698		-21.484375
5699		-23.437500
5700		-21.484375
5701		-25.390625
5702		-21.484375
5703		-25.390625
5704		-21.484375
5705		-25.390625
5706		-21.484375
5707		-25.390625
5708		-21.484375
5709		-25.390625
5710		-21.484375
5711		-25.390625
5712		-21.484375
5713		-25.390625
5714		-21.484375
5715		-27.343750
5716		-23.437500
5717		-25.390625
5718		-23.437500
5719		-27.343750
5720		-21.484375
5721		-27.343750
5722		-23.437500
5723		-27.343750
5724		-23.437500
5725		-27.343750
5726		-21.484375
5727		-27.343750
5728		-23.437500
5729		-27.343750
5730		-23.437500
5731		-27.343750
5732		-23.437500
5733		-25.390625
5734		-23.437500
5735		-25.390625
5736		-23.437500
5737		-27.343750
5738		-23.437500
5739		-27.343750
5740		-23.437500
5741		-27.343750
5742		-23.437500
5743		-27.343750
5744		-23.437500
5745		-27.343750
5746		-23.437500
5747		-25.390625
5748		-23.437500
5749		-27.343750
5750		-21.484375
5751		-25.390625
5752		-23.437500
5753		-25.390625
5754		-21.484375
5755		-25.390625
5756		-21.484375
5757		-25.390625
5758		-21.484375
5759		-25.390625
5760		-21.484375
5761		-25.390625
5762		-21.484375
5763		-25.390625
5764		-21.484375
5765		-25.390625
5766		-19.531250
5767		-23.437500
5768		-21.484375
5769		-23.437500
5770		-19.531250
5771		-23.437500
5772		-19.531250
5773		-23.437500
5774		-19.531250
5775		-23.437500
5776		-19.531250
5777		-23.437500
5778		-17.578125
5779		-23.437500
5780		-17.578125
5781		-23.437500
5782		-17.578125
5783		-21.484375
5784		-17.578125
5785		-19.531250
5786		-17.578125
5787		-21.484375
5788		-15.625000
5789		-19.531250
5790		-15.625000
5791		-21.484375
5792		-13.671875
5793		-19.531250
5794		-13.671875
5795		-19.531250
5796		-13.671875
5797		-19.531250
5798		-13.671875
5799		-19.531250
5800		-13.671875
5801		-17.578125
5802		-13.671875
5803		-17.578125
5804		-11.718750
5805		-15.625000
5806		-11.718750
5807		-15.625000
5808		-11.718750
5809		-15.625000
5810		-9.765625
5811		-15.625000
5812		-9.765625
5813		-13.671875
5814		-9.765625
5815		-13.671875
5816		-7.812500
5817		-11.718750
5818		-9.765625
5819		-11.718750
5820		-9.765625
5821		-11.718750
5822		-5.859375
5823		-11.718750
5824		-5.859375
5825		-11.718750
5826		-5.859375
5827		-11.718750
5828		-3.906250
5829		-9.765625
5830		-3.906250
5831		-9.765625
5832		-3.906250
5833		-7.812500
5834		-3.906250
5835		-5.859375
5836		-3.906250
5837		-7.812500
5838		-1.953125
5839		-7.812500
5840		-1.953125
5841		-5.859375
5842		-1.953125
5843		-5.859375
5844		0.000000
5845		-5.859375
5846		0.000000
5847		-3.906250
5848		1.953125
5849		-3.906250
5850		1.953125
5851		-1.953125
5852		0.000000
5853		-1.953125
5854		1.953125
5855		-1.953125
5856		3.906250
5857		-1.953125
5858		3.906250
5859		0.000000
5860		5.859375
5861		0.000000
5862		5.859375
5863		0.000000
5864		5.859375
5865		1.953125
5866		5.859375
5867		3.906250
5868		5.859375
5869		3.906250
5870		5.859375
5871		3.906250
5872		9.765625
5873		3.906250
5874		9.765625
5875		3.906250
5876		9.765625
5877		5.859375
5878		11.718750
5879		5.859375
5880		11.718750
5881		5.859375
5882		11.718750
5883		5.859375
5884		11.718750
5885		7.812500
5886		11.718750
5887		9.765625
5888		11.718750
5889		9.765625
5890		11.718750
5891		9.765625
5892		11.718750
5893		9.765625
5894		13.671875
5895		11.718750
5896		13.671875
5897		11.718750
5898		13.671875
5899		11.718750
5900		15.625000
5901		11.718750
5902		15.625000
5903		13.671875
5904		15.625000
5905		11.718750
5906		17.578125
5907		13.671875
5908		17.578125
5909		13.671875
5910		17.578125
5911		15.625000
5912		17.578125
5913		15.625000
5914		17.578125
5915		15.625000
5916		19.531250
5917		15.625000
5918		19.531250
5919		15.625000
5920		19.531250
5921		17.578125
5922		19.531250
5923		17.578125
5924		19.531250
5925		17.578125
5926		19.531250
5927		17.578125
5928		19.531250
5929		17.578125
5930		21.484375
5931		17.578125
5932		21.484375
5933		17.578125
5934		21.484375
5935		19.531250
5936		21.484375
5937		19.531250
5938		21.484375
5939		19.531250
5940		21.484375
5941		19.531250
5942		21.484375
5943		19.531250
5944		21.484375
5945		19.531250
5946		21.484375
5947		19.531250
5948		23.437500
5949		19.531250
5950		23.437500
5951		19.531250
5952		23.437500
5953		21.484375
5954		23.437500
5955		21.484375
5956		23.437500
5957		21.484375
5958		23.437500
5959		21.484375
5960		23.437500
5961		21.484375
5962		23.437500
5963		21.484375
5964		23.437500
5965		21.484375
5966		23.437500
5967		21.484375
5968		23.437500
5969		21.484375
5970		23.437500
5971		21.484375
5972		23.437500
5973		21.484375
5974		23.437500
5975		21.484375
5976		23.437500
5977		21.484375
5978		23.437500
5979		21.484375
5980		23.437500
5981		21.484375
5982		23.437500
5983		19.531250
5984		23.437500
5985		21.484375
5986		23.437500
5987		19.531250
5988		23.437500
5989		15.625000
5990		25.390625
5991		15.625000
5992		25.390625
5993		15.625000
5994		25.390625
5995		19.531250
5996		21.484375
5997		19.531250
5998		21.484375
5999		19.531250
6000		21.484375
6001		19.531250
6002		21.484375
6003		17.578125
6004		21.484375
6005		15.625000
6006		23.437500
6007		15.625000
6008		23.437500
6009		13.671875
6010		23.437500
6011		17.578125
6012		19.531250
6013		17.578125
6014		19.531250
6015		17.578125
6016		19.531250
6017		15.625000
6018		19.531250
6019		15.625000
6020		17.578125
6021		13.671875
6022		17.578125
6023		11.718750
6024		21.484375
6025		11.718750
6026		19.531250
6027		11.718750
6028		21.484375
6029		13.671875
6030		15.625000
6031		13.671875
6032		15.625000
6033		13.671875
6034		15.625000
6035		11.718750
6036		15.625000
6037		11.718750
6038		13.671875
6039		7.812500
6040		17.578125
6041		7.812500
6042		17.578125
6043		5.859375
6044		15.625000
6045		9.765625
6046		11.718750
6047		9.765625
6048		11.718750
6049		9.765625
6050		11.718750
6051		7.812500
6052		11.718750
6053		7.812500
6054		9.765625
6055		3.906250
6056		13.671875
6057		3.906250
6058		13.671875
6059		1.953125
6060		11.718750
6061		1.953125
6062		11.718750
6063		5.859375
6064		7.812500
6065		3.906250
6066		7.812500
6067		3.906250
6068		5.859375
6069		3.906250
6070		5.859375
6071		1.953125
6072		5.859375
6073		-1.953125
6074		7.812500
6075		-1.953125
6076		7.812500
6077		-1.953125
6078		7.812500
6079		0.000000
6080		3.906250
6081		0.000000
6082		1.953125
6083		-1.953125
6084		1.953125
6085		-1.953125
6086		0.000000
6087		-1.953125
6088		0.000000
6089		-5.859375
6090		3.906250
6091		-7.812500
6092		1.953125
6093		-7.812500
6094		1.953125
6095		-5.859375
6096		0.000000
6097		-5.859375
6098		-3.906250
6099		-5.859375
6100		-3.906250
6101		-5.859375
6102		-3.906250
6103		-7.812500
6104		-3.906250
6105		-7.812500
6106		-5.859375
6107		-11.718750
6108		-1.953125
6109		-11.718750
6110		-1.953125
6111		-13.671875
6112		-3.906250
6113		-9.765625
6114		-7.812500
6115		-11.718750
6116		-7.812500
6117		-11.718750
6118		-9.765625
6119		-11.718750
6120		-9.765625
6121		-13.671875
6122		-9.765625
6123		-15.625000
6124		-7.812500
6125		-17.578125
6126		-7.812500
6127		-17.578125
6128		-7.812500
6129		-15.625000
6130		-11.718750
6131		-15.625000
6132		-13.671875
6133		-15.625000
6134		-13.671875
6135		-15.625000
6136		-13.671875
6137		-17.578125
6138		-15.625000
6139		-21.484375
6140		-11.718750
6141		-21.484375
6142		-11.718750
6143		-21.484375
6144		-11.718750
6145		-21.484375
6146		-13.671875
6147		-19.531250
6148		-17.578125
6149		-19.531250
6150		-17.578125
6151		-19.531250
6152		-17.578125
6153		-21.484375
6154		-17.578125
6155		-21.484375
6156		-17.578125
6157		-25.390625
6158		-15.625000
6159		-25.390625
6160		-15.625000
6161		-25.390625
6162		-15.625000
6163		-23.437500
6164		-19.531250
6165		-23.437500
6166		-19.531250
6167		-23.437500
6168		-21.484375
6169		-23.437500
6170		-21.484375
6171		-23.437500
6172		-21.484375
6173		-25.390625
6174		-21.484375
6175		-27.343750
6176		-19.531250
6177		-27.343750
6178		-19.531250
6179		-25.390625
6180		-23.437500
6181		-25.390625
6182		-23.437500
6183		-25.390625
6184		-23.437500
6185		-25.390625
6186		-23.437500
6187		-27.343750
6188		-21.484375
6189		-25.390625
6190		-23.437500
6191		-27.343750
6192		-21.484375
6193		-27.343750
6194		-21.484375
6195		-27.343750
6196		-21.484375
6197		-27.343750
6198		-23.437500
6199		-25.390625
6200		-23.437500
6201		-25.390625
6202		-23.437500
6203		-27.343750
6204		-23.437500
6205		-25.390625
6206		-23.437500
6207		-27.343750
6208		-21.484375
6209		-29.296875
6210		-21.484375
6211		-29.296875
6212		-21.484375
6213		-27.343750
6214		-23.437500
6215		-25.390625
6216		-23.437500
6217		-27.343750
6218		-23.437500
6219		-27.343750
6220		-23.437500
6221		-25.390625
6222		-23.437500
6223		-25.390625
6224		-23.437500
6225		-25.390625
6226		-23.437500
6227		-25.390625
6228		-23.437500
6229		-25.390625
6230		-23.437500
6231		-25.390625
6232		-21.484375
6233		-25.390625
6234		-21.484375
6235		-25.390625
6236		-21.484375
6237		-23.437500
6238		-21.484375
6239		-23.437500
6240		-21.484375
6241		-25.390625
6242		-21.484375
6243		-23.437500
6244		-21.484375
6245		-23.437500
6246		-21.484375
6247		-23.437500
6248		-19.531250
6249		-21.484375
6250		-19.531250
6251		-21.484375
6252		-19.531250
6253		-21.484375
6254		-19.531250
6255		-21.484375
6256		-19.531250
6257		-21.484375
6258		-17.578125
6259		-21.484375
6260		-17.578125
6261		-19.531250
6262		-17.578125
6263		-19.531250
6264		-17.578125
6265		-19.531250
6266		-15.625000
6267		-19.531250
6268		-15.625000
6269		-17.578125
6270		-15.625000
6271		-17.578125
6272		-15.625000
6273		-17.578125
6274		-13.671875
6275		-17.578125
6276		-13.671875
6277		-17.578125
6278		-13.671875
6279		-15.625000
6280		-13.671875
6281		-15.625000
6282		-11.718750
6283		-15.625000
6284		-11.718750
6285		-13.671875
6286		-11.718750
6287		-13.671875
6288		-11.718750
6289		-13.671875
6290		-9.765625
6291		-13.671875
6292		-9.765625
6293		-11.718750
6294		-9.765625
6295		-11.718750
6296		-7.812500
6297		-11.718750
6298		-7.812500
6299		-11.718750
6300		-5.859375
6301		-9.765625
6302		-7.812500
6303		-7.812500
6304		-5.859375
6305		-7.812500
6306		-5.859375
6307		-7.812500
6308		-3.906250
6309		-7.812500
6310		-3.906250
6311		-5.859375
6312		-3.906250
6313		-5.859375
6314		-3.906250
6315		-5.859375
6316		-1.953125
6317		-5.859375
6318		-1.953125
6319		-3.906250
6320		-1.953125
6321		-3.906250
6322		0.000000
6323		-1.953125
6324		0.000000
6325		-3.906250
6326		1.953125
6327		-1.953125
6328		1.953125
6329		-1.953125
6330		1.953125
6331		0.000000
6332		3.906250
6333		0.000000
6334		3.906250
6335		1.953125
6336		3.906250
6337		1.953125
6338		3.906250
6339		1.953125
6340		5.859375
6341		1.953125
6342		7.812500
6343		1.953125
6344		5.859375
6345		3.906250
6346		5.859375
6347		3.906250
6348		7.812500
6349		3.906250
6350		9.765625
6351		5.859375
6352		9.765625
6353		5.859375
6354		9.765625
6355		7.812500
6356		9.765625
6357		7.812500
6358		9.765625
6359		5.859375
6360		11.718750
6361		7.812500
6362		11.718750
6363		9.765625
6364		11.718750
6365		7.812500
6366		13.671875
6367		9.765625
6368		13.671875
6369		11.718750
6370		13.671875
6371		11.718750
6372		13.671875
6373		11.718750
6374		15.625000
6375		9.765625
6376		15.625000
6377		11.718750
6378		15.625000
6379		13.671875
6380		15.625000
6381		13.671875
6382		17.578125
6383		13.671875
6384		17.578125
6385		13.671875
6386		17.578125
6387		15.625000
6388		17.578125
6389		15.625000
6390		17.578125
6391		15.625000
6392		21.484375
6393		15.625000
6394		19.531250
6395		15.625000
6396		19.531250
6397		17.578125
6398		19.531250
6399		15.625000
6400		19.531250
6401		15.625000
6402		19.531250
6403		17.578125
6404		19.531250
6405		17.578125
6406		21.484375
6407		17.578125
6408		21.484375
6409		17.578125
6410		23.437500
6411		17.578125
6412		21.484375
6413		19.531250
6414		21.484375
6415		17.578125
6416		23.437500
6417		17.578125
6418		23.437500
6419		19.531250
6420		21.484375
6421		19.531250
6422		21.484375
6423		19.531250
6424		23.437500
6425		19.531250
6426		25.390625
6427		19.531250
6428		23.437500
6429		19.531250
6430		23.437500
6431		19.531250
6432		23.437500
6433		19.531250
6434		23.437500
6435		21.484375
6436		23.437500
6437		21.484375
6438		23.437500
6439		21.484375
6440		23.437500
6441		21.484375
6442		23.437500
6443		19.531250
6444		23.437500
6445		19.531250
6446		23.437500
6447		21.484375
6448		23.437500
6449		19.531250
6450		23.437500
6451		19.531250
6452		25.390625
6453		21.484375
6454		23.437500
6455		21.484375
6456		23.437500
6457		21.484375
6458		23.437500
6459		19.531250
6460		23.437500
6461		19.531250
6462		23.437500
6463		19.531250
6464		23.437500
6465		19.531250
6466		21.484375
6467		19.531250
6468		23.437500
6469		19.531250
6470		21.484375
6471		19.531250
6472		21.484375
6473		17.578125
6474		21.484375
6475		17.578125
6476		21.484375
6477		19.531250
6478		21.484375
6479		17.578125
6480		21.484375
6481		17.578125
6482		21.484375
6483		17.578125
6484		19.531250
6485		17.578125
6486		19.531250
6487		17.578125
6488		19.531250
6489		15.625000
6490		19.531250
6491		15.625000
6492		19.531250
6493		15.625000
6494		19.531250
6495		15.625000
6496		19.531250
6497		15.625000
6498		17.578125
6499		15.625000
6500		17.578125
6501		13.671875
6502		17.578125
6503		13.671875
6504		15.625000
6505		13.671875
6506		15.625000
6507		11.718750
6508		15.625000
6509		13.671875
6510		15.625000
6511		11.718750
6512		15.625000
6513		11.718750
6514		13.671875
6515		11.718750
6516		13.671875
6517		9.765625
6518		13.671875
6519		9.765625
6520		11.718750
6521		9.765625
6522		11.718750
6523		9.765625
6524		11.718750
6525		7.812500
6526		11.718750
6527		7.812500
6528		9.765625
6529		7.812500
6530		9.765625
6531		7.812500
6532		9.765625
6533		5.859375
6534		7.812500
6535		5.859375
6536		7.812500
6537		3.906250
6538		7.812500
6539		3.906250
6540		7.812500
6541		3.906250
6542		5.859375
6543		3.906250
6544		5.859375
6545		1.953125
6546		5.859375
6547		1.953125
6548		3.906250
6549		1.953125
6550		3.906250
6551		0.000000
6552		3.906250
6553		0.000000
6554		1.953125
6555		0.000000
6556		1.953125
6557		-1.953125
6558		1.953125
6559		-1.953125
6560		0.000000
6561		-3.906250
6562		0.000000
6563		-3.906250
6564		0.000000
6565		-3.906250
6566		-1.953125
6567		-3.906250
6568		-1.953125
6569		-5.859375
6570		-1.953125
6571		-5.859375
6572		-3.906250
6573		-7.812500
6574		-1.953125
6575		-7.812500
6576		-3.906250
6577		-9.765625
6578		-3.906250
6579		-7.812500
6580		-5.859375
6581		-7.812500
6582		-5.859375
6583		-9.765625
6584		-5.859375
6585		-9.765625
6586		-7.812500
6587		-9.765625
6588		-7.812500
6589		-11.718750
6590		-9.765625
6591		-11.718750
6592		-9.765625
6593		-13.671875
6594		-9.765625
6595		-13.671875
6596		-9.765625
6597		-13.671875
6598		-11.718750
6599		-13.671875
6600		-11.718750
6601		-13.671875
6602		-11.718750
6603		-15.625000
6604		-13.671875
6605		-15.625000
6606		-13.671875
6607		-15.625000
6608		-13.671875
6609		-15.625000
6610		-13.671875
6611		-19.531250
6612		-13.671875
6613		-19.531250
6614		-13.671875
6615		-17.578125
6616		-15.625000
6617		-19.531250
6618		-15.625000
6619		-19.531250
6620		-17.578125
6621		-19.531250
6622		-17.578125
6623		-19.531250
6624		-17.578125
6625		-19.531250
6626		-17.578125
6627		-23.437500
6628		-15.625000
6629		-23.437500
6630		-17.578125
6631		-21.484375
6632		-19.531250
6633		-21.484375
6634		-19.531250
6635		-23.437500
6636		-19.531250
6637		-23.437500
6638		-21.484375
6639		-23.437500
6640		-19.531250
6641		-23.437500
6642		-21.484375
6643		-27.343750
6644		-19.531250
6645		-25.390625
6646		-19.531250
6647		-25.390625
6648		-21.484375
6649		-25.390625
6650		-23.437500
6651		-25.390625
6652		-21.484375
6653		-25.390625
6654		-23.437500
6655		-25.390625
6656		-23.437500
6657		-25.390625
6658		-23.437500
6659		-25.390625
6660		-23.437500
6661		-29.296875
6662		-21.484375
6663		-27.343750
6664		-21.484375
6665		-25.390625
6666		-23.437500
6667		-25.390625
6668		-23.437500
6669		-25.390625
6670		-23.437500
6671		-27.343750
6672		-23.437500
6673		-27.343750
6674		-23.437500
6675		-27.343750
6676		-23.437500
6677		-29.296875
6678		-21.484375
6679		-27.343750
6680		-21.484375
6681		-27.343750
6682		-23.437500
6683		-25.390625
6684		-23.437500
6685		-27.343750
6686		-23.437500
6687		-25.390625
6688		-23.437500
6689		-25.390625
6690		-23.437500
6691		-25.390625
6692		-23.437500
6693		-25.390625
6694		-23.437500
6695		-29.296875
6696		-21.484375
6697		-27.343750
6698		-21.484375
6699		-25.390625
6700		-23.437500
6701		-25.390625
6702		-23.437500
6703		-25.390625
6704		-23.437500
6705		-25.390625
6706		-23.437500
6707		-25.390625
6708		-21.484375
6709		-23.437500
6710		-21.484375
6711		-25.390625
6712		-19.531250
6713		-25.390625
6714		-19.531250
6715		-23.437500
6716		-21.484375
6717		-23.437500
6718		-21.484375
6719		-23.437500
6720		-19.531250
6721		-23.437500
6722		-19.531250
6723		-21.484375
6724		-19.531250
6725		-21.484375
6726		-19.531250
6727		-23.437500
6728		-17.578125
6729		-23.437500
6730		-15.625000
6731		-21.484375
6732		-17.578125
6733		-19.531250
6734		-17.578125
6735		-19.531250
6736		-17.578125
6737		-19.531250
6738		-17.578125
6739		-19.531250
6740		-17.578125
6741		-19.531250
6742		-15.625000
6743		-17.578125
6744		-15.625000
6745		-19.531250
6746		-13.671875
6747		-19.531250
6748		-13.671875
6749		-15.625000
6750		-13.671875
6751		-15.625000
6752		-13.671875
6753		-15.625000
6754		-13.671875
6755		-15.625000
6756		-11.718750
6757		-13.671875
6758		-11.718750
6759		-13.671875
6760		-11.718750
6761		-15.625000
6762		-7.812500
6763		-13.671875
6764		-7.812500
6765		-11.718750
6766		-9.765625
6767		-11.718750
6768		-9.765625
6769		-11.718750
6770		-7.812500
6771		-9.765625
6772		-7.812500
6773		-9.765625
6774		-7.812500
6775		-9.765625
6776		-5.859375
6777		-7.812500
6778		-5.859375
6779		-9.765625
6780		-3.906250
6781		-9.765625
6782		-1.953125
6783		-5.859375
6784		-3.906250
6785		-5.859375
6786		-3.906250
6787		-7.812500
6788		-1.953125
6789		-5.859375
6790		-1.953125
6791		-3.906250
6792		-1.953125
6793		-3.906250
6794		-1.953125
6795		-3.906250
6796		0.000000
6797		-3.906250
6798		0.000000
6799		-1.953125
6800		0.000000
6801		-1.953125
6802		1.953125
6803		0.000000
6804		1.953125
6805		0.000000
6806		1.953125
6807		0.000000
6808		3.906250
6809		0.000000
6810		3.906250
6811		0.000000
6812		5.859375
6813		1.953125
6814		5.859375
6815		3.906250
6816		5.859375
6817		3.906250
6818		5.859375
6819		3.906250
6820		5.859375
6821		3.906250
6822		7.812500
6823		5.859375
6824		7.812500
6825		5.859375
6826		7.812500
6827		5.859375
6828		9.765625
6829		5.859375
6830		11.718750
6831		7.812500
6832		9.765625
6833		7.812500
6834		9.765625
6835		7.812500
6836		11.718750
6837		9.765625
6838		11.718750
6839		9.765625
6840		11.718750
6841		9.765625
6842		13.671875
6843		11.718750
6844		13.671875
6845		11.718750
6846		13.671875
6847		11.718750
6848		13.671875
6849		11.718750
6850		15.625000
6851		13.671875
6852		15.625000
6853		13.671875
6854		15.625000
6855		13.671875
6856		15.625000
6857		13.671875
6858		15.625000
6859		13.671875
6860		17.578125
6861		15.625000
6862		17.578125
6863		15.625000
6864		17.578125
6865		15.625000
6866		17.578125
6867		15.625000
6868		19.531250
6869		17.578125
6870		19.531250
6871		17.578125
6872		19.531250
6873		17.578125
6874		19.531250
6875		17.578125
6876		19.531250
6877		17.578125
6878		21.484375
6879		17.578125
6880		19.531250
6881		19.531250
6882		21.484375
6883		19.531250
6884		21.484375
6885		19.531250
6886		21.484375
6887		19.531250
6888		21.484375
6889		19.531250
6890		21.484375
6891		19.531250
6892		21.484375
6893		19.531250
6894		21.484375
6895		19.531250
6896		21.484375
6897		19.531250
6898		23.437500
6899		19.531250
6900		23.437500
6901		19.531250
6902		23.437500
6903		19.531250
6904		23.437500
6905		21.484375
6906		23.437500
6907		21.484375
6908		23.437500
6909		21.484375
6910		23.437500
6911		21.484375
6912		23.437500
6913		19.531250
6914		23.437500
6915		21.484375
6916		23.437500
6917		21.484375
6918		23.437500
6919		21.484375
6920		23.437500
6921		21.484375
6922		23.437500
6923		19.531250
6924		23.437500
6925		21.484375
6926		23.437500
6927		21.484375
6928		23.437500
6929		21.484375
6930		23.437500
6931		21.484375
6932		23.437500
6933		19.531250
6934		23.437500
6935		19.531250
6936		23.437500
6937		19.531250
6938		21.484375
6939		19.531250
6940		21.484375
6941		19.531250
6942		21.484375
6943		19.531250
6944		21.484375
6945		19.531250
6946		21.484375
6947		17.578125
6948		21.484375
6949		19.531250
6950		21.484375
6951		19.531250
6952		21.484375
6953		17.578125
6954		21.484375
6955		17.578125
6956		19.531250
6957		17.578125
6958		19.531250
6959		15.625000
6960		21.484375
6961		17.578125
6962		19.531250
6963		17.578125
6964		19.531250
6965		15.625000
6966		17.578125
6967		15.625000
6968		17.578125
6969		15.625000
6970		17.578125
6971		13.671875
6972		17.578125
6973		15.625000
6974		17.578125
6975		13.671875
6976		17.578125
6977		13.671875
6978		15.625000
6979		13.671875
6980		15.625000
6981		11.718750
6982		15.625000
6983		11.718750
6984		15.625000
6985		11.718750
6986		13.671875
6987		11.718750
6988		13.671875
6989		11.718750
6990		13.671875
6991		9.765625
6992		11.718750
6993		7.812500
6994		13.671875
6995		9.765625
6996		11.718750
6997		9.765625
6998		11.718750
6999		7.812500
7000		9.765625
7001		7.812500
7002		9.765625
7003		7.812500
7004		9.765625
7005		5.859375
7006		9.765625
7007		5.859375
7008		7.812500
7009		5.859375
7010		7.812500
7011		5.859375
7012		7.812500
7013		3.906250
7014		5.859375
7015		3.906250
7016		5.859375
7017		1.953125
7018		5.859375
7019		1.953125
7020		3.906250
7021		1.953125
7022		3.906250
7023		0.000000
7024		3.906250
7025		0.000000
7026		3.906250
7027		0.000000
7028		1.953125
7029		0.000000
7030		1.953125
7031		-1.953125
7032		1.953125
7033		-1.953125
7034		0.000000
7035		-1.953125
7036		0.000000
7037		-3.906250
7038		0.000000
7039		-3.906250
7040		-1.953125
7041		-5.859375
7042		0.000000
7043		-5.859375
7044		-1.953125
7045		-5.859375
7046		-3.906250
7047		-5.859375
7048		-3.906250
7049		-7.812500
7050		-3.906250
7051		-7.812500
7052		-5.859375
7053		-7.812500
7054		-5.859375
7055		-9.765625
7056		-5.859375
7057		-9.765625
7058		-7.812500
7059		-9.765625
7060		-7.812500
7061		-9.765625
7062		-7.812500
7063		-11.718750
7064		-7.812500
7065		-11.718750
7066		-9.765625
7067		-11.718750
7068		-9.765625
7069		-13.671875
7070		-9.765625
7071		-13.671875
7072		-11.718750
7073		-13.671875
7074		-11.718750
7075		-15.625000
7076		-11.718750
7077		-15.625000
7078		-13.671875
7079		-15.625000
7080		-13.671875
7081		-15.625000
7082		-13.671875
7083		-17.578125
7084		-13.671875
7085		-17.578125
7086		-15.625000
7087		-19.531250
7088		-15.625000
7089		-17.578125
7090		-15.625000
7091		-19.531250
7092		-15.625000
7093		-19.531250
7094		-17.578125
7095		-19.531250
7096		-17.578125
7097		-19.531250
7098		-17.578125
7099		-21.484375
7100		-17.578125
7101		-21.484375
7102		-19.531250
7103		-21.484375
7104		-19.531250
7105		-21.484375
7106		-19.531250
7107		-21.484375
7108		-19.531250
7109		-23.437500
7110		-19.531250
7111		-23.437500
7112		-21.484375
7113		-23.437500
7114		-21.484375
7115		-23.437500
7116		-21.484375
7117		-23.437500
7118		-21.484375
7119		-23.437500
7120		-21.484375
7121		-25.390625
7122		-21.484375
7123		-25.390625
7124		-21.484375
7125		-25.390625
7126		-23.437500
7127		-25.390625
7128		-23.437500
7129		-25.390625
7130		-23.437500
7131		-25.390625
7132		-23.437500
7133		-25.390625
7134		-23.437500
7135		-27.343750
7136		-23.437500
7137		-25.390625
7138		-23.437500
7139		-25.390625
7140		-23.437500
7141		-25.390625
7142		-23.437500
7143		-25.390625
7144		-23.437500
7145		-27.343750
7146		-23.437500
7147		-27.343750
7148		-23.437500
7149		-27.343750
7150		-23.437500
7151		-27.343750
7152		-23.437500
7153		-27.343750
7154		-25.390625
7155		-27.343750
7156		-23.437500
7157		-25.390625
7158		-23.437500
7159		-27.343750
7160		-23.437500
7161		-25.390625
7162		-23.437500
7163		-27.343750
7164		-23.437500
7165		-25.390625
7166		-23.437500
7167		-25.390625
7168		-23.437500
7169		-25.390625
7170		-23.437500
7171		-25.390625
7172		-23.437500
7173		-25.390625
7174		-23.437500
7175		-25.390625
7176		-23.437500
7177		-25.390625
7178		-23.437500
7179		-25.390625
7180		-23.437500
7181		-25.390625
7182		-21.484375
7183		-25.390625
7184		-21.484375
7185		-23.437500
7186		-21.484375
7187		-23.437500
7188		-21.484375
7189		-23.437500
7190		-21.484375
7191		-23.437500
7192		-21.484375
7193		-23.437500
7194		-21.484375
7195		-23.437500
7196		-19.531250
7197		-21.484375
7198		-19.531250
7199		-21.484375
7200		-19.531250
7201		-21.484375
7202		-19.531250
7203		-21.484375
7204		-19.531250
7205		-21.484375
7206		-17.578125
7207		-21.484375
7208		-17.578125
7209		-19.531250
7210		-17.578125
7211		-19.531250
7212		-17.578125
7213		-19.531250
7214		-15.625000
7215		-17.578125
7216		-15.625000
7217		-17.578125
7218		-15.625000
7219		-17.578125
7220		-15.625000
7221		-17.578125
7222		-15.625000
7223		-17.578125
7224		-13.671875
7225		-15.625000
7226		-13.671875
7227		-15.625000
7228		-13.671875
7229		-15.625000
7230		-11.718750
7231		-15.625000
7232		-11.718750
7233		-13.671875
7234		-11.718750
7235		-13.671875
7236		-9.765625
7237		-13.671875
7238		-9.765625
7239		-11.718750
7240		-9.765625
7241		-11.718750
7242		-9.765625
7243		-11.718750
7244		-7.812500
7245		-9.765625
7246		-7.812500
7247		-9.765625
7248		-7.812500
7249		-9.765625
7250		-7.812500
7251		-7.812500
7252		-5.859375
7253		-7.812500
7254		-5.859375
7255		-7.812500
7256		-3.906250
7257		-5.859375
7258		-3.906250
7259		-5.859375
7260		-3.906250
7261		-5.859375
7262		-3.906250
7263		-5.859375
7264		-1.953125
7265		-3.906250
7266		-1.953125
7267		-3.906250
7268		-1.953125
7269		-3.906250
7270		0.000000
7271		-1.953125
7272		0.000000
7273		-1.953125
7274		0.000000
7275		-1.953125
7276		1.953125
7277		0.000000
7278		1.953125
7279		0.000000
7280		1.953125
7281		0.000000
7282		3.906250
7283		1.953125
7284		3.906250
7285		1.953125
7286		3.906250
7287		1.953125
7288		5.859375
7289		3.906250
7290		5.859375
7291		3.906250
7292		5.859375
7293		3.906250
7294		7.812500
7295		5.859375
7296		7.812500
7297		5.859375
7298		7.812500
7299		5.859375
7300		7.812500
7301		5.859375
7302		9.765625
7303		7.812500
7304		9.765625
7305		7.812500
7306		9.765625
7307		7.812500
7308		11.718750
7309		9.765625
7310		11.718750
7311		9.765625
7312		11.718750
7313		9.765625
7314		11.718750
7315		9.765625
7316		13.671875
7317		11.718750
7318		13.671875
7319		11.718750
7320		13.671875
7321		11.718750
7322		13.671875
7323		11.718750
7324		15.625000
7325		13.671875
7326		15.625000
7327		11.718750
7328		15.625000
7329		13.671875
7330		15.625000
7331		13.671875
7332		17.578125
7333		13.671875
7334		17.578125
7335		15.625000
7336		17.578125
7337		15.625000
7338		17.578125
7339		15.625000
7340		17.578125
7341		15.625000
7342		19.531250
7343		15.625000
7344		19.531250
7345		17.578125
7346		19.531250
7347		17.578125
7348		19.531250
7349		17.578125
7350		19.531250
7351		17.578125
7352		21.484375
7353		17.578125
7354		19.531250
7355		19.531250
7356		21.484375
7357		19.531250
7358		21.484375
7359		19.531250
7360		21.484375
7361		19.531250
7362		21.484375
7363		19.531250
7364		21.484375
7365		19.531250
7366		23.437500
7367		19.531250
7368		21.484375
7369		19.531250
7370		21.484375
7371		19.531250
7372		23.437500
7373		19.531250
7374		23.437500
7375		19.531250
7376		23.437500
7377		21.484375
7378		23.437500
7379		21.484375
7380		23.437500
7381		21.484375
7382		23.437500
7383		21.484375
7384		23.437500
7385		21.484375
7386		23.437500
7387		21.484375
7388		23.437500
7389		21.484375
7390		23.437500
7391		21.484375
7392		23.437500
7393		21.484375
7394		23.437500
7395		21.484375
7396		23.437500
7397		19.531250
7398		23.437500
7399		19.531250
7400		23.437500
7401		21.484375
7402		23.437500
7403		21.484375
7404		23.437500
7405		19.531250
7406		23.437500
7407		19.531250
7408		23.437500
7409		19.531250
7410		21.484375
7411		19.531250
7412		23.437500
7413		19.531250
7414		21.484375
7415		19.531250
7416		21.484375
7417		19.531250
7418		21.484375
7419		19.531250
7420		21.484375
7421		19.531250
7422		21.484375
7423		17.578125
7424		21.484375
7425		17.578125
7426		21.484375
7427		17.578125
7428		19.531250
7429		17.578125
7430		19.531250
7431		17.578125
7432		19.531250
7433		17.578125
7434		19.531250
7435		15.625000
7436		19.531250
7437		17.578125
7438		19.531250
7439		15.625000
7440		19.531250
7441		15.625000
7442		17.578125
7443		15.625000
7444		17.578125
7445		15.625000
7446		17.578125
7447		13.671875
7448		17.578125
7449		13.671875
7450		15.625000
7451		13.671875
7452		15.625000
7453		13.671875
7454		15.625000
7455		13.671875
7456		15.625000
7457		11.718750
7458		13.671875
7459		11.718750
7460		13.671875
7461		11.718750
7462		13.671875
7463		11.718750
7464		13.671875
7465		9.765625
7466		11.718750
7467		9.765625
7468		11.718750
7469		9.765625
7470		11.718750
7471		7.812500
7472		11.718750
7473		7.812500
7474		9.765625
7475		7.812500
7476		9.765625
7477		7.812500
7478		9.765625
7479		5.859375
7480		9.765625
7481		5.859375
7482		7.812500
7483		3.906250
7484		7.812500
7485		3.906250
7486		7.812500
7487		3.906250
7488		5.859375
7489		3.906250
7490		5.859375
7491		1.953125
7492		5.859375
7493		1.953125
7494		3.906250
7495		1.953125
7496		3.906250
7497		0.000000
7498		3.906250
7499		0.000000
7500		1.953125
7501		0.000000
7502		1.953125
7503		-1.953125
7504		1.953125
7505		-1.953125
7506		0.000000
7507		-1.953125
7508		0.000000
7509		-1.953125
7510		0.000000
7511		-3.906250
7512		-1.953125
7513		-3.906250
7514		-1.953125
7515		-3.906250
7516		-1.953125
7517		-5.859375
7518		-1.953125
7519		-5.859375
7520		-3.906250
7521		-5.859375
7522		-3.906250
7523		-7.812500
7524		-3.906250
7525		-7.812500
7526		-5.859375
7527		-7.812500
7528		-5.859375
7529		-9.765625
7530		-5.859375
7531		-9.765625
7532		-7.812500
7533		-9.765625
7534		-7.812500
7535		-11.718750
7536		-7.812500
7537		-11.718750
7538		-9.765625
7539		-11.718750
7540		-9.765625
7541		-11.718750
7542		-9.765625
7543		-13.671875
7544		-9.765625
7545		-13.671875
7546		-11.718750
7547		-13.671875
7548		-11.718750
7549		-15.625000
7550		-11.718750
7551		-15.625000
7552		-13.671875
7553		-15.625000
7554		-13.671875
7555		-15.625000
7556		-13.671875
7557		-17.578125
7558		-13.671875
7559		-17.578125
7560		-15.625000
7561		-17.578125
7562		-15.625000
7563		-17.578125
7564		-15.625000
7565		-19.531250
7566		-15.625000
7567		-19.531250
7568		-17.578125
7569		-19.531250
7570		-17.578125
7571		-19.531250
7572		-17.578125
7573		-21.484375
7574		-17.578125
7575		-21.484375
7576		-19.531250
7577		-21.484375
7578		-19.531250
7579		-21.484375
7580		-19.531250
7581		-21.484375
7582		-19.531250
7583		-23.437500
7584		-19.531250
7585		-23.437500
7586		-19.531250
7587		-23.437500
7588		-21.484375
7589		-23.437500
7590		-21.484375
7591		-23.437500
7592		-21.484375
7593		-23.437500
7594		-21.484375
7595		-25.390625
7596		-21.484375
7597		-25.390625
7598		-23.437500
7599		-25.390625
7600		-23.437500
7601		-25.390625
7602		-21.484375
7603		-25.390625
7604		-23.437500
7605		-25.390625
7606		-23.437500
7607		-25.390625
7608		-23.437500
7609		-25.390625
7610		-23.437500
7611		-25.390625
7612		-23.437500
7613		-25.390625
7614		-23.437500
7615		-25.390625
7616		-23.437500
7617		-27.343750
7618		-23.437500
7619		-27.343750
7620		-23.437500
7621		-27.343750
7622		-23.437500
7623		-27.343750
7624		-23.437500
7625		-27.343750
7626		-23.437500
7627		-27.343750
7628		-23.437500
7629		-27.343750
7630		-23.437500
7631		-27.343750
7632		-23.437500
7633		-27.343750
7634		-23.437500
7635		-27.343750
7636		-23.437500
7637		-27.343750
7638		-23.437500
7639		-29.296875
7640		-21.484375
7641		-27.343750
7642		-21.484375
7643		-27.343750
7644		-21.484375
7645		-29.296875
7646		-19.531250
7647		-25.390625
7648		-23.437500
7649		-25.390625
7650		-23.437500
7651		-25.390625
7652		-23.437500
7653		-25.390625
7654		-23.437500
7655		-25.390625
7656		-23.437500
7657		-27.343750
7658		-19.531250
7659		-25.390625
7660		-21.484375
7661		-25.390625
7662		-17.578125
7663		-23.437500
7664		-21.484375
7665		-25.390625
7666		-19.531250
7667		-23.437500
7668		-21.484375
7669		-23.437500
7670		-19.531250
7671		-23.437500
7672		-19.531250
7673		-25.390625
7674		-17.578125
7675		-23.437500
7676		-17.578125
7677		-23.437500
7678		-17.578125
7679		-21.484375
7680		-17.578125
7681		-23.437500
7682		-15.625000
7683		-19.531250
7684		-17.578125
7685		-19.531250
7686		-17.578125
7687		-21.484375
7688		-15.625000
7689		-21.484375
7690		-13.671875
7691		-19.531250
7692		-15.625000
7693		-19.531250
7694		-13.671875
7695		-19.531250
7696		-13.671875
7697		-19.531250
7698		-11.718750
7699		-15.625000
7700		-13.671875
7701		-15.625000
7702		-13.671875
7703		-15.625000
7704		-11.718750
7705		-17.578125
7706		-9.765625
7707		-17.578125
7708		-9.765625
7709		-13.671875
7710		-9.765625
7711		-15.625000
7712		-7.812500
7713		-11.718750
7714		-9.765625
7715		-15.625000
7716		-5.859375
7717		-11.718750
7718		-7.812500
7719		-11.718750
7720		-7.812500
7721		-11.718750
7722		-5.859375
7723		-13.671875
7724		-3.906250
7725		-9.765625
7726		-3.906250
7727		-9.765625
7728		-5.859375
7729		-11.718750
7730		-1.953125
7731		-9.765625
7732		-1.953125
7733		-5.859375
7734		-3.906250
7735		-5.859375
7736		-3.906250
7737		-7.812500
7738		0.000000
7739		-7.812500
7740		1.953125
7741		-5.859375
7742		0.000000
7743		-3.906250
7744		0.000000
7745		-5.859375
7746		3.906250
7747		-1.953125
7748		0.000000
7749		-5.859375
7750		3.906250
7751		0.000000
7752		1.953125
7753		-1.953125
7754		3.906250
7755		-1.953125
7756		7.812500
7757		0.000000
7758		5.859375
7759		1.953125
7760		3.906250
7761		0.000000
7762		7.812500
7763		0.000000
7764		9.765625
7765		0.000000
7766		9.765625
7767		3.906250
7768		7.812500
7769		3.906250
7770		7.812500
7771		3.906250
7772		9.765625
7773		3.906250
7774		11.718750
7775		5.859375
7776		9.765625
7777		7.812500
7778		9.765625
7779		3.906250
7780		13.671875
7781		5.859375
7782		13.671875
7783		7.812500
7784		11.718750
7785		9.765625
7786		11.718750
7787		7.812500
7788		13.671875
7789		7.812500
7790		15.625000
7791		9.765625
7792		15.625000
7793		11.718750
7794		13.671875
7795		9.765625
7796		17.578125
7797		9.765625
7798		17.578125
7799		9.765625
7800		19.531250
7801		13.671875
7802		15.625000
7803		11.718750
7804		17.578125
7805		11.718750
7806		19.531250
7807		11.718750
7808		19.531250
7809		15.625000
7810		17.578125
7811		15.625000
7812		17.578125
7813		13.671875
7814		21.484375
7815		13.671875
7816		21.484375
7817		15.625000
7818		19.531250
7819		17.578125
7820		19.531250
7821		15.625000
7822		21.484375
7823		13.671875
7824		23.437500
7825		15.625000
7826		21.484375
7827		17.578125
7828		21.484375
7829		15.625000
7830		25.390625
7831		15.625000
7832		23.437500
7833		15.625000
7834		25.390625
7835		19.531250
7836		21.484375
7837		17.578125
7838		23.437500
7839		17.578125
7840		25.390625
7841		17.578125
7842		25.390625
7843		19.531250
7844		21.484375
7845		17.578125
7846		25.390625
7847		17.578125
7848		25.390625
7849		17.578125
7850		27.343750
7851		21.484375
7852		23.437500
7853		19.531250
7854		23.437500
7855		17.578125
7856		25.390625
7857		17.578125
7858		27.343750
7859		19.531250
7860		23.437500
7861		21.484375
7862		23.437500
7863		17.578125
7864		27.343750
7865		17.578125
7866		25.390625
7867		19.531250
7868		25.390625
7869		21.484375
7870		23.437500
7871		19.531250
7872		23.437500
7873		17.578125
7874		27.343750
7875		19.531250
7876		23.437500
7877		19.531250
7878		23.437500
7879		17.578125
7880		25.390625
7881		15.625000
7882		25.390625
7883		17.578125
7884		23.437500
7885		19.531250
7886		21.484375
7887		19.531250
7888		21.484375
7889		17.578125
7890		23.437500
7891		15.625000
7892		25.390625
7893		19.531250
7894		21.484375
7895		17.578125
7896		23.437500
7897		15.625000
7898		25.390625
7899		15.625000
7900		23.437500
7901		17.578125
7902		19.531250
7903		17.578125
7904		19.531250
7905		15.625000
7906		21.484375
7907		13.671875
7908		23.437500
7909		13.671875
7910		21.484375
7911		15.625000
7912		19.531250
7913		13.671875
7914		21.484375
7915		15.625000
7916		17.578125
7917		11.718750
7918		21.484375
7919		15.625000
7920		17.578125
7921		13.671875
7922		17.578125
7923		9.765625
7924		19.531250
7925		11.718750
7926		17.578125
7927		13.671875
7928		15.625000
7929		9.765625
7930		17.578125
7931		11.718750
7932		13.671875
7933		11.718750
7934		13.671875
7935		11.718750
7936		13.671875
7937		9.765625
7938		13.671875
7939		9.765625
7940		13.671875
7941		9.765625
7942		11.718750
7943		5.859375
7944		13.671875
7945		7.812500
7946		11.718750
7947		5.859375
7948		13.671875
7949		7.812500
7950		9.765625
7951		7.812500
7952		9.765625
7953		5.859375
7954		7.812500
7955		3.906250
7956		9.765625
7957		5.859375
7958		7.812500
7959		3.906250
7960		7.812500
7961		3.906250
7962		5.859375
7963		3.906250
7964		5.859375
7965		1.953125
7966		5.859375
7967		0.000000
7968		5.859375
7969		1.953125
7970		3.906250
7971		0.000000
7972		3.906250
7973		0.000000
7974		3.906250
7975		0.000000
7976		1.953125
7977		-1.953125
7978		1.953125
7979		-1.953125
7980		1.953125
7981		-1.953125
7982		0.000000
7983		-3.906250
7984		0.000000
7985		-3.906250
7986		0.000000
7987		-3.906250
7988		-1.953125
7989		-5.859375
7990		0.000000
7991		-5.859375
7992		0.000000
7993		-7.812500
7994		-1.953125
7995		-9.765625
7996		-1.953125
7997		-7.812500
7998		-3.906250
7999		-9.765625
8000		-3.906250
8001		-9.765625
8002		-3.906250
8003		-9.765625
8004		-5.859375
8005		-11.718750
8006		-5.859375
8007		-11.718750
8008		-5.859375
8009		-11.718750
8010		-5.859375
8011		-15.625000
8012		-7.812500
8013		-13.671875
8014		-7.812500
8015		-13.671875
8016		-7.812500
8017		-15.625000
8018		-9.765625
8019		-13.671875
8020		-11.718750
8021		-13.671875
8022		-11.718750
8023		-15.625000
8024		-11.718750
8025		-17.578125
8026		-11.718750
8027		-17.578125
8028		-11.718750
8029		-17.578125
8030		-11.718750
8031		-17.578125
8032		-11.718750
8033		-19.531250
8034		-13.671875
8035		-19.531250
8036		-13.671875
8037		-17.578125
8038		-15.625000
8039		-21.484375
8040		-15.625000
8041		-21.484375
8042		-15.625000
8043		-21.484375
8044		-15.625000
8045		-23.437500
8046		-15.625000
8047		-23.437500
8048		-17.578125
8049		-23.437500
8050		-17.578125
8051		-23.437500
8052		-17.578125
8053		-21.484375
8054		-19.531250
8055		-23.437500
8056		-19.531250
8057		-25.390625
8058		-19.531250
8059		-25.390625
8060		-19.531250
8061		-25.390625
8062		-19.531250
8063		-25.390625
8064		-19.531250
8065		-25.390625
8066		-19.531250
8067		-25.390625
8068		-19.531250
8069		-25.390625
8070		-21.484375
8071		-25.390625
8072		-21.484375
8073		-25.390625
8074		-21.484375
8075		-25.390625
8076		-21.484375
8077		-27.343750
8078		-21.484375
8079		-29.296875
8080		-21.484375
8081		-27.343750
8082		-21.484375
8083		-27.343750
8084		-21.484375
8085		-27.343750
8086		-23.437500
8087		-25.390625
8088		-23.437500
8089		-27.343750
8090		-23.437500
8091		-27.343750
8092		-23.437500
8093		-27.343750
8094		-23.437500
8095		-29.296875
8096		-21.484375
8097		-27.343750
8098		-23.437500
8099		-27.343750
8100		-23.437500
8101		-27.343750
8102		-23.437500
8103		-27.343750
8104		-23.437500
8105		-27.343750
8106		-23.437500
8107		-27.343750
8108		-21.484375
8109		-27.343750
8110		-23.437500
8111		-27.343750
8112		-23.437500
8113		-29.296875
8114		-21.484375
8115		-27.343750
8116		-23.437500
8117		-27.343750
8118		-23.437500
8119		-27.343750
8120		-23.437500
8121		-25.390625
8122		-23.437500
8123		-25.390625
8124		-21.484375
8125		-25.390625
8126		-23.437500
8127		-25.390625
8128		-21.484375
8129		-27.343750
8130		-21.484375
8131		-25.390625
8132		-21.484375
8133		-25.390625
8134		-21.484375
8135		-25.390625
8136		-19.531250
8137		-23.437500
8138		-21.484375
8139		-23.437500
8140		-21.484375
8141		-25.390625
8142		-19.531250
8143		-23.437500
8144		-19.531250
8145		-23.437500
8146		-19.531250
8147		-25.390625
8148		-17.578125
8149		-21.484375
8150		-19.531250
8151		-21.484375
8152		-17.578125
8153		-21.484375
8154		-17.578125
8155		-19.531250
8156		-17.578125
8157		-21.484375
8158		-15.625000
8159		-19.531250
8160		-15.625000
8161		-19.531250
8162		-15.625000
8163		-21.484375
8164		-13.671875
8165		-19.531250
8166		-15.625000
8167		-17.578125
8168		-13.671875
8169		-17.578125
8170		-13.671875
8171		-15.625000
8172		-13.671875
8173		-17.578125
8174		-11.718750
8175		-15.625000
8176		-11.718750
8177		-15.625000
8178		-11.718750
8179		-15.625000
8180		-9.765625
8181		-15.625000
8182		-11.718750
8183		-13.671875
8184		-9.765625
8185		-13.671875
8186		-9.765625
8187		-11.718750
8188		-9.765625
8189		-11.718750
8190		-9.765625
8191		-11.718750
8192		-7.812500
8193		-11.718750
8194		-7.812500
8195		-9.765625
8196		-7.812500
8197		-11.718750
8198		-3.906250
8199		-9.765625
8200		-5.859375
8201		-7.812500
8202		-5.859375
8203		-9.765625
8204		-3.906250
8205		-5.859375
8206		-3.906250
8207		-5.859375
8208		-1.953125
8209		-5.859375
8210		-1.953125
8211		-5.859375
8212		-1.953125
8213		-5.859375
8214		0.000000
8215		-3.906250
8216		0.000000
8217		-3.906250
8218		0.000000
8219		-3.906250
8220		1.953125
8221		-1.953125
8222		0.000000
8223		-1.953125
8224		1.953125
8225		-1.953125
8226		1.953125
8227		0.000000
8228		3.906250
8229		0.000000
8230		3.906250
8231		1.953125
8232		3.906250
8233		1.953125
8234		3.906250
8235		1.953125
8236		5.859375
8237		1.953125
8238		5.859375
8239		3.906250
8240		5.859375
8241		3.906250
8242		7.812500
8243		3.906250
8244		7.812500
8245		5.859375
8246		7.812500
8247		5.859375
8248		9.765625
8249		5.859375
8250		9.765625
8251		5.859375
8252		9.765625
8253		5.859375
8254		11.718750
8255		7.812500
8256		11.718750
8257		7.812500
8258		11.718750
8259		9.765625
8260		13.671875
8261		9.765625
8262		11.718750
8263		9.765625
8264		13.671875
8265		9.765625
8266		13.671875
8267		9.765625
8268		15.625000
8269		9.765625
8270		15.625000
8271		11.718750
8272		15.625000
8273		13.671875
8274		15.625000
8275		13.671875
8276		17.578125
8277		11.718750
8278		15.625000
8279		13.671875
8280		17.578125
8281		13.671875
8282		17.578125
8283		13.671875
8284		17.578125
8285		13.671875
8286		17.578125
8287		13.671875
8288		19.531250
8289		15.625000
8290		19.531250
8291		15.625000
8292		19.531250
8293		15.625000
8294		19.531250
8295		15.625000
8296		19.531250
8297		17.578125
8298		19.531250
8299		17.578125
8300		21.484375
8301		17.578125
8302		21.484375
8303		17.578125
8304		21.484375
8305		19.531250
8306		21.484375
8307		19.531250
8308		21.484375
8309		17.578125
8310		23.437500
8311		17.578125
8312		23.437500
8313		19.531250
8314		23.437500
8315		19.531250
8316		23.437500
8317		19.531250
8318		23.437500
8319		19.531250
8320		23.437500
8321		19.531250
8322		23.437500
8323		19.531250
8324		23.437500
8325		19.531250
8326		23.437500
8327		19.531250
8328		23.437500
8329		19.531250
8330		23.437500
8331		19.531250
8332		23.437500
8333		19.531250
8334		23.437500
8335		19.531250
8336		23.437500
8337		19.531250
8338		25.390625
8339		21.484375
8340		23.437500
8341		19.531250
8342		23.437500
8343		19.531250
8344		23.437500
8345		19.531250
8346		23.437500
8347		19.531250
8348		23.437500
8349		19.531250
8350		23.437500
8351		19.531250
8352		23.437500
8353		19.531250
8354		23.437500
8355		19.531250
8356		23.437500
8357		19.531250
8358		21.484375
8359		17.578125
8360		23.437500
8361		19.531250
8362		23.437500
8363		19.531250
8364		21.484375
8365		19.531250
8366		21.484375
8367		17.578125
8368		21.484375
8369		17.578125
8370		21.484375
8371		17.578125
8372		21.484375
8373		17.578125
8374		21.484375
8375		15.625000
8376		21.484375
8377		17.578125
8378		19.531250
8379		17.578125
8380		19.531250
8381		15.625000
8382		19.531250
8383		15.625000
8384		19.531250
8385		15.625000
8386		19.531250
8387		15.625000
8388		19.531250
8389		15.625000
8390		17.578125
8391		15.625000
8392		17.578125
8393		13.671875
8394		17.578125
8395		13.671875
8396		17.578125
8397		13.671875
8398		17.578125
8399		13.671875
8400		15.625000
8401		11.718750
8402		15.625000
8403		11.718750
8404		15.625000
8405		11.718750
8406		15.625000
8407		11.718750
8408		13.671875
8409		11.718750
8410		13.671875
8411		9.765625
8412		13.671875
8413		7.812500
8414		13.671875
8415		9.765625
8416		11.718750
8417		9.765625
8418		11.718750
8419		7.812500
8420		11.718750
8421		5.859375
8422		11.718750
8423		7.812500
8424		9.765625
8425		5.859375
8426		9.765625
8427		5.859375
8428		9.765625
8429		5.859375
8430		9.765625
8431		3.906250
8432		7.812500
8433		3.906250
8434		7.812500
8435		3.906250
8436		7.812500
8437		1.953125
8438		5.859375
8439		1.953125
8440		5.859375
8441		1.953125
8442		3.906250
8443		0.000000
8444		5.859375
8445		0.000000
8446		3.906250
8447		0.000000
8448		3.906250
8449		0.000000
8450		1.953125
8451		-1.953125
8452		1.953125
8453		-1.953125
8454		1.953125
8455		-1.953125
8456		0.000000
8457		-3.906250
8458		0.000000
8459		-5.859375
8460		0.000000
8461		-3.906250
8462		0.000000
8463		-5.859375
8464		-1.953125
8465		-5.859375
8466		-1.953125
8467		-7.812500
8468		-1.953125
8469		-7.812500
8470		-3.906250
8471		-7.812500
8472		-3.906250
8473		-7.812500
8474		-5.859375
8475		-7.812500
8476		-5.859375
8477		-9.765625
8478		-5.859375
8479		-9.765625
8480		-5.859375
8481		-11.718750
8482		-7.812500
8483		-11.718750
8484		-7.812500
8485		-11.718750
8486		-7.812500
8487		-13.671875
8488		-7.812500
8489		-13.671875
8490		-9.765625
8491		-13.671875
8492		-9.765625
8493		-15.625000
8494		-9.765625
8495		-15.625000
8496		-11.718750
8497		-15.625000
8498		-11.718750
8499		-15.625000
8500		-11.718750
8501		-17.578125
8502		-13.671875
8503		-17.578125
8504		-13.671875
8505		-17.578125
8506		-13.671875
8507		-17.578125
8508		-15.625000
8509		-17.578125
8510		-15.625000
8511		-19.531250
8512		-15.625000
8513		-21.484375
8514		-15.625000
8515		-19.531250
8516		-15.625000
8517		-19.531250
8518		-15.625000
8519		-21.484375
8520		-17.578125
8521		-21.484375
8522		-17.578125
8523		-21.484375
8524		-19.531250
8525		-21.484375
8526		-19.531250
8527		-23.437500
8528		-17.578125
8529		-23.437500
8530		-19.531250
8531		-23.437500
8532		-19.531250
8533		-23.437500
8534		-19.531250
8535		-23.437500
8536		-19.531250
8537		-23.437500
8538		-21.484375
8539		-25.390625
8540		-21.484375
8541		-25.390625
8542		-21.484375
8543		-25.390625
8544		-21.484375
8545		-25.390625
8546		-21.484375
8547		-25.390625
8548		-21.484375
8549		-25.390625
8550		-21.484375
8551		-25.390625
8552		-21.484375
8553		-27.343750
8554		-21.484375
8555		-27.343750
8556		-21.484375
8557		-25.390625
8558		-23.437500
8559		-25.390625
8560		-23.437500
8561		-27.343750
8562		-23.437500
8563		-27.343750
8564		-23.437500
8565		-27.343750
8566		-23.437500
8567		-27.343750
8568		-23.437500
8569		-27.343750
8570		-23.437500
8571		-27.343750
8572		-23.437500
8573		-27.343750
8574		-21.484375
8575		-27.343750
8576		-23.437500
8577		-27.343750
8578		-23.437500
8579		-27.343750
8580		-23.437500
8581		-27.343750
8582		-23.437500
8583		-27.343750
8584		-23.437500
8585		-27.343750
8586		-23.437500
8587		-27.343750
8588		-23.437500
8589		-27.343750
8590		-23.437500
8591		-25.390625
8592		-23.437500
8593		-25.390625
8594		-23.437500
8595		-27.343750
8596		-21.484375
8597		-25.390625
8598		-23.437500
8599		-25.390625
8600		-21.484375
8601		-25.390625
8602		-21.484375
8603		-25.390625
8604		-21.484375
8605		-25.390625
8606		-21.484375
8607		-23.437500
8608		-21.484375
8609		-23.437500
8610		-21.484375
8611		-25.390625
8612		-19.531250
8613		-23.437500
8614		-19.531250
8615		-23.437500
8616		-19.531250
8617		-23.437500
8618		-19.531250
8619		-23.437500
8620		-19.531250
8621		-23.437500
8622		-19.531250
8623		-23.437500
8624		-17.578125
8625		-21.484375
8626		-17.578125
8627		-21.484375
8628		-17.578125
8629		-21.484375
8630		-17.578125
8631		-19.531250
8632		-15.625000
8633		-19.531250
8634		-15.625000
8635		-19.531250
8636		-15.625000
8637		-19.531250
8638		-15.625000
8639		-19.531250
8640		-13.671875
8641		-17.578125
8642		-15.625000
8643		-17.578125
8644		-13.671875
8645		-17.578125
8646		-13.671875
8647		-17.578125
8648		-13.671875
8649		-15.625000
8650		-11.718750
8651		-13.671875
8652		-11.718750
8653		-15.625000
8654		-11.718750
8655		-13.671875
8656		-9.765625
8657		-13.671875
8658		-9.765625
8659		-11.718750
8660		-9.765625
8661		-13.671875
8662		-7.812500
8663		-11.718750
8664		-7.812500
8665		-11.718750
8666		-7.812500
8667		-11.718750
8668		-5.859375
8669		-9.765625
8670		-5.859375
8671		-9.765625
8672		-5.859375
8673		-9.765625
8674		-3.906250
8675		-7.812500
8676		-5.859375
8677		-7.812500
8678		-3.906250
8679		-7.812500
8680		-3.906250
8681		-5.859375
8682		-1.953125
8683		-5.859375
8684		-1.953125
8685		-5.859375
8686		-1.953125
8687		-3.906250
8688		0.000000
8689		-3.906250
8690		0.000000
8691		-3.906250
8692		0.000000
8693		-1.953125
8694		0.000000
8695		-1.953125
8696		1.953125
8697		-1.953125
8698		1.953125
8699		0.000000
8700		1.953125
8701		0.000000
8702		3.906250
8703		0.000000
8704		3.906250
8705		1.953125
8706		3.906250
8707		1.953125
8708		5.859375
8709		1.953125
8710		5.859375
8711		1.953125
8712		7.812500
8713		3.906250
8714		7.812500
8715		3.906250
8716		7.812500
8717		5.859375
8718		7.812500
8719		5.859375
8720		9.765625
8721		5.859375
8722		9.765625
8723		5.859375
8724		9.765625
8725		7.812500
8726		9.765625
8727		7.812500
8728		9.765625
8729		7.812500
8730		11.718750
8731		7.812500
8732		11.718750
8733		9.765625
8734		11.718750
8735		9.765625
8736		13.671875
8737		9.765625
8738		13.671875
8739		9.765625
8740		13.671875
8741		11.718750
8742		15.625000
8743		11.718750
8744		13.671875
8745		11.718750
8746		15.625000
8747		11.718750
8748		15.625000
8749		13.671875
8750		17.578125
8751		13.671875
8752		17.578125
8753		13.671875
8754		17.578125
8755		13.671875
8756		17.578125
8757		13.671875
8758		17.578125
8759		15.625000
8760		17.578125
8761		15.625000
8762		17.578125
8763		15.625000
8764		19.531250
8765		15.625000
8766		19.531250
8767		15.625000
8768		19.531250
8769		15.625000
8770		19.531250
8771		17.578125
8772		21.484375
8773		17.578125
8774		21.484375
8775		17.578125
8776		21.484375
8777		19.531250
8778		21.484375
8779		17.578125
8780		21.484375
8781		17.578125
8782		21.484375
8783		19.531250
8784		23.437500
8785		17.578125
8786		23.437500
8787		19.531250
8788		23.437500
8789		19.531250
8790		23.437500
8791		19.531250
8792		23.437500
8793		19.531250
8794		23.437500
8795		19.531250
8796		23.437500
8797		19.531250
8798		23.437500
8799		19.531250
8800		23.437500
8801		19.531250
8802		23.437500
8803		21.484375
8804		23.437500
8805		19.531250
8806		23.437500
8807		19.531250
8808		23.437500
8809		21.484375
8810		23.437500
8811		21.484375
8812		23.437500
8813		19.531250
8814		25.390625
8815		19.531250
8816		23.437500
8817		19.531250
8818		23.437500
8819		19.531250
8820		23.437500
8821		19.531250
8822		23.437500
8823		19.531250
8824		23.437500
8825		19.531250
8826		23.437500
8827		21.484375
8828		23.437500
8829		19.531250
8830		23.437500
8831		19.531250
8832		23.437500
8833		19.531250
8834		21.484375
8835		19.531250
8836		21.484375
8837		19.531250
8838		21.484375
8839		19.531250
8840		21.484375
8841		17.578125
8842		23.437500
8843		19.531250
8844		21.484375
8845		17.578125
8846		21.484375
8847		17.578125
8848		21.484375
8849		17.578125
8850		21.484375
8851		17.578125
8852		21.484375
8853		17.578125
8854		21.484375
8855		15.625000
8856		21.484375
8857		15.625000
8858		19.531250
8859		15.625000
8860		19.531250
8861		15.625000
8862		19.531250
8863		13.671875
8864		17.578125
8865		13.671875
8866		17.578125
8867		13.671875
8868		17.578125
8869		13.671875
8870		17.578125
8871		13.671875
8872		17.578125
8873		13.671875
8874		17.578125
8875		13.671875
8876		17.578125
8877		13.671875
8878		15.625000
8879		9.765625
8880		15.625000
8881		11.718750
8882		15.625000
8883		11.718750
8884		13.671875
8885		9.765625
8886		13.671875
8887		9.765625
8888		13.671875
8889		9.765625
8890		13.671875
8891		7.812500
8892		11.718750
8893		9.765625
8894		11.718750
8895		7.812500
8896		9.765625
8897		5.859375
8898		11.718750
8899		5.859375
8900		9.765625
8901		5.859375
8902		9.765625
8903		5.859375
8904		7.812500
8905		5.859375
8906		7.812500
8907		3.906250
8908		7.812500
8909		1.953125
8910		7.812500
8911		1.953125
8912		5.859375
8913		1.953125
8914		5.859375
8915		1.953125
8916		5.859375
8917		0.000000
8918		3.906250
8919		0.000000
8920		3.906250
8921		0.000000
8922		3.906250
8923		0.000000
8924		1.953125
8925		-1.953125
8926		3.906250
8927		-1.953125
8928		1.953125
8929		-1.953125
8930		0.000000
8931		-3.906250
8932		0.000000
8933		-3.906250
8934		0.000000
8935		-3.906250
8936		-1.953125
8937		-5.859375
8938		-1.953125
8939		-5.859375
8940		-1.953125
8941		-5.859375
8942		-1.953125
8943		-5.859375
8944		-3.906250
8945		-7.812500
8946		-3.906250
8947		-9.765625
8948		-3.906250
8949		-9.765625
8950		-5.859375
8951		-9.765625
8952		-5.859375
8953		-9.765625
8954		-5.859375
8955		-11.718750
8956		-7.812500
8957		-11.718750
8958		-7.812500
8959		-13.671875
8960		-7.812500
8961		-11.718750
8962		-9.765625
8963		-13.671875
8964		-7.812500
8965		-13.671875
8966		-9.765625
8967		-13.671875
8968		-11.718750
8969		-15.625000
8970		-11.718750
8971		-15.625000
8972		-11.718750
8973		-15.625000
8974		-11.718750
8975		-17.578125
8976		-11.718750
8977		-15.625000
8978		-13.671875
8979		-17.578125
8980		-13.671875
8981		-17.578125
8982		-13.671875
8983		-19.531250
8984		-15.625000
8985		-19.531250
8986		-15.625000
8987		-19.531250
8988		-15.625000
8989		-19.531250
8990		-15.625000
8991		-19.531250
8992		-15.625000
8993		-21.484375
8994		-15.625000
8995		-19.531250
8996		-17.578125
8997		-23.437500
8998		-17.578125
8999		-23.437500
9000		-17.578125
9001		-23.437500
9002		-19.531250
9003		-23.437500
9004		-19.531250
9005		-23.437500
9006		-19.531250
9007		-23.437500
9008		-19.531250
9009		-25.390625
9010		-19.531250
9011		-23.437500
9012		-21.484375
9013		-23.437500
9014		-21.484375
9015		-25.390625
9016		-19.531250
9017		-25.390625
9018		-19.531250
9019		-25.390625
9020		-21.484375
9021		-25.390625
9022		-21.484375
9023		-25.390625
9024		-21.484375
9025		-25.390625
9026		-21.484375
9027		-27.343750
9028		-21.484375
9029		-25.390625
9030		-23.437500
9031		-25.390625
9032		-21.484375
9033		-27.343750
9034		-23.437500
9035		-27.343750
9036		-21.484375
9037		-27.343750
9038		-21.484375
9039		-27.343750
9040		-23.437500
9041		-27.343750
9042		-23.437500
9043		-27.343750
9044		-23.437500
9045		-25.390625
9046		-23.437500
9047		-25.390625
9048		-23.437500
9049		-27.343750
9050		-23.437500
9051		-27.343750
9052		-23.437500
9053		-27.343750
9054		-23.437500
9055		-27.343750
9056		-23.437500
9057		-27.343750
9058		-23.437500
9059		-27.343750
9060		-21.484375
9061		-25.390625
9062		-23.437500
9063		-25.390625
9064		-23.437500
9065		-27.343750
9066		-23.437500
9067		-25.390625
9068		-21.484375
9069		-25.390625
9070		-21.484375
9071		-25.390625
9072		-21.484375
9073		-25.390625
9074		-21.484375
9075		-25.390625
9076		-21.484375
9077		-25.390625
9078		-21.484375
9079		-23.437500
9080		-21.484375
9081		-25.390625
9082		-19.531250
9083		-23.437500
9084		-19.531250
9085		-23.437500
9086		-19.531250
9087		-23.437500
9088		-19.531250
9089		-23.437500
9090		-19.531250
9091		-23.437500
9092		-19.531250
9093		-23.437500
9094		-19.531250
9095		-21.484375
9096		-19.531250
9097		-21.484375
9098		-19.531250
9099		-21.484375
9100		-17.578125
9101		-21.484375
9102		-17.578125
9103		-21.484375
9104		-15.625000
9105		-19.531250
9106		-17.578125
9107		-19.531250
9108		-15.625000
9109		-19.531250
9110		-15.625000
9111		-19.531250
9112		-13.671875
9113		-17.578125
9114		-15.625000
9115		-17.578125
9116		-13.671875
9117		-17.578125
9118		-13.671875
9119		-15.625000
9120		-13.671875
9121		-15.625000
9122		-11.718750
9123		-15.625000
9124		-11.718750
9125		-15.625000
9126		-11.718750
9127		-15.625000
9128		-9.765625
9129		-13.671875
9130		-9.765625
9131		-13.671875
9132		-9.765625
9133		-13.671875
9134		-9.765625
9135		-11.718750
9136		-7.812500
9137		-11.718750
9138		-7.812500
9139		-11.718750
9140		-7.812500
9141		-9.765625
9142		-5.859375
9143		-9.765625
9144		-5.859375
9145		-7.812500
9146		-5.859375
9147		-7.812500
9148		-5.859375
9149		-7.812500
9150		-3.906250
9151		-7.812500
9152		-3.906250
9153		-5.859375
9154		-3.906250
9155		-5.859375
9156		-1.953125
9157		-5.859375
9158		-1.953125
9159		-5.859375
9160		0.000000
9161		-3.906250
9162		-1.953125
9163		-3.906250
9164		0.000000
9165		-3.906250
9166		1.953125
9167		-1.953125
9168		1.953125
9169		-1.953125
9170		1.953125
9171		-1.953125
9172		3.906250
9173		-1.953125
9174		3.906250
9175		0.000000
9176		3.906250
9177		0.000000
9178		5.859375
9179		1.953125
9180		3.906250
9181		1.953125
9182		5.859375
9183		1.953125
9184		5.859375
9185		3.906250
9186		5.859375
9187		3.906250
9188		7.812500
9189		3.906250
9190		7.812500
9191		3.906250
9192		7.812500
9193		5.859375
9194		9.765625
9195		5.859375
9196		9.765625
9197		7.812500
9198		9.765625
9199		7.812500
9200		11.718750
9201		7.812500
9202		11.718750
9203		7.812500
9204		11.718750
9205		7.812500
9206		11.718750
9207		9.765625
9208		13.671875
9209		9.765625
9210		13.671875
9211		9.765625
9212		15.625000
9213		11.718750
9214		13.671875
9215		11.718750
9216		13.671875
9217		11.718750
9218		15.625000
9219		11.718750
9220		15.625000
9221		13.671875
9222		15.625000
9223		13.671875
9224		17.578125
9225		13.671875
9226		17.578125
9227		13.671875
9228		17.578125
9229		15.625000
9230		17.578125
9231		15.625000
9232		17.578125
9233		15.625000
9234		19.531250
9235		15.625000
9236		19.531250
9237		15.625000
9238		19.531250
9239		15.625000
9240		19.531250
9241		17.578125
9242		19.531250
9243		17.578125
9244		21.484375
9245		15.625000
9246		21.484375
9247		17.578125
9248		21.484375
9249		17.578125
9250		21.484375
9251		17.578125
9252		21.484375
9253		19.531250
9254		23.437500
9255		17.578125
9256		21.484375
9257		19.531250
9258		23.437500
9259		19.531250
9260		23.437500
9261		19.531250
9262		23.437500
9263		19.531250
9264		23.437500
9265		21.484375
9266		23.437500
9267		19.531250
9268		23.437500
9269		19.531250
9270		23.437500
9271		19.531250
9272		23.437500
9273		19.531250
9274		23.437500
9275		19.531250
9276		23.437500
9277		19.531250
9278		25.390625
9279		19.531250
9280		25.390625
9281		21.484375
9282		23.437500
9283		19.531250
9284		23.437500
9285		21.484375
9286		23.437500
9287		19.531250
9288		23.437500
9289		19.531250
9290		23.437500
9291		19.531250
9292		23.437500
9293		19.531250
9294		23.437500
9295		21.484375
9296		23.437500
9297		21.484375
9298		23.437500
9299		21.484375
9300		23.437500
9301		19.531250
9302		23.437500
9303		19.531250
9304		23.437500
9305		19.531250
9306		23.437500
9307		19.531250
9308		23.437500
9309		19.531250
9310		23.437500
9311		19.531250
9312		23.437500
9313		17.578125
9314		23.437500
9315		19.531250
9316		21.484375
9317		17.578125
9318		23.437500
9319		17.578125
9320		21.484375
9321		17.578125
9322		21.484375
9323		17.578125
9324		21.484375
9325		17.578125
9326		21.484375
9327		15.625000
9328		21.484375
9329		15.625000
9330		19.531250
9331		17.578125
9332		19.531250
9333		15.625000
9334		19.531250
9335		15.625000
9336		19.531250
9337		15.625000
9338		19.531250
9339		15.625000
9340		19.531250
9341		13.671875
9342		17.578125
9343		13.671875
9344		17.578125
9345		13.671875
9346		17.578125
9347		13.671875
9348		15.625000
9349		13.671875
9350		15.625000
9351		11.718750
9352		15.625000
9353		11.718750
9354		15.625000
9355		11.718750
9356		15.625000
9357		11.718750
9358		13.671875
9359		9.765625
9360		13.671875
9361		9.765625
9362		13.671875
9363		9.765625
9364		13.671875
9365		9.765625
9366		11.718750
9367		7.812500
9368		11.718750
9369		7.812500
9370		11.718750
9371		7.812500
9372		9.765625
9373		5.859375
9374		11.718750
9375		5.859375
9376		9.765625
9377		5.859375
9378		7.812500
9379		3.906250
9380		9.765625
9381		3.906250
9382		7.812500
9383		3.906250
9384		5.859375
9385		1.953125
9386		7.812500
9387		1.953125
9388		5.859375
9389		1.953125
9390		3.906250
9391		1.953125
9392		3.906250
9393		0.000000
9394		3.906250
9395		0.000000
9396		3.906250
9397		-1.953125
9398		3.906250
9399		0.000000
9400		1.953125
9401		-1.953125
9402		1.953125
9403		-1.953125
9404		1.953125
9405		-3.906250
9406		0.000000
9407		-3.906250
9408		0.000000
9409		-3.906250
9410		-1.953125
9411		-5.859375
9412		-1.953125
9413		-7.812500
9414		0.000000
9415		-5.859375
9416		-3.906250
9417		-7.812500
9418		-3.906250
9419		-7.812500
9420		-3.906250
9421		-7.812500
9422		-5.859375
9423		-7.812500
9424		-5.859375
9425		-9.765625
9426		-5.859375
9427		-9.765625
9428		-5.859375
9429		-11.718750
9430		-7.812500
9431		-9.765625
9432		-7.812500
9433		-11.718750
9434		-9.765625
9435		-13.671875
9436		-7.812500
9437		-13.671875
9438		-9.765625
9439		-13.671875
9440		-9.765625
9441		-13.671875
9442		-11.718750
9443		-15.625000
9444		-11.718750
9445		-15.625000
9446		-11.718750
9447		-15.625000
9448		-11.718750
9449		-15.625000
9450		-13.671875
9451		-17.578125
9452		-13.671875
9453		-17.578125
9454		-13.671875
9455		-17.578125
9456		-13.671875
9457		-17.578125
9458		-15.625000
9459		-19.531250
9460		-15.625000
9461		-19.531250
9462		-15.625000
9463		-21.484375
9464		-15.625000
9465		-19.531250
9466		-17.578125
9467		-19.531250
9468		-17.578125
9469		-21.484375
9470		-17.578125
9471		-21.484375
9472		-17.578125
9473		-21.484375
9474		-17.578125
9475		-23.437500
9476		-19.531250
9477		-21.484375
9478		-19.531250
9479		-23.437500
9480		-19.531250
9481		-23.437500
9482		-19.531250
9483		-23.437500
9484		-21.484375
9485		-25.390625
9486		-21.484375
9487		-23.437500
9488		-19.531250
9489		-23.437500
9490		-21.484375
9491		-25.390625
9492		-21.484375
9493		-25.390625
9494		-21.484375
9495		-25.390625
9496		-21.484375
9497		-25.390625
9498		-21.484375
9499		-25.390625
9500		-23.437500
9501		-27.343750
9502		-21.484375
9503		-25.390625
9504		-23.437500
9505		-25.390625
9506		-23.437500
9507		-27.343750
9508		-21.484375
9509		-27.343750
9510		-23.437500
9511		-27.343750
9512		-23.437500
9513		-27.343750
9514		-23.437500
9515		-25.390625
9516		-23.437500
9517		-25.390625
9518		-23.437500
9519		-29.296875
9520		-21.484375
9521		-27.343750
9522		-23.437500
9523		-27.343750
9524		-23.437500
9525		-27.343750
9526		-23.437500
9527		-27.343750
9528		-23.437500
9529		-25.390625
9530		-23.437500
9531		-27.343750
9532		-23.437500
9533		-25.390625
9534		-23.437500
9535		-25.390625
9536		-23.437500
9537		-27.343750
9538		-23.437500
9539		-25.390625
9540		-23.437500
9541		-25.390625
9542		-23.437500
9543		-25.390625
9544		-23.437500
9545		-25.390625
9546		-21.484375
9547		-25.390625
9548		-21.484375
9549		-23.437500
9550		-21.484375
9551		-23.437500
9552		-21.484375
9553		-25.390625
9554		-21.484375
9555		-25.390625
9556		-21.484375
9557		-23.437500
9558		-19.531250
9559		-23.437500
9560		-19.531250
9561		-23.437500
9562		-19.531250
9563		-23.437500
9564		-19.531250
9565		-23.437500
9566		-19.531250
9567		-21.484375
9568		-19.531250
9569		-23.437500
9570		-17.578125
9571		-21.484375
9572		-17.578125
9573		-21.484375
9574		-17.578125
9575		-21.484375
9576		-17.578125
9577		-21.484375
9578		-15.625000
9579		-19.531250
9580		-17.578125
9581		-19.531250
9582		-15.625000
9583		-19.531250
9584		-15.625000
9585		-17.578125
9586		-13.671875
9587		-17.578125
9588		-13.671875
9589		-17.578125
9590		-13.671875
9591		-15.625000
9592		-13.671875
9593		-15.625000
9594		-11.718750
9595		-15.625000
9596		-13.671875
9597		-15.625000
9598		-11.718750
9599		-13.671875
9600		-11.718750
9601		-13.671875
9602		-11.718750
9603		-13.671875
9604		-7.812500
9605		-13.671875
9606		-9.765625
9607		-11.718750
9608		-7.812500
9609		-11.718750
9610		-7.812500
9611		-11.718750
9612		-7.812500
9613		-11.718750
9614		-7.812500
9615		-11.718750
9616		-5.859375
9617		-9.765625
9618		-5.859375
9619		-7.812500
9620		-5.859375
9621		-7.812500
9622		-3.906250
9623		-7.812500
9624		-3.906250
9625		-7.812500
9626		-3.906250
9627		-7.812500
9628		-1.953125
9629		-5.859375
9630		-1.953125
9631		-5.859375
9632		0.000000
9633		-3.906250
9634		-1.953125
9635		-3.906250
9636		0.000000
9637		-3.906250
9638		0.000000
9639		-3.906250
9640		1.953125
9641		-1.953125
9642		1.953125
9643		-1.953125
9644		1.953125
9645		-1.953125
9646		1.953125
9647		0.000000
9648		3.906250
9649		0.000000
9650		3.906250
9651		1.953125
9652		3.906250
9653		0.000000
9654		5.859375
9655		1.953125
9656		5.859375
9657		1.953125
9658		5.859375
9659		3.906250
9660		5.859375
9661		3.906250
9662		7.812500
9663		3.906250
9664		7.812500
9665		3.906250
9666		7.812500
9667		5.859375
9668		9.765625
9669		5.859375
9670		9.765625
9671		7.812500
9672		9.765625
9673		7.812500
9674		9.765625
9675		7.812500
9676		11.718750
9677		9.765625
9678		11.718750
9679		9.765625
9680		11.718750
9681		9.765625
9682		13.671875
9683		9.765625
9684		13.671875
9685		11.718750
9686		13.671875
9687		11.718750
9688		15.625000
9689		11.718750
9690		15.625000
9691		11.718750
9692		15.625000
9693		13.671875
9694		15.625000
9695		13.671875
9696		17.578125
9697		13.671875
9698		17.578125
9699		13.671875
9700		19.531250
9701		15.625000
9702		17.578125
9703		13.671875
9704		17.578125
9705		15.625000
9706		17.578125
9707		15.625000
9708		19.531250
9709		15.625000
9710		19.531250
9711		15.625000
9712		19.531250
9713		17.578125
9714		21.484375
9715		17.578125
9716		21.484375
9717		17.578125
9718		21.484375
9719		17.578125
9720		21.484375
9721		17.578125
9722		23.437500
9723		17.578125
9724		21.484375
9725		17.578125
9726		23.437500
9727		19.531250
9728		23.437500
9729		19.531250
9730		23.437500
9731		19.531250
9732		23.437500
9733		19.531250
9734		23.437500
9735		19.531250
9736		21.484375
9737		19.531250
9738		23.437500
9739		19.531250
9740		23.437500
9741		19.531250
9742		23.437500
9743		19.531250
9744		23.437500
9745		21.484375
9746		23.437500
9747		21.484375
9748		23.437500
9749		19.531250
9750		25.390625
9751		19.531250
9752		25.390625
9753		21.484375
9754		23.437500
9755		21.484375
9756		23.437500
9757		21.484375
9758		23.437500
9759		19.531250
9760		23.437500
9761		19.531250
9762		25.390625
9763		19.531250
9764		25.390625
9765		19.531250
9766		25.390625
9767		21.484375
9768		23.437500
9769		21.484375
9770		23.437500
9771		19.531250
9772		25.390625
9773		19.531250
9774		23.437500
9775		19.531250
9776		23.437500
9777		19.531250
9778		23.437500
9779		19.531250
9780		23.437500
9781		19.531250
9782		23.437500
9783		19.531250
9784		23.437500
9785		17.578125
9786		23.437500
9787		17.578125
9788		23.437500
9789		19.531250
9790		23.437500
9791		17.578125
9792		23.437500
9793		19.531250
9794		21.484375
9795		17.578125
9796		21.484375
9797		17.578125
9798		21.484375
9799		17.578125
9800		21.484375
9801		17.578125
9802		19.531250
9803		17.578125
9804		19.531250
9805		15.625000
9806		21.484375
9807		15.625000
9808		19.531250
9809		15.625000
9810		19.531250
9811		15.625000
9812		17.578125
9813		15.625000
9814		17.578125
9815		15.625000
9816		17.578125
9817		13.671875
9818		17.578125
9819		13.671875
9820		17.578125
9821		13.671875
9822		17.578125
9823		11.718750
9824		17.578125
9825		11.718750
9826		15.625000
9827		11.718750
9828		15.625000
9829		11.718750
9830		15.625000
9831		9.765625
9832		15.625000
9833		9.765625
9834		15.625000
9835		9.765625
9836		13.671875
9837		9.765625
9838		11.718750
9839		9.765625
9840		13.671875
9841		7.812500
9842		11.718750
9843		7.812500
9844		11.718750
9845		5.859375
9846		11.718750
9847		5.859375
9848		9.765625
9849		5.859375
9850		9.765625
9851		5.859375
9852		9.765625
9853		5.859375
9854		7.812500
9855		3.906250
9856		7.812500
9857		3.906250
9858		7.812500
9859		1.953125
9860		7.812500
9861		3.906250
9862		5.859375
9863		1.953125
9864		5.859375
9865		1.953125
9866		3.906250
9867		0.000000
9868		3.906250
9869		0.000000
9870		3.906250
9871		-1.953125
9872		3.906250
9873		-1.953125
9874		1.953125
9875		-1.953125
9876		1.953125
9877		-1.953125
9878		1.953125
9879		-1.953125
9880		0.000000
9881		-3.906250
9882		0.000000
9883		-5.859375
9884		0.000000
9885		-3.906250
9886		-1.953125
9887		-5.859375
9888		-1.953125
9889		-5.859375
9890		-1.953125
9891		-5.859375
9892		-3.906250
9893		-7.812500
9894		-3.906250
9895		-7.812500
9896		-3.906250
9897		-9.765625
9898		-5.859375
9899		-9.765625
9900		-5.859375
9901		-9.765625
9902		-5.859375
9903		-9.765625
9904		-7.812500
9905		-11.718750
9906		-7.812500
9907		-11.718750
9908		-7.812500
9909		-11.718750
9910		-9.765625
9911		-11.718750
9912		-9.765625
9913		-13.671875
9914		-9.765625
9915		-13.671875
9916		-9.765625
9917		-13.671875
9918		-9.765625
9919		-13.671875
9920		-11.718750
9921		-15.625000
9922		-11.718750
9923		-17.578125
9924		-11.718750
9925		-17.578125
9926		-11.718750
9927		-17.578125
9928		-13.671875
9929		-17.578125
9930		-13.671875
9931		-19.531250
9932		-13.671875
9933		-19.531250
9934		-15.625000
9935		-19.531250
9936		-15.625000
9937		-19.531250
9938		-17.578125
9939		-21.484375
9940		-15.625000
9941		-21.484375
9942		-17.578125
9943		-21.484375
9944		-17.578125
9945		-21.484375
9946		-17.578125
9947		-21.484375
9948		-17.578125
9949		-21.484375
9950		-17.578125
9951		-23.437500
9952		-19.531250
9953		-21.484375
9954		-19.531250
9955		-23.437500
9956		-19.531250
9957		-23.437500
9958		-19.531250
9959		-23.437500
9960		-19.531250
9961		-23.437500
9962		-19.531250
9963		-25.390625
9964		-19.531250
9965		-25.390625
9966		-21.484375
9967		-25.390625
9968		-21.484375
9969		-25.390625
9970		-21.484375
9971		-25.390625
9972		-21.484375
9973		-25.390625
9974		-21.484375
9975		-25.390625
9976		-21.484375
9977		-25.390625
9978		-21.484375
9979		-25.390625
9980		-21.484375
9981		-25.390625
9982		-21.484375
9983		-27.343750
9984		-21.484375
9985		-27.343750
9986		-21.484375
9987		-25.390625
9988		-23.437500
9989		-27.343750
9990		-23.437500
9991		-25.390625
9992		-23.437500
9993		-27.343750
9994		-23.437500
9995		-27.343750
9996		-23.437500
9997		-27.343750
9998		-23.437500
9999		-25.390625
10000		-23.437500
