Channel              :		CH1
Frequency            :		1.062kHz
Period               :		0.941ms
PK-PK                :		44.92mV
Probe attenuation    :		1X
Voltage per ADC value:		0.122070mV
Time interval        :		2.00000us

index		CH1_Voltage(mV)
1		15.625000
2		15.625000
3		13.671875
4		15.625000
5		13.671875
6		17.578125
7		13.671875
8		17.578125
9		13.671875
10		17.578125
11		13.671875
12		17.578125
13		13.671875
14		17.578125
15		13.671875
16		17.578125
17		13.671875
18		17.578125
19		15.625000
20		17.578125
21		15.625000
22		17.578125
23		13.671875
24		17.578125
25		15.625000
26		17.578125
27		15.625000
28		17.578125
29		15.625000
30		17.578125
31		15.625000
32		19.531250
33		15.625000
34		17.578125
35		15.625000
36		19.531250
37		15.625000
38		19.531250
39		13.671875
40		19.531250
41		15.625000
42		17.578125
43		15.625000
44		17.578125
45		15.625000
46		19.531250
47		15.625000
48		19.531250
49		15.625000
50		19.531250
51		15.625000
52		19.531250
53		15.625000
54		19.531250
55		15.625000
56		19.531250
57		15.625000
58		19.531250
59		15.625000
60		17.578125
61		13.671875
62		17.578125
63		15.625000
64		17.578125
65		15.625000
66		17.578125
67		15.625000
68		17.578125
69		13.671875
70		17.578125
71		13.671875
72		17.578125
73		13.671875
74		17.578125
75		13.671875
76		17.578125
77		13.671875
78		17.578125
79		13.671875
80		17.578125
81		13.671875
82		17.578125
83		13.671875
84		17.578125
85		13.671875
86		15.625000
87		13.671875
88		15.625000
89		11.718750
90		15.625000
91		11.718750
92		15.625000
93		13.671875
94		15.625000
95		11.718750
96		15.625000
97		11.718750
98		15.625000
99		11.718750
100		15.625000
101		11.718750
102		15.625000
103		11.718750
104		13.671875
105		9.765625
106		13.671875
107		9.765625
108		13.671875
109		9.765625
110		13.671875
111		9.765625
112		13.671875
113		9.765625
114		13.671875
115		9.765625
116		13.671875
117		9.765625
118		11.718750
119		9.765625
120		11.718750
121		7.812500
122		11.718750
123		7.812500
124		11.718750
125		7.812500
126		11.718750
127		7.812500
128		9.765625
129		5.859375
130		9.765625
131		5.859375
132		9.765625
133		5.859375
134		9.765625
135		5.859375
136		9.765625
137		5.859375
138		7.812500
139		3.906250
140		7.812500
141		3.906250
142		7.812500
143		3.906250
144		7.812500
145		3.906250
146		7.812500
147		3.906250
148		5.859375
149		1.953125
150		5.859375
151		1.953125
152		5.859375
153		1.953125
154		5.859375
155		1.953125
156		5.859375
157		1.953125
158		3.906250
159		0.000000
160		3.906250
161		0.000000
162		3.906250
163		0.000000
164		3.906250
165		0.000000
166		1.953125
167		-1.953125
168		3.906250
169		-1.953125
170		1.953125
171		-1.953125
172		1.953125
173		-1.953125
174		0.000000
175		-1.953125
176		1.953125
177		-1.953125
178		0.000000
179		-3.906250
180		0.000000
181		-3.906250
182		0.000000
183		-5.859375
184		0.000000
185		-5.859375
186		-1.953125
187		-5.859375
188		-1.953125
189		-5.859375
190		-1.953125
191		-5.859375
192		-1.953125
193		-5.859375
194		-3.906250
195		-5.859375
196		-3.906250
197		-7.812500
198		-3.906250
199		-7.812500
200		-3.906250
201		-7.812500
202		-3.906250
203		-7.812500
204		-5.859375
205		-7.812500
206		-5.859375
207		-9.765625
208		-5.859375
209		-9.765625
210		-5.859375
211		-9.765625
212		-7.812500
213		-9.765625
214		-7.812500
215		-11.718750
216		-7.812500
217		-11.718750
218		-7.812500
219		-11.718750
220		-7.812500
221		-11.718750
222		-7.812500
223		-11.718750
224		-7.812500
225		-11.718750
226		-7.812500
227		-11.718750
228		-9.765625
229		-13.671875
230		-9.765625
231		-13.671875
232		-9.765625
233		-13.671875
234		-9.765625
235		-13.671875
236		-9.765625
237		-13.671875
238		-9.765625
239		-13.671875
240		-9.765625
241		-13.671875
242		-9.765625
243		-13.671875
244		-11.718750
245		-15.625000
246		-11.718750
247		-15.625000
248		-9.765625
249		-15.625000
250		-11.718750
251		-15.625000
252		-11.718750
253		-15.625000
254		-11.718750
255		-15.625000
256		-11.718750
257		-15.625000
258		-11.718750
259		-17.578125
260		-11.718750
261		-15.625000
262		-13.671875
263		-15.625000
264		-11.718750
265		-15.625000
266		-13.671875
267		-17.578125
268		-11.718750
269		-15.625000
270		-13.671875
271		-17.578125
272		-13.671875
273		-15.625000
274		-13.671875
275		-17.578125
276		-13.671875
277		-15.625000
278		-13.671875
279		-15.625000
280		-13.671875
281		-15.625000
282		-13.671875
283		-15.625000
284		-13.671875
285		-15.625000
286		-13.671875
287		-17.578125
288		-13.671875
289		-17.578125
290		-13.671875
291		-15.625000
292		-13.671875
293		-15.625000
294		-13.671875
295		-15.625000
296		-13.671875
297		-17.578125
298		-13.671875
299		-17.578125
300		-13.671875
301		-15.625000
302		-13.671875
303		-15.625000
304		-13.671875
305		-15.625000
306		-11.718750
307		-15.625000
308		-11.718750
309		-17.578125
310		-11.718750
311		-15.625000
312		-11.718750
313		-15.625000
314		-11.718750
315		-15.625000
316		-11.718750
317		-15.625000
318		-11.718750
319		-15.625000
320		-11.718750
321		-15.625000
322		-11.718750
323		-13.671875
324		-9.765625
325		-13.671875
326		-9.765625
327		-13.671875
328		-9.765625
329		-13.671875
330		-9.765625
331		-13.671875
332		-9.765625
333		-11.718750
334		-9.765625
335		-11.718750
336		-9.765625
337		-11.718750
338		-9.765625
339		-11.718750
340		-7.812500
341		-11.718750
342		-7.812500
343		-11.718750
344		-7.812500
345		-9.765625
346		-7.812500
347		-11.718750
348		-7.812500
349		-9.765625
350		-5.859375
351		-9.765625
352		-5.859375
353		-9.765625
354		-5.859375
355		-9.765625
356		-5.859375
357		-9.765625
358		-5.859375
359		-9.765625
360		-5.859375
361		-7.812500
362		-3.906250
363		-7.812500
364		-3.906250
365		-7.812500
366		-3.906250
367		-5.859375
368		-3.906250
369		-5.859375
370		-3.906250
371		-5.859375
372		-1.953125
373		-5.859375
374		-1.953125
375		-5.859375
376		-1.953125
377		-5.859375
378		0.000000
379		-3.906250
380		0.000000
381		-3.906250
382		0.000000
383		-3.906250
384		0.000000
385		-1.953125
386		0.000000
387		-1.953125
388		0.000000
389		-1.953125
390		1.953125
391		-1.953125
392		1.953125
393		-1.953125
394		1.953125
395		0.000000
396		1.953125
397		0.000000
398		3.906250
399		0.000000
400		3.906250
401		0.000000
402		3.906250
403		0.000000
404		3.906250
405		0.000000
406		5.859375
407		1.953125
408		3.906250
409		1.953125
410		5.859375
411		1.953125
412		5.859375
413		1.953125
414		5.859375
415		3.906250
416		7.812500
417		3.906250
418		7.812500
419		3.906250
420		7.812500
421		3.906250
422		7.812500
423		3.906250
424		7.812500
425		3.906250
426		7.812500
427		3.906250
428		9.765625
429		5.859375
430		9.765625
431		5.859375
432		9.765625
433		7.812500
434		9.765625
435		7.812500
436		9.765625
437		7.812500
438		9.765625
439		7.812500
440		11.718750
441		7.812500
442		11.718750
443		7.812500
444		11.718750
445		9.765625
446		11.718750
447		9.765625
448		11.718750
449		7.812500
450		13.671875
451		9.765625
452		13.671875
453		9.765625
454		13.671875
455		9.765625
456		13.671875
457		11.718750
458		13.671875
459		9.765625
460		13.671875
461		11.718750
462		13.671875
463		11.718750
464		13.671875
465		11.718750
466		15.625000
467		11.718750
468		15.625000
469		11.718750
470		15.625000
471		11.718750
472		15.625000
473		11.718750
474		15.625000
475		13.671875
476		15.625000
477		13.671875
478		15.625000
479		13.671875
480		15.625000
481		13.671875
482		15.625000
483		13.671875
484		17.578125
485		13.671875
486		17.578125
487		13.671875
488		17.578125
489		13.671875
490		17.578125
491		13.671875
492		17.578125
493		13.671875
494		17.578125
495		13.671875
496		17.578125
497		15.625000
498		17.578125
499		13.671875
500		17.578125
501		15.625000
502		17.578125
503		13.671875
504		17.578125
505		15.625000
506		17.578125
507		15.625000
508		17.578125
509		13.671875
510		17.578125
511		15.625000
512		17.578125
513		15.625000
514		17.578125
515		13.671875
516		17.578125
517		15.625000
518		17.578125
519		13.671875
520		17.578125
521		15.625000
522		17.578125
523		15.625000
524		17.578125
525		13.671875
526		17.578125
527		13.671875
528		17.578125
529		15.625000
530		17.578125
531		15.625000
532		17.578125
533		13.671875
534		17.578125
535		13.671875
536		17.578125
537		13.671875
538		17.578125
539		13.671875
540		17.578125
541		13.671875
542		17.578125
543		13.671875
544		17.578125
545		13.671875
546		17.578125
547		13.671875
548		17.578125
549		11.718750
550		17.578125
551		13.671875
552		15.625000
553		11.718750
554		17.578125
555		13.671875
556		15.625000
557		11.718750
558		15.625000
559		11.718750
560		15.625000
561		11.718750
562		15.625000
563		11.718750
564		15.625000
565		9.765625
566		15.625000
567		11.718750
568		15.625000
569		11.718750
570		15.625000
571		11.718750
572		13.671875
573		9.765625
574		13.671875
575		9.765625
576		13.671875
577		9.765625
578		13.671875
579		9.765625
580		13.671875
581		9.765625
582		13.671875
583		7.812500
584		13.671875
585		7.812500
586		11.718750
587		7.812500
588		11.718750
589		7.812500
590		11.718750
591		7.812500
592		11.718750
593		7.812500
594		9.765625
595		5.859375
596		9.765625
597		5.859375
598		9.765625
599		5.859375
600		9.765625
601		5.859375
602		9.765625
603		5.859375
604		9.765625
605		5.859375
606		7.812500
607		3.906250
608		9.765625
609		3.906250
610		7.812500
611		3.906250
612		7.812500
613		3.906250
614		5.859375
615		3.906250
616		5.859375
617		3.906250
618		5.859375
619		1.953125
620		5.859375
621		1.953125
622		5.859375
623		1.953125
624		5.859375
625		1.953125
626		3.906250
627		0.000000
628		3.906250
629		0.000000
630		3.906250
631		0.000000
632		3.906250
633		-1.953125
634		3.906250
635		-1.953125
636		1.953125
637		-1.953125
638		1.953125
639		-1.953125
640		1.953125
641		-1.953125
642		1.953125
643		-3.906250
644		0.000000
645		-3.906250
646		0.000000
647		-3.906250
648		0.000000
649		-3.906250
650		0.000000
651		-3.906250
652		-1.953125
653		-5.859375
654		-1.953125
655		-5.859375
656		-1.953125
657		-5.859375
658		-1.953125
659		-5.859375
660		-1.953125
661		-7.812500
662		-3.906250
663		-5.859375
664		-3.906250
665		-7.812500
666		-3.906250
667		-7.812500
668		-3.906250
669		-7.812500
670		-3.906250
671		-9.765625
672		-5.859375
673		-9.765625
674		-5.859375
675		-9.765625
676		-5.859375
677		-9.765625
678		-5.859375
679		-9.765625
680		-5.859375
681		-9.765625
682		-7.812500
683		-11.718750
684		-7.812500
685		-11.718750
686		-7.812500
687		-11.718750
688		-7.812500
689		-11.718750
690		-7.812500
691		-13.671875
692		-9.765625
693		-11.718750
694		-9.765625
695		-13.671875
696		-9.765625
697		-13.671875
698		-9.765625
699		-13.671875
700		-9.765625
701		-13.671875
702		-9.765625
703		-13.671875
704		-11.718750
705		-15.625000
706		-11.718750
707		-15.625000
708		-11.718750
709		-15.625000
710		-11.718750
711		-15.625000
712		-11.718750
713		-15.625000
714		-11.718750
715		-15.625000
716		-11.718750
717		-15.625000
718		-11.718750
719		-15.625000
720		-11.718750
721		-15.625000
722		-13.671875
723		-15.625000
724		-13.671875
725		-15.625000
726		-13.671875
727		-15.625000
728		-13.671875
729		-17.578125
730		-13.671875
731		-17.578125
732		-13.671875
733		-17.578125
734		-13.671875
735		-17.578125
736		-13.671875
737		-17.578125
738		-13.671875
739		-17.578125
740		-13.671875
741		-17.578125
742		-13.671875
743		-17.578125
744		-13.671875
745		-17.578125
746		-13.671875
747		-17.578125
748		-13.671875
749		-17.578125
750		-13.671875
751		-17.578125
752		-13.671875
753		-17.578125
754		-13.671875
755		-17.578125
756		-13.671875
757		-17.578125
758		-15.625000
759		-17.578125
760		-13.671875
761		-17.578125
762		-13.671875
763		-17.578125
764		-13.671875
765		-17.578125
766		-13.671875
767		-17.578125
768		-13.671875
769		-17.578125
770		-13.671875
771		-17.578125
772		-13.671875
773		-15.625000
774		-13.671875
775		-17.578125
776		-13.671875
777		-15.625000
778		-13.671875
779		-15.625000
780		-13.671875
781		-15.625000
782		-13.671875
783		-15.625000
784		-13.671875
785		-17.578125
786		-11.718750
787		-15.625000
788		-11.718750
789		-15.625000
790		-11.718750
791		-15.625000
792		-11.718750
793		-15.625000
794		-11.718750
795		-13.671875
796		-11.718750
797		-15.625000
798		-9.765625
799		-13.671875
800		-11.718750
801		-13.671875
802		-9.765625
803		-13.671875
804		-9.765625
805		-13.671875
806		-9.765625
807		-13.671875
808		-9.765625
809		-13.671875
810		-9.765625
811		-11.718750
812		-9.765625
813		-13.671875
814		-7.812500
815		-11.718750
816		-9.765625
817		-11.718750
818		-7.812500
819		-11.718750
820		-7.812500
821		-9.765625
822		-7.812500
823		-11.718750
824		-5.859375
825		-9.765625
826		-7.812500
827		-9.765625
828		-5.859375
829		-9.765625
830		-5.859375
831		-7.812500
832		-5.859375
833		-7.812500
834		-5.859375
835		-9.765625
836		-3.906250
837		-7.812500
838		-3.906250
839		-7.812500
840		-3.906250
841		-7.812500
842		-3.906250
843		-7.812500
844		-3.906250
845		-5.859375
846		-1.953125
847		-5.859375
848		-1.953125
849		-5.859375
850		-1.953125
851		-5.859375
852		-1.953125
853		-3.906250
854		-1.953125
855		-3.906250
856		0.000000
857		-3.906250
858		0.000000
859		-3.906250
860		0.000000
861		-3.906250
862		0.000000
863		-1.953125
864		0.000000
865		-1.953125
866		1.953125
867		-1.953125
868		1.953125
869		-1.953125
870		1.953125
871		0.000000
872		1.953125
873		0.000000
874		3.906250
875		0.000000
876		3.906250
877		0.000000
878		3.906250
879		1.953125
880		3.906250
881		0.000000
882		5.859375
883		1.953125
884		5.859375
885		1.953125
886		5.859375
887		1.953125
888		5.859375
889		1.953125
890		5.859375
891		3.906250
892		5.859375
893		3.906250
894		7.812500
895		3.906250
896		7.812500
897		3.906250
898		7.812500
899		5.859375
900		7.812500
901		5.859375
902		7.812500
903		3.906250
904		9.765625
905		5.859375
906		9.765625
907		5.859375
908		9.765625
909		7.812500
910		9.765625
911		5.859375
912		11.718750
913		7.812500
914		11.718750
915		7.812500
916		11.718750
917		7.812500
918		11.718750
919		7.812500
920		11.718750
921		9.765625
922		11.718750
923		9.765625
924		11.718750
925		9.765625
926		11.718750
927		9.765625
928		13.671875
929		9.765625
930		13.671875
931		9.765625
932		13.671875
933		11.718750
934		13.671875
935		11.718750
936		13.671875
937		11.718750
938		13.671875
939		11.718750
940		15.625000
941		11.718750
942		13.671875
943		11.718750
944		15.625000
945		11.718750
946		15.625000
947		11.718750
948		15.625000
949		11.718750
950		15.625000
951		13.671875
952		15.625000
953		11.718750
954		15.625000
955		13.671875
956		17.578125
957		11.718750
958		15.625000
959		13.671875
960		17.578125
961		13.671875
962		17.578125
963		13.671875
964		17.578125
965		13.671875
966		17.578125
967		13.671875
968		17.578125
969		13.671875
970		17.578125
971		13.671875
972		17.578125
973		13.671875
974		17.578125
975		13.671875
976		17.578125
977		13.671875
978		17.578125
979		13.671875
980		17.578125
981		13.671875
982		17.578125
983		13.671875
984		17.578125
985		13.671875
986		17.578125
987		13.671875
988		17.578125
989		13.671875
990		17.578125
991		13.671875
992		17.578125
993		13.671875
994		17.578125
995		13.671875
996		17.578125
997		13.671875
998		17.578125
999		13.671875
1000		17.578125
1001		13.671875
1002		17.578125
1003		13.671875
1004		17.578125
1005		13.671875
1006		17.578125
1007		13.671875
1008		17.578125
1009		13.671875
1010		17.578125
1011		13.671875
1012		17.578125
1013		13.671875
1014		17.578125
1015		11.718750
1016		17.578125
1017		13.671875
1018		15.625000
1019		13.671875
1020		15.625000
1021		11.718750
1022		15.625000
1023		11.718750
1024		15.625000
1025		11.718750
1026		15.625000
1027		11.718750
1028		15.625000
1029		11.718750
1030		15.625000
1031		11.718750
1032		15.625000
1033		11.718750
1034		15.625000
1035		11.718750
1036		13.671875
1037		9.765625
1038		13.671875
1039		9.765625
1040		13.671875
1041		9.765625
1042		13.671875
1043		9.765625
1044		13.671875
1045		9.765625
1046		13.671875
1047		9.765625
1048		13.671875
1049		9.765625
1050		13.671875
1051		9.765625
1052		11.718750
1053		7.812500
1054		11.718750
1055		7.812500
1056		11.718750
1057		7.812500
1058		11.718750
1059		7.812500
1060		11.718750
1061		7.812500
1062		11.718750
1063		5.859375
1064		9.765625
1065		5.859375
1066		9.765625
1067		5.859375
1068		9.765625
1069		5.859375
1070		9.765625
1071		3.906250
1072		9.765625
1073		5.859375
1074		7.812500
1075		3.906250
1076		7.812500
1077		3.906250
1078		7.812500
1079		3.906250
1080		7.812500
1081		3.906250
1082		7.812500
1083		1.953125
1084		7.812500
1085		1.953125
1086		5.859375
1087		1.953125
1088		5.859375
1089		1.953125
1090		5.859375
1091		1.953125
1092		5.859375
1093		1.953125
1094		3.906250
1095		0.000000
1096		3.906250
1097		0.000000
1098		3.906250
1099		0.000000
1100		3.906250
1101		0.000000
1102		1.953125
1103		-1.953125
1104		3.906250
1105		-1.953125
1106		1.953125
1107		-1.953125
1108		1.953125
1109		-1.953125
1110		1.953125
1111		-1.953125
1112		1.953125
1113		-3.906250
1114		0.000000
1115		-3.906250
1116		0.000000
1117		-3.906250
1118		0.000000
1119		-3.906250
1120		-1.953125
1121		-3.906250
1122		-1.953125
1123		-3.906250
1124		-1.953125
1125		-5.859375
1126		-1.953125
1127		-5.859375
1128		-1.953125
1129		-5.859375
1130		-1.953125
1131		-7.812500
1132		-3.906250
1133		-7.812500
1134		-1.953125
1135		-7.812500
1136		-3.906250
1137		-7.812500
1138		-3.906250
1139		-7.812500
1140		-5.859375
1141		-9.765625
1142		-5.859375
1143		-9.765625
1144		-5.859375
1145		-9.765625
1146		-5.859375
1147		-9.765625
1148		-5.859375
1149		-11.718750
1150		-5.859375
1151		-9.765625
1152		-7.812500
1153		-11.718750
1154		-7.812500
1155		-11.718750
1156		-7.812500
1157		-11.718750
1158		-7.812500
1159		-11.718750
1160		-7.812500
1161		-13.671875
1162		-9.765625
1163		-11.718750
1164		-9.765625
1165		-13.671875
1166		-9.765625
1167		-13.671875
1168		-9.765625
1169		-13.671875
1170		-11.718750
1171		-13.671875
1172		-9.765625
1173		-15.625000
1174		-11.718750
1175		-13.671875
1176		-11.718750
1177		-15.625000
1178		-11.718750
1179		-15.625000
1180		-11.718750
1181		-15.625000
1182		-11.718750
1183		-15.625000
1184		-11.718750
1185		-15.625000
1186		-11.718750
1187		-17.578125
1188		-11.718750
1189		-15.625000
1190		-11.718750
1191		-15.625000
1192		-13.671875
1193		-17.578125
1194		-13.671875
1195		-17.578125
1196		-13.671875
1197		-17.578125
1198		-13.671875
1199		-17.578125
1200		-13.671875
1201		-17.578125
1202		-13.671875
1203		-17.578125
1204		-13.671875
1205		-17.578125
1206		-13.671875
1207		-17.578125
1208		-13.671875
1209		-17.578125
1210		-13.671875
1211		-17.578125
1212		-13.671875
1213		-17.578125
1214		-13.671875
1215		-17.578125
1216		-13.671875
1217		-17.578125
1218		-13.671875
1219		-17.578125
1220		-15.625000
1221		-17.578125
1222		-15.625000
1223		-19.531250
1224		-13.671875
1225		-19.531250
1226		-13.671875
1227		-17.578125
1228		-15.625000
1229		-17.578125
1230		-13.671875
1231		-17.578125
1232		-15.625000
1233		-17.578125
1234		-15.625000
1235		-17.578125
1236		-13.671875
1237		-17.578125
1238		-13.671875
1239		-17.578125
1240		-13.671875
1241		-17.578125
1242		-13.671875
1243		-17.578125
1244		-13.671875
1245		-17.578125
1246		-13.671875
1247		-17.578125
1248		-13.671875
1249		-17.578125
1250		-13.671875
1251		-17.578125
1252		-11.718750
1253		-17.578125
1254		-13.671875
1255		-17.578125
1256		-13.671875
1257		-15.625000
1258		-13.671875
1259		-15.625000
1260		-13.671875
1261		-15.625000
1262		-11.718750
1263		-15.625000
1264		-11.718750
1265		-15.625000
1266		-11.718750
1267		-15.625000
1268		-11.718750
1269		-15.625000
1270		-11.718750
1271		-15.625000
1272		-9.765625
1273		-13.671875
1274		-11.718750
1275		-13.671875
1276		-9.765625
1277		-13.671875
1278		-9.765625
1279		-13.671875
1280		-9.765625
1281		-13.671875
1282		-9.765625
1283		-13.671875
1284		-7.812500
1285		-11.718750
1286		-9.765625
1287		-11.718750
1288		-7.812500
1289		-11.718750
1290		-7.812500
1291		-11.718750
1292		-7.812500
1293		-11.718750
1294		-7.812500
1295		-11.718750
1296		-7.812500
1297		-9.765625
1298		-5.859375
1299		-9.765625
1300		-5.859375
1301		-9.765625
1302		-5.859375
1303		-9.765625
1304		-5.859375
1305		-7.812500
1306		-5.859375
1307		-7.812500
1308		-5.859375
1309		-7.812500
1310		-3.906250
1311		-7.812500
1312		-3.906250
1313		-7.812500
1314		-3.906250
1315		-5.859375
1316		-3.906250
1317		-7.812500
1318		-1.953125
1319		-5.859375
1320		-1.953125
1321		-5.859375
1322		-1.953125
1323		-5.859375
1324		-1.953125
1325		-5.859375
1326		-1.953125
1327		-3.906250
1328		-1.953125
1329		-3.906250
1330		0.000000
1331		-3.906250
1332		0.000000
1333		-1.953125
1334		0.000000
1335		-1.953125
1336		1.953125
1337		-1.953125
1338		0.000000
1339		-1.953125
1340		1.953125
1341		-1.953125
1342		1.953125
1343		0.000000
1344		1.953125
1345		0.000000
1346		1.953125
1347		0.000000
1348		3.906250
1349		0.000000
1350		3.906250
1351		0.000000
1352		3.906250
1353		1.953125
1354		3.906250
1355		1.953125
1356		5.859375
1357		1.953125
1358		5.859375
1359		1.953125
1360		5.859375
1361		1.953125
1362		5.859375
1363		3.906250
1364		7.812500
1365		3.906250
1366		7.812500
1367		3.906250
1368		7.812500
1369		3.906250
1370		7.812500
1371		3.906250
1372		7.812500
1373		5.859375
1374		7.812500
1375		5.859375
1376		9.765625
1377		5.859375
1378		9.765625
1379		5.859375
1380		9.765625
1381		7.812500
1382		9.765625
1383		7.812500
1384		9.765625
1385		7.812500
1386		11.718750
1387		7.812500
1388		9.765625
1389		7.812500
1390		11.718750
1391		7.812500
1392		11.718750
1393		7.812500
1394		11.718750
1395		7.812500
1396		11.718750
1397		9.765625
1398		11.718750
1399		9.765625
1400		13.671875
1401		9.765625
1402		13.671875
1403		9.765625
1404		13.671875
1405		9.765625
1406		13.671875
1407		9.765625
1408		13.671875
1409		11.718750
1410		13.671875
1411		11.718750
1412		13.671875
1413		11.718750
1414		15.625000
1415		11.718750
1416		15.625000
1417		11.718750
1418		15.625000
1419		11.718750
1420		15.625000
1421		11.718750
1422		15.625000
1423		11.718750
1424		17.578125
1425		11.718750
1426		15.625000
1427		11.718750
1428		17.578125
1429		13.671875
1430		15.625000
1431		11.718750
1432		15.625000
1433		11.718750
1434		15.625000
1435		13.671875
1436		17.578125
1437		13.671875
1438		15.625000
1439		13.671875
1440		17.578125
1441		13.671875
1442		17.578125
1443		13.671875
1444		17.578125
1445		13.671875
1446		17.578125
1447		13.671875
1448		17.578125
1449		13.671875
1450		17.578125
1451		13.671875
1452		17.578125
1453		13.671875
1454		17.578125
1455		13.671875
1456		17.578125
1457		13.671875
1458		17.578125
1459		13.671875
1460		17.578125
1461		13.671875
1462		17.578125
1463		11.718750
1464		17.578125
1465		13.671875
1466		17.578125
1467		13.671875
1468		17.578125
1469		13.671875
1470		17.578125
1471		13.671875
1472		17.578125
1473		13.671875
1474		17.578125
1475		13.671875
1476		17.578125
1477		13.671875
1478		15.625000
1479		13.671875
1480		17.578125
1481		13.671875
1482		15.625000
1483		13.671875
1484		15.625000
1485		13.671875
1486		15.625000
1487		13.671875
1488		15.625000
1489		13.671875
1490		15.625000
1491		11.718750
1492		15.625000
1493		11.718750
1494		15.625000
1495		11.718750
1496		15.625000
1497		11.718750
1498		15.625000
1499		11.718750
1500		15.625000
1501		11.718750
1502		13.671875
1503		9.765625
1504		15.625000
1505		11.718750
1506		13.671875
1507		9.765625
1508		13.671875
1509		9.765625
1510		13.671875
1511		9.765625
1512		13.671875
1513		9.765625
1514		13.671875
1515		9.765625
1516		13.671875
1517		9.765625
1518		13.671875
1519		7.812500
1520		11.718750
1521		9.765625
1522		11.718750
1523		7.812500
1524		11.718750
1525		7.812500
1526		11.718750
1527		7.812500
1528		11.718750
1529		7.812500
1530		11.718750
1531		7.812500
1532		9.765625
1533		7.812500
1534		9.765625
1535		5.859375
1536		9.765625
1537		5.859375
1538		9.765625
1539		5.859375
1540		9.765625
1541		5.859375
1542		9.765625
1543		5.859375
1544		7.812500
1545		3.906250
1546		7.812500
1547		3.906250
1548		7.812500
1549		3.906250
1550		7.812500
1551		3.906250
1552		7.812500
1553		3.906250
1554		5.859375
1555		1.953125
1556		5.859375
1557		1.953125
1558		5.859375
1559		1.953125
1560		5.859375
1561		1.953125
1562		5.859375
1563		1.953125
1564		3.906250
1565		0.000000
1566		3.906250
1567		0.000000
1568		3.906250
1569		0.000000
1570		3.906250
1571		0.000000
1572		3.906250
1573		0.000000
1574		1.953125
1575		-1.953125
1576		1.953125
1577		-1.953125
1578		1.953125
1579		-1.953125
1580		1.953125
1581		-1.953125
1582		0.000000
1583		-3.906250
1584		0.000000
1585		-3.906250
1586		0.000000
1587		-3.906250
1588		0.000000
1589		-3.906250
1590		-1.953125
1591		-5.859375
1592		-1.953125
1593		-5.859375
1594		-1.953125
1595		-5.859375
1596		-1.953125
1597		-5.859375
1598		-1.953125
1599		-5.859375
1600		-3.906250
1601		-5.859375
1602		-3.906250
1603		-7.812500
1604		-3.906250
1605		-7.812500
1606		-3.906250
1607		-7.812500
1608		-5.859375
1609		-9.765625
1610		-5.859375
1611		-9.765625
1612		-5.859375
1613		-9.765625
1614		-5.859375
1615		-9.765625
1616		-5.859375
1617		-9.765625
1618		-5.859375
1619		-11.718750
1620		-7.812500
1621		-11.718750
1622		-7.812500
1623		-11.718750
1624		-7.812500
1625		-11.718750
1626		-7.812500
1627		-11.718750
1628		-9.765625
1629		-11.718750
1630		-9.765625
1631		-11.718750
1632		-9.765625
1633		-13.671875
1634		-9.765625
1635		-13.671875
1636		-9.765625
1637		-13.671875
1638		-9.765625
1639		-13.671875
1640		-11.718750
1641		-13.671875
1642		-11.718750
1643		-13.671875
1644		-11.718750
1645		-15.625000
1646		-11.718750
1647		-15.625000
1648		-11.718750
1649		-15.625000
1650		-11.718750
1651		-15.625000
1652		-11.718750
1653		-15.625000
1654		-11.718750
1655		-15.625000
1656		-13.671875
1657		-15.625000
1658		-13.671875
1659		-17.578125
1660		-13.671875
1661		-17.578125
1662		-13.671875
1663		-17.578125
1664		-13.671875
1665		-17.578125
1666		-13.671875
1667		-17.578125
1668		-13.671875
1669		-17.578125
1670		-13.671875
1671		-17.578125
1672		-13.671875
1673		-17.578125
1674		-13.671875
1675		-17.578125
1676		-13.671875
1677		-17.578125
1678		-15.625000
1679		-17.578125
1680		-15.625000
1681		-17.578125
1682		-15.625000
1683		-17.578125
1684		-13.671875
1685		-17.578125
1686		-15.625000
1687		-19.531250
1688		-15.625000
1689		-19.531250
1690		-15.625000
1691		-17.578125
1692		-15.625000
1693		-19.531250
1694		-13.671875
1695		-19.531250
1696		-15.625000
1697		-17.578125
1698		-15.625000
1699		-17.578125
1700		-15.625000
1701		-17.578125
1702		-15.625000
1703		-19.531250
1704		-13.671875
1705		-17.578125
1706		-15.625000
1707		-17.578125
1708		-15.625000
1709		-19.531250
1710		-13.671875
1711		-19.531250
1712		-13.671875
1713		-17.578125
1714		-13.671875
1715		-17.578125
1716		-13.671875
1717		-17.578125
1718		-13.671875
1719		-17.578125
1720		-13.671875
1721		-17.578125
1722		-13.671875
1723		-17.578125
1724		-13.671875
1725		-17.578125
1726		-13.671875
1727		-17.578125
1728		-13.671875
1729		-17.578125
1730		-13.671875
1731		-17.578125
1732		-11.718750
1733		-15.625000
1734		-11.718750
1735		-15.625000
1736		-11.718750
1737		-15.625000
1738		-11.718750
1739		-15.625000
1740		-11.718750
1741		-15.625000
1742		-11.718750
1743		-15.625000
1744		-11.718750
1745		-13.671875
1746		-11.718750
1747		-15.625000
1748		-11.718750
1749		-13.671875
1750		-9.765625
1751		-13.671875
1752		-9.765625
1753		-13.671875
1754		-9.765625
1755		-13.671875
1756		-9.765625
1757		-13.671875
1758		-9.765625
1759		-11.718750
1760		-7.812500
1761		-11.718750
1762		-7.812500
1763		-11.718750
1764		-7.812500
1765		-11.718750
1766		-7.812500
1767		-11.718750
1768		-7.812500
1769		-9.765625
1770		-7.812500
1771		-9.765625
1772		-5.859375
1773		-9.765625
1774		-5.859375
1775		-9.765625
1776		-5.859375
1777		-9.765625
1778		-5.859375
1779		-9.765625
1780		-3.906250
1781		-7.812500
1782		-5.859375
1783		-7.812500
1784		-3.906250
1785		-7.812500
1786		-3.906250
1787		-5.859375
1788		-3.906250
1789		-7.812500
1790		-1.953125
1791		-5.859375
1792		-3.906250
1793		-7.812500
1794		-1.953125
1795		-5.859375
1796		-1.953125
1797		-3.906250
1798		-1.953125
1799		-3.906250
1800		0.000000
1801		-3.906250
1802		0.000000
1803		-3.906250
1804		0.000000
1805		-3.906250
1806		0.000000
1807		-1.953125
1808		0.000000
1809		-1.953125
1810		1.953125
1811		-1.953125
1812		1.953125
1813		-1.953125
1814		1.953125
1815		0.000000
1816		1.953125
1817		0.000000
1818		1.953125
1819		0.000000
1820		3.906250
1821		0.000000
1822		3.906250
1823		1.953125
1824		3.906250
1825		1.953125
1826		3.906250
1827		1.953125
1828		5.859375
1829		1.953125
1830		5.859375
1831		1.953125
1832		5.859375
1833		1.953125
1834		5.859375
1835		3.906250
1836		5.859375
1837		3.906250
1838		7.812500
1839		3.906250
1840		7.812500
1841		3.906250
1842		7.812500
1843		3.906250
1844		7.812500
1845		5.859375
1846		7.812500
1847		5.859375
1848		9.765625
1849		5.859375
1850		9.765625
1851		5.859375
1852		9.765625
1853		5.859375
1854		9.765625
1855		5.859375
1856		11.718750
1857		7.812500
1858		9.765625
1859		7.812500
1860		11.718750
1861		7.812500
1862		11.718750
1863		7.812500
1864		11.718750
1865		7.812500
1866		11.718750
1867		9.765625
1868		11.718750
1869		9.765625
1870		13.671875
1871		7.812500
1872		13.671875
1873		9.765625
1874		13.671875
1875		9.765625
1876		13.671875
1877		9.765625
1878		13.671875
1879		9.765625
1880		13.671875
1881		11.718750
1882		13.671875
1883		9.765625
1884		13.671875
1885		11.718750
1886		13.671875
1887		11.718750
1888		15.625000
1889		11.718750
1890		15.625000
1891		11.718750
1892		15.625000
1893		11.718750
1894		15.625000
1895		11.718750
1896		15.625000
1897		11.718750
1898		15.625000
1899		11.718750
1900		15.625000
1901		11.718750
1902		15.625000
1903		11.718750
1904		15.625000
1905		11.718750
1906		15.625000
1907		13.671875
1908		15.625000
1909		13.671875
1910		15.625000
1911		11.718750
1912		17.578125
1913		11.718750
1914		17.578125
1915		11.718750
1916		17.578125
1917		13.671875
1918		15.625000
1919		13.671875
1920		17.578125
1921		13.671875
1922		17.578125
1923		11.718750
1924		17.578125
1925		13.671875
1926		15.625000
1927		13.671875
1928		17.578125
1929		11.718750
1930		17.578125
1931		13.671875
1932		17.578125
1933		13.671875
1934		15.625000
1935		13.671875
1936		15.625000
1937		13.671875
1938		17.578125
1939		11.718750
1940		17.578125
1941		13.671875
1942		17.578125
1943		13.671875
1944		17.578125
1945		13.671875
1946		17.578125
1947		13.671875
1948		17.578125
1949		13.671875
1950		17.578125
1951		13.671875
1952		15.625000
1953		11.718750
1954		15.625000
1955		13.671875
1956		15.625000
1957		13.671875
1958		15.625000
1959		11.718750
1960		15.625000
1961		11.718750
1962		15.625000
1963		11.718750
1964		15.625000
1965		11.718750
1966		15.625000
1967		9.765625
1968		15.625000
1969		11.718750
1970		15.625000
1971		9.765625
1972		15.625000
1973		9.765625
1974		15.625000
1975		11.718750
1976		13.671875
1977		9.765625
1978		13.671875
1979		9.765625
1980		13.671875
1981		9.765625
1982		13.671875
1983		9.765625
1984		13.671875
1985		7.812500
1986		11.718750
1987		9.765625
1988		11.718750
1989		7.812500
1990		11.718750
1991		7.812500
1992		11.718750
1993		7.812500
1994		11.718750
1995		7.812500
1996		11.718750
1997		7.812500
1998		11.718750
1999		7.812500
2000		9.765625
2001		7.812500
2002		9.765625
2003		5.859375
2004		9.765625
2005		5.859375
2006		9.765625
2007		5.859375
2008		9.765625
2009		5.859375
2010		7.812500
2011		5.859375
2012		7.812500
2013		3.906250
2014		7.812500
2015		3.906250
2016		7.812500
2017		3.906250
2018		7.812500
2019		3.906250
2020		7.812500
2021		3.906250
2022		5.859375
2023		1.953125
2024		5.859375
2025		1.953125
2026		5.859375
2027		1.953125
2028		5.859375
2029		1.953125
2030		5.859375
2031		1.953125
2032		3.906250
2033		0.000000
2034		3.906250
2035		0.000000
2036		3.906250
2037		0.000000
2038		3.906250
2039		-1.953125
2040		1.953125
2041		0.000000
2042		1.953125
2043		-1.953125
2044		1.953125
2045		-1.953125
2046		1.953125
2047		-1.953125
2048		1.953125
2049		-1.953125
2050		0.000000
2051		-1.953125
2052		0.000000
2053		-3.906250
2054		0.000000
2055		-3.906250
2056		0.000000
2057		-3.906250
2058		0.000000
2059		-5.859375
2060		-1.953125
2061		-5.859375
2062		-1.953125
2063		-5.859375
2064		-1.953125
2065		-7.812500
2066		-1.953125
2067		-5.859375
2068		-1.953125
2069		-7.812500
2070		-3.906250
2071		-7.812500
2072		-3.906250
2073		-7.812500
2074		-3.906250
2075		-7.812500
2076		-5.859375
2077		-7.812500
2078		-5.859375
2079		-9.765625
2080		-5.859375
2081		-9.765625
2082		-5.859375
2083		-9.765625
2084		-5.859375
2085		-9.765625
2086		-5.859375
2087		-11.718750
2088		-5.859375
2089		-11.718750
2090		-7.812500
2091		-11.718750
2092		-7.812500
2093		-11.718750
2094		-7.812500
2095		-13.671875
2096		-7.812500
2097		-11.718750
2098		-9.765625
2099		-13.671875
2100		-9.765625
2101		-13.671875
2102		-9.765625
2103		-13.671875
2104		-9.765625
2105		-13.671875
2106		-9.765625
2107		-13.671875
2108		-9.765625
2109		-13.671875
2110		-11.718750
2111		-13.671875
2112		-11.718750
2113		-15.625000
2114		-11.718750
2115		-15.625000
2116		-11.718750
2117		-15.625000
2118		-11.718750
2119		-17.578125
2120		-11.718750
2121		-15.625000
2122		-13.671875
2123		-15.625000
2124		-13.671875
2125		-17.578125
2126		-11.718750
2127		-17.578125
2128		-13.671875
2129		-17.578125
2130		-13.671875
2131		-17.578125
2132		-13.671875
2133		-17.578125
2134		-13.671875
2135		-17.578125
2136		-13.671875
2137		-17.578125
2138		-13.671875
2139		-19.531250
2140		-15.625000
2141		-19.531250
2142		-13.671875
2143		-17.578125
2144		-15.625000
2145		-17.578125
2146		-15.625000
2147		-17.578125
2148		-15.625000
2149		-17.578125
2150		-15.625000
2151		-19.531250
2152		-15.625000
2153		-19.531250
2154		-15.625000
2155		-19.531250
2156		-15.625000
2157		-19.531250
2158		-15.625000
2159		-19.531250
2160		-15.625000
2161		-19.531250
2162		-15.625000
2163		-19.531250
2164		-15.625000
2165		-19.531250
2166		-15.625000
2167		-19.531250
2168		-15.625000
2169		-19.531250
2170		-15.625000
2171		-19.531250
2172		-15.625000
2173		-19.531250
2174		-15.625000
2175		-19.531250
2176		-15.625000
2177		-19.531250
2178		-15.625000
2179		-19.531250
2180		-15.625000
2181		-19.531250
2182		-15.625000
2183		-19.531250
2184		-15.625000
2185		-19.531250
2186		-15.625000
2187		-17.578125
2188		-15.625000
2189		-17.578125
2190		-15.625000
2191		-19.531250
2192		-15.625000
2193		-17.578125
2194		-15.625000
2195		-17.578125
2196		-15.625000
2197		-17.578125
2198		-13.671875
2199		-17.578125
2200		-13.671875
2201		-17.578125
2202		-13.671875
2203		-17.578125
2204		-13.671875
2205		-17.578125
2206		-13.671875
2207		-17.578125
2208		-13.671875
2209		-15.625000
2210		-13.671875
2211		-15.625000
2212		-13.671875
2213		-15.625000
2214		-11.718750
2215		-15.625000
2216		-11.718750
2217		-15.625000
2218		-11.718750
2219		-15.625000
2220		-11.718750
2221		-15.625000
2222		-11.718750
2223		-13.671875
2224		-11.718750
2225		-15.625000
2226		-9.765625
2227		-13.671875
2228		-9.765625
2229		-13.671875
2230		-9.765625
2231		-13.671875
2232		-9.765625
2233		-11.718750
2234		-9.765625
2235		-11.718750
2236		-9.765625
2237		-11.718750
2238		-7.812500
2239		-11.718750
2240		-7.812500
2241		-11.718750
2242		-7.812500
2243		-9.765625
2244		-7.812500
2245		-9.765625
2246		-7.812500
2247		-9.765625
2248		-5.859375
2249		-9.765625
2250		-5.859375
2251		-9.765625
2252		-5.859375
2253		-9.765625
2254		-5.859375
2255		-7.812500
2256		-3.906250
2257		-7.812500
2258		-3.906250
2259		-7.812500
2260		-3.906250
2261		-7.812500
2262		-3.906250
2263		-5.859375
2264		-3.906250
2265		-5.859375
2266		-3.906250
2267		-5.859375
2268		-1.953125
2269		-5.859375
2270		-1.953125
2271		-5.859375
2272		-1.953125
2273		-3.906250
2274		-1.953125
2275		-5.859375
2276		0.000000
2277		-3.906250
2278		0.000000
2279		-3.906250
2280		0.000000
2281		-3.906250
2282		0.000000
2283		-1.953125
2284		1.953125
2285		-1.953125
2286		1.953125
2287		-1.953125
2288		1.953125
2289		-1.953125
2290		1.953125
2291		-1.953125
2292		1.953125
2293		-1.953125
2294		3.906250
2295		0.000000
2296		3.906250
2297		0.000000
2298		3.906250
2299		0.000000
2300		3.906250
2301		0.000000
2302		3.906250
2303		1.953125
2304		5.859375
2305		1.953125
2306		5.859375
2307		1.953125
2308		5.859375
2309		1.953125
2310		7.812500
2311		3.906250
2312		5.859375
2313		3.906250
2314		7.812500
2315		1.953125
2316		7.812500
2317		3.906250
2318		7.812500
2319		3.906250
2320		7.812500
2321		5.859375
2322		7.812500
2323		5.859375
2324		9.765625
2325		5.859375
2326		9.765625
2327		5.859375
2328		9.765625
2329		5.859375
2330		9.765625
2331		5.859375
2332		9.765625
2333		7.812500
2334		9.765625
2335		7.812500
2336		9.765625
2337		5.859375
2338		11.718750
2339		7.812500
2340		11.718750
2341		7.812500
2342		11.718750
2343		7.812500
2344		11.718750
2345		9.765625
2346		11.718750
2347		9.765625
2348		11.718750
2349		9.765625
2350		13.671875
2351		9.765625
2352		13.671875
2353		9.765625
2354		13.671875
2355		9.765625
2356		13.671875
2357		9.765625
2358		13.671875
2359		9.765625
2360		13.671875
2361		11.718750
2362		13.671875
2363		11.718750
2364		13.671875
2365		11.718750
2366		15.625000
2367		9.765625
2368		15.625000
2369		9.765625
2370		15.625000
2371		9.765625
2372		15.625000
2373		11.718750
2374		15.625000
2375		11.718750
2376		15.625000
2377		11.718750
2378		15.625000
2379		11.718750
2380		15.625000
2381		11.718750
2382		15.625000
2383		11.718750
2384		15.625000
2385		11.718750
2386		17.578125
2387		11.718750
2388		17.578125
2389		11.718750
2390		15.625000
2391		11.718750
2392		15.625000
2393		11.718750
2394		15.625000
2395		13.671875
2396		15.625000
2397		11.718750
2398		15.625000
2399		11.718750
2400		17.578125
2401		11.718750
2402		17.578125
2403		11.718750
2404		17.578125
2405		11.718750
2406		17.578125
2407		11.718750
2408		15.625000
2409		11.718750
2410		17.578125
2411		11.718750
2412		15.625000
2413		11.718750
2414		15.625000
2415		11.718750
2416		15.625000
2417		11.718750
2418		15.625000
2419		11.718750
2420		17.578125
2421		9.765625
2422		15.625000
2423		11.718750
2424		15.625000
2425		11.718750
2426		15.625000
2427		11.718750
2428		15.625000
2429		11.718750
2430		15.625000
2431		11.718750
2432		15.625000
2433		9.765625
2434		15.625000
2435		9.765625
2436		15.625000
2437		9.765625
2438		15.625000
2439		9.765625
2440		15.625000
2441		9.765625
2442		13.671875
2443		7.812500
2444		15.625000
2445		9.765625
2446		13.671875
2447		9.765625
2448		13.671875
2449		7.812500
2450		13.671875
2451		9.765625
2452		13.671875
2453		7.812500
2454		13.671875
2455		7.812500
2456		11.718750
2457		5.859375
2458		11.718750
2459		7.812500
2460		13.671875
2461		7.812500
2462		11.718750
2463		7.812500
2464		9.765625
2465		5.859375
2466		11.718750
2467		7.812500
2468		9.765625
2469		7.812500
2470		9.765625
2471		5.859375
2472		9.765625
2473		5.859375
2474		9.765625
2475		5.859375
2476		7.812500
2477		5.859375
2478		7.812500
2479		5.859375
2480		7.812500
2481		5.859375
2482		7.812500
2483		3.906250
2484		7.812500
2485		3.906250
2486		7.812500
2487		3.906250
2488		5.859375
2489		1.953125
2490		5.859375
2491		3.906250
2492		5.859375
2493		1.953125
2494		5.859375
2495		1.953125
2496		5.859375
2497		1.953125
2498		3.906250
2499		0.000000
2500		3.906250
2501		0.000000
2502		3.906250
2503		0.000000
2504		3.906250
2505		0.000000
2506		3.906250
2507		0.000000
2508		1.953125
2509		0.000000
2510		1.953125
2511		-1.953125
2512		1.953125
2513		-1.953125
2514		1.953125
2515		-1.953125
2516		0.000000
2517		-1.953125
2518		0.000000
2519		-1.953125
2520		0.000000
2521		-3.906250
2522		0.000000
2523		-3.906250
2524		0.000000
2525		-3.906250
2526		-1.953125
2527		-3.906250
2528		-1.953125
2529		-3.906250
2530		-1.953125
2531		-5.859375
2532		-1.953125
2533		-5.859375
2534		-1.953125
2535		-5.859375
2536		-3.906250
2537		-5.859375
2538		-3.906250
2539		-7.812500
2540		-3.906250
2541		-7.812500
2542		-3.906250
2543		-7.812500
2544		-3.906250
2545		-9.765625
2546		-5.859375
2547		-9.765625
2548		-5.859375
2549		-9.765625
2550		-5.859375
2551		-9.765625
2552		-5.859375
2553		-9.765625
2554		-7.812500
2555		-11.718750
2556		-5.859375
2557		-9.765625
2558		-7.812500
2559		-11.718750
2560		-7.812500
2561		-11.718750
2562		-7.812500
2563		-11.718750
2564		-9.765625
2565		-11.718750
2566		-9.765625
2567		-15.625000
2568		-7.812500
2569		-17.578125
2570		-7.812500
2571		-15.625000
2572		-7.812500
2573		-13.671875
2574		-11.718750
2575		-13.671875
2576		-11.718750
2577		-13.671875
2578		-11.718750
2579		-15.625000
2580		-11.718750
2581		-15.625000
2582		-11.718750
2583		-19.531250
2584		-9.765625
2585		-17.578125
2586		-9.765625
2587		-19.531250
2588		-9.765625
2589		-15.625000
2590		-13.671875
2591		-15.625000
2592		-13.671875
2593		-17.578125
2594		-13.671875
2595		-17.578125
2596		-13.671875
2597		-17.578125
2598		-13.671875
2599		-17.578125
2600		-13.671875
2601		-21.484375
2602		-11.718750
2603		-19.531250
2604		-11.718750
2605		-21.484375
2606		-11.718750
2607		-17.578125
2608		-15.625000
2609		-17.578125
2610		-15.625000
2611		-17.578125
2612		-15.625000
2613		-17.578125
2614		-15.625000
2615		-19.531250
2616		-15.625000
2617		-21.484375
2618		-11.718750
2619		-21.484375
2620		-13.671875
2621		-21.484375
2622		-13.671875
2623		-19.531250
2624		-15.625000
2625		-19.531250
2626		-15.625000
2627		-19.531250
2628		-15.625000
2629		-19.531250
2630		-15.625000
2631		-19.531250
2632		-17.578125
2633		-21.484375
2634		-13.671875
2635		-23.437500
2636		-13.671875
2637		-23.437500
2638		-13.671875
2639		-21.484375
2640		-13.671875
2641		-19.531250
2642		-15.625000
2643		-19.531250
2644		-15.625000
2645		-19.531250
2646		-15.625000
2647		-19.531250
2648		-15.625000
2649		-19.531250
2650		-15.625000
2651		-21.484375
2652		-13.671875
2653		-21.484375
2654		-13.671875
2655		-21.484375
2656		-11.718750
2657		-19.531250
2658		-15.625000
2659		-19.531250
2660		-15.625000
2661		-17.578125
2662		-15.625000
2663		-17.578125
2664		-15.625000
2665		-17.578125
2666		-15.625000
2667		-19.531250
2668		-11.718750
2669		-21.484375
2670		-11.718750
2671		-19.531250
2672		-11.718750
2673		-19.531250
2674		-11.718750
2675		-17.578125
2676		-13.671875
2677		-17.578125
2678		-13.671875
2679		-17.578125
2680		-13.671875
2681		-15.625000
2682		-13.671875
2683		-15.625000
2684		-13.671875
2685		-19.531250
2686		-9.765625
2687		-17.578125
2688		-9.765625
2689		-17.578125
2690		-9.765625
2691		-15.625000
2692		-11.718750
2693		-15.625000
2694		-11.718750
2695		-13.671875
2696		-11.718750
2697		-13.671875
2698		-11.718750
2699		-13.671875
2700		-9.765625
2701		-15.625000
2702		-7.812500
2703		-15.625000
2704		-5.859375
2705		-15.625000
2706		-5.859375
2707		-11.718750
2708		-9.765625
2709		-11.718750
2710		-9.765625
2711		-11.718750
2712		-7.812500
2713		-11.718750
2714		-7.812500
2715		-11.718750
2716		-7.812500
2717		-13.671875
2718		-5.859375
2719		-13.671875
2720		-3.906250
2721		-11.718750
2722		-3.906250
2723		-11.718750
2724		-3.906250
2725		-7.812500
2726		-5.859375
2727		-7.812500
2728		-5.859375
2729		-7.812500
2730		-3.906250
2731		-7.812500
2732		-3.906250
2733		-7.812500
2734		-3.906250
2735		-9.765625
2736		0.000000
2737		-9.765625
2738		0.000000
2739		-7.812500
2740		0.000000
2741		-5.859375
2742		-1.953125
2743		-5.859375
2744		-1.953125
2745		-3.906250
2746		-1.953125
2747		-3.906250
2748		-1.953125
2749		-3.906250
2750		0.000000
2751		-3.906250
2752		0.000000
2753		-1.953125
2754		1.953125
2755		-5.859375
2756		3.906250
2757		-1.953125
2758		1.953125
2759		-1.953125
2760		1.953125
2761		-1.953125
2762		1.953125
2763		0.000000
2764		1.953125
2765		0.000000
2766		1.953125
2767		0.000000
2768		3.906250
2769		0.000000
2770		3.906250
2771		-1.953125
2772		7.812500
2773		-1.953125
2774		7.812500
2775		1.953125
2776		5.859375
2777		1.953125
2778		5.859375
2779		1.953125
2780		5.859375
2781		1.953125
2782		5.859375
2783		3.906250
2784		5.859375
2785		1.953125
2786		5.859375
2787		3.906250
2788		7.812500
2789		3.906250
2790		7.812500
2791		3.906250
2792		7.812500
2793		5.859375
2794		7.812500
2795		5.859375
2796		7.812500
2797		5.859375
2798		9.765625
2799		5.859375
2800		9.765625
2801		5.859375
2802		9.765625
2803		7.812500
2804		9.765625
2805		7.812500
2806		9.765625
2807		7.812500
2808		11.718750
2809		7.812500
2810		9.765625
2811		7.812500
2812		11.718750
2813		7.812500
2814		11.718750
2815		7.812500
2816		11.718750
2817		9.765625
2818		11.718750
2819		9.765625
2820		11.718750
2821		9.765625
2822		11.718750
2823		9.765625
2824		13.671875
2825		9.765625
2826		13.671875
2827		9.765625
2828		13.671875
2829		9.765625
2830		13.671875
2831		11.718750
2832		13.671875
2833		11.718750
2834		13.671875
2835		9.765625
2836		13.671875
2837		11.718750
2838		13.671875
2839		11.718750
2840		13.671875
2841		11.718750
2842		15.625000
2843		11.718750
2844		15.625000
2845		11.718750
2846		15.625000
2847		11.718750
2848		15.625000
2849		11.718750
2850		15.625000
2851		11.718750
2852		15.625000
2853		11.718750
2854		15.625000
2855		11.718750
2856		15.625000
2857		11.718750
2858		15.625000
2859		11.718750
2860		15.625000
2861		11.718750
2862		15.625000
2863		11.718750
2864		15.625000
2865		13.671875
2866		15.625000
2867		13.671875
2868		15.625000
2869		11.718750
2870		17.578125
2871		13.671875
2872		15.625000
2873		13.671875
2874		15.625000
2875		11.718750
2876		15.625000
2877		11.718750
2878		15.625000
2879		11.718750
2880		15.625000
2881		13.671875
2882		15.625000
2883		11.718750
2884		15.625000
2885		11.718750
2886		15.625000
2887		11.718750
2888		15.625000
2889		11.718750
2890		15.625000
2891		11.718750
2892		15.625000
2893		11.718750
2894		15.625000
2895		11.718750
2896		15.625000
2897		11.718750
2898		15.625000
2899		11.718750
2900		15.625000
2901		11.718750
2902		13.671875
2903		9.765625
2904		15.625000
2905		11.718750
2906		13.671875
2907		11.718750
2908		13.671875
2909		9.765625
2910		13.671875
2911		9.765625
2912		13.671875
2913		9.765625
2914		13.671875
2915		9.765625
2916		13.671875
2917		9.765625
2918		13.671875
2919		9.765625
2920		13.671875
2921		9.765625
2922		13.671875
2923		9.765625
2924		11.718750
2925		7.812500
2926		13.671875
2927		7.812500
2928		11.718750
2929		9.765625
2930		11.718750
2931		7.812500
2932		11.718750
2933		7.812500
2934		11.718750
2935		7.812500
2936		9.765625
2937		5.859375
2938		11.718750
2939		5.859375
2940		9.765625
2941		5.859375
2942		9.765625
2943		5.859375
2944		9.765625
2945		5.859375
2946		9.765625
2947		5.859375
2948		9.765625
2949		5.859375
2950		7.812500
2951		5.859375
2952		7.812500
2953		3.906250
2954		9.765625
2955		3.906250
2956		7.812500
2957		3.906250
2958		5.859375
2959		3.906250
2960		5.859375
2961		3.906250
2962		5.859375
2963		3.906250
2964		5.859375
2965		1.953125
2966		5.859375
2967		1.953125
2968		5.859375
2969		0.000000
2970		5.859375
2971		0.000000
2972		3.906250
2973		0.000000
2974		3.906250
2975		0.000000
2976		3.906250
2977		0.000000
2978		3.906250
2979		0.000000
2980		1.953125
2981		-1.953125
2982		1.953125
2983		-1.953125
2984		1.953125
2985		-1.953125
2986		1.953125
2987		-1.953125
2988		1.953125
2989		-1.953125
2990		1.953125
2991		-3.906250
2992		0.000000
2993		-3.906250
2994		0.000000
2995		-3.906250
2996		0.000000
2997		-3.906250
2998		-1.953125
2999		-3.906250
3000		-1.953125
3001		-5.859375
3002		-1.953125
3003		-5.859375
3004		0.000000
3005		-5.859375
3006		-1.953125
3007		-5.859375
3008		-3.906250
3009		-7.812500
3010		-3.906250
3011		-7.812500
3012		-3.906250
3013		-7.812500
3014		-3.906250
3015		-7.812500
3016		-5.859375
3017		-9.765625
3018		-5.859375
3019		-9.765625
3020		-5.859375
3021		-9.765625
3022		-5.859375
3023		-9.765625
3024		-5.859375
3025		-9.765625
3026		-7.812500
3027		-11.718750
3028		-7.812500
3029		-11.718750
3030		-7.812500
3031		-11.718750
3032		-7.812500
3033		-11.718750
3034		-7.812500
3035		-11.718750
3036		-9.765625
3037		-11.718750
3038		-9.765625
3039		-13.671875
3040		-9.765625
3041		-13.671875
3042		-9.765625
3043		-13.671875
3044		-9.765625
3045		-13.671875
3046		-9.765625
3047		-13.671875
3048		-11.718750
3049		-13.671875
3050		-11.718750
3051		-15.625000
3052		-11.718750
3053		-15.625000
3054		-11.718750
3055		-15.625000
3056		-11.718750
3057		-15.625000
3058		-11.718750
3059		-15.625000
3060		-13.671875
3061		-15.625000
3062		-13.671875
3063		-15.625000
3064		-13.671875
3065		-17.578125
3066		-13.671875
3067		-17.578125
3068		-13.671875
3069		-17.578125
3070		-13.671875
3071		-17.578125
3072		-13.671875
3073		-17.578125
3074		-13.671875
3075		-19.531250
3076		-13.671875
3077		-17.578125
3078		-15.625000
3079		-17.578125
3080		-15.625000
3081		-19.531250
3082		-15.625000
3083		-17.578125
3084		-15.625000
3085		-19.531250
3086		-15.625000
3087		-19.531250
3088		-15.625000
3089		-19.531250
3090		-15.625000
3091		-19.531250
3092		-15.625000
3093		-19.531250
3094		-15.625000
3095		-19.531250
3096		-15.625000
3097		-19.531250
3098		-15.625000
3099		-19.531250
3100		-15.625000
3101		-19.531250
3102		-17.578125
3103		-19.531250
3104		-15.625000
3105		-19.531250
3106		-15.625000
3107		-19.531250
3108		-17.578125
3109		-19.531250
3110		-15.625000
3111		-19.531250
3112		-15.625000
3113		-19.531250
3114		-17.578125
3115		-19.531250
3116		-15.625000
3117		-19.531250
3118		-15.625000
3119		-19.531250
3120		-15.625000
3121		-19.531250
3122		-15.625000
3123		-19.531250
3124		-15.625000
3125		-19.531250
3126		-15.625000
3127		-19.531250
3128		-15.625000
3129		-17.578125
3130		-15.625000
3131		-19.531250
3132		-15.625000
3133		-19.531250
3134		-15.625000
3135		-17.578125
3136		-15.625000
3137		-17.578125
3138		-15.625000
3139		-17.578125
3140		-15.625000
3141		-17.578125
3142		-15.625000
3143		-17.578125
3144		-13.671875
3145		-17.578125
3146		-13.671875
3147		-17.578125
3148		-13.671875
3149		-17.578125
3150		-13.671875
3151		-15.625000
3152		-13.671875
3153		-15.625000
3154		-13.671875
3155		-17.578125
3156		-13.671875
3157		-15.625000
3158		-11.718750
3159		-15.625000
3160		-11.718750
3161		-15.625000
3162		-11.718750
3163		-15.625000
3164		-11.718750
3165		-13.671875
3166		-11.718750
3167		-13.671875
3168		-9.765625
3169		-13.671875
3170		-11.718750
3171		-13.671875
3172		-9.765625
3173		-13.671875
3174		-9.765625
3175		-13.671875
3176		-9.765625
3177		-13.671875
3178		-9.765625
3179		-11.718750
3180		-9.765625
3181		-11.718750
3182		-9.765625
3183		-11.718750
3184		-7.812500
3185		-11.718750
3186		-7.812500
3187		-9.765625
3188		-7.812500
3189		-11.718750
3190		-5.859375
3191		-9.765625
3192		-5.859375
3193		-9.765625
3194		-5.859375
3195		-9.765625
3196		-5.859375
3197		-9.765625
3198		-5.859375
3199		-7.812500
3200		-5.859375
3201		-7.812500
3202		-3.906250
3203		-7.812500
3204		-3.906250
3205		-7.812500
3206		-1.953125
3207		-7.812500
3208		-1.953125
3209		-5.859375
3210		-3.906250
3211		-5.859375
3212		-3.906250
3213		-5.859375
3214		-1.953125
3215		-3.906250
3216		-1.953125
3217		-3.906250
3218		-1.953125
3219		-3.906250
3220		-1.953125
3221		-5.859375
3222		1.953125
3223		-3.906250
3224		1.953125
3225		-3.906250
3226		0.000000
3227		-1.953125
3228		0.000000
3229		-1.953125
3230		1.953125
3231		-1.953125
3232		1.953125
3233		0.000000
3234		1.953125
3235		0.000000
3236		1.953125
3237		0.000000
3238		3.906250
3239		0.000000
3240		5.859375
3241		0.000000
3242		5.859375
3243		1.953125
3244		3.906250
3245		1.953125
3246		3.906250
3247		1.953125
3248		3.906250
3249		1.953125
3250		5.859375
3251		1.953125
3252		5.859375
3253		3.906250
3254		5.859375
3255		1.953125
3256		7.812500
3257		1.953125
3258		7.812500
3259		3.906250
3260		7.812500
3261		3.906250
3262		7.812500
3263		5.859375
3264		7.812500
3265		5.859375
3266		7.812500
3267		5.859375
3268		7.812500
3269		5.859375
3270		9.765625
3271		5.859375
3272		9.765625
3273		5.859375
3274		11.718750
3275		5.859375
3276		11.718750
3277		7.812500
3278		9.765625
3279		7.812500
3280		11.718750
3281		7.812500
3282		11.718750
3283		7.812500
3284		11.718750
3285		7.812500
3286		11.718750
3287		9.765625
3288		11.718750
3289		5.859375
3290		13.671875
3291		7.812500
3292		13.671875
3293		9.765625
3294		11.718750
3295		9.765625
3296		13.671875
3297		9.765625
3298		13.671875
3299		9.765625
3300		13.671875
3301		9.765625
3302		13.671875
3303		9.765625
3304		13.671875
3305		9.765625
3306		15.625000
3307		9.765625
3308		15.625000
3309		9.765625
3310		15.625000
3311		11.718750
3312		13.671875
3313		11.718750
3314		13.671875
3315		11.718750
3316		13.671875
3317		11.718750
3318		15.625000
3319		11.718750
3320		15.625000
3321		11.718750
3322		15.625000
3323		9.765625
3324		15.625000
3325		9.765625
3326		17.578125
3327		11.718750
3328		15.625000
3329		11.718750
3330		15.625000
3331		13.671875
3332		15.625000
3333		11.718750
3334		15.625000
3335		13.671875
3336		15.625000
3337		13.671875
3338		15.625000
3339		11.718750
3340		17.578125
3341		11.718750
3342		17.578125
3343		13.671875
3344		15.625000
3345		11.718750
3346		15.625000
3347		13.671875
3348		15.625000
3349		13.671875
3350		15.625000
3351		11.718750
3352		15.625000
3353		13.671875
3354		15.625000
3355		13.671875
3356		15.625000
3357		11.718750
3358		17.578125
3359		11.718750
3360		15.625000
3361		11.718750
3362		15.625000
3363		11.718750
3364		15.625000
3365		11.718750
3366		15.625000
3367		11.718750
3368		15.625000
3369		11.718750
3370		15.625000
3371		11.718750
3372		15.625000
3373		11.718750
3374		15.625000
3375		11.718750
3376		13.671875
3377		11.718750
3378		13.671875
3379		11.718750
3380		13.671875
3381		9.765625
3382		13.671875
3383		11.718750
3384		13.671875
3385		9.765625
3386		13.671875
3387		9.765625
3388		13.671875
3389		9.765625
3390		13.671875
3391		9.765625
3392		13.671875
3393		9.765625
3394		13.671875
3395		9.765625
3396		11.718750
3397		9.765625
3398		11.718750
3399		9.765625
3400		11.718750
3401		7.812500
3402		11.718750
3403		7.812500
3404		11.718750
3405		7.812500
3406		11.718750
3407		7.812500
3408		11.718750
3409		7.812500
3410		9.765625
3411		7.812500
3412		9.765625
3413		5.859375
3414		9.765625
3415		5.859375
3416		9.765625
3417		5.859375
3418		9.765625
3419		5.859375
3420		7.812500
3421		5.859375
3422		7.812500
3423		3.906250
3424		7.812500
3425		3.906250
3426		7.812500
3427		3.906250
3428		7.812500
3429		3.906250
3430		5.859375
3431		3.906250
3432		5.859375
3433		3.906250
3434		5.859375
3435		1.953125
3436		5.859375
3437		1.953125
3438		5.859375
3439		1.953125
3440		3.906250
3441		1.953125
3442		3.906250
3443		0.000000
3444		3.906250
3445		0.000000
3446		3.906250
3447		0.000000
3448		3.906250
3449		0.000000
3450		1.953125
3451		0.000000
3452		1.953125
3453		-1.953125
3454		1.953125
3455		-1.953125
3456		1.953125
3457		-1.953125
3458		1.953125
3459		-1.953125
3460		0.000000
3461		-1.953125
3462		0.000000
3463		-3.906250
3464		0.000000
3465		-3.906250
3466		0.000000
3467		-3.906250
3468		-1.953125
3469		-3.906250
3470		-1.953125
3471		-3.906250
3472		-1.953125
3473		-5.859375
3474		-1.953125
3475		-5.859375
3476		-1.953125
3477		-5.859375
3478		-1.953125
3479		-5.859375
3480		-3.906250
3481		-7.812500
3482		-3.906250
3483		-7.812500
3484		-3.906250
3485		-7.812500
3486		-5.859375
3487		-7.812500
3488		-5.859375
3489		-9.765625
3490		-5.859375
3491		-9.765625
3492		-5.859375
3493		-9.765625
3494		-5.859375
3495		-9.765625
3496		-7.812500
3497		-9.765625
3498		-7.812500
3499		-11.718750
3500		-7.812500
3501		-11.718750
3502		-7.812500
3503		-11.718750
3504		-7.812500
3505		-11.718750
3506		-7.812500
3507		-11.718750
3508		-9.765625
3509		-11.718750
3510		-9.765625
3511		-13.671875
3512		-9.765625
3513		-13.671875
3514		-9.765625
3515		-13.671875
3516		-9.765625
3517		-13.671875
3518		-11.718750
3519		-13.671875
3520		-11.718750
3521		-13.671875
3522		-11.718750
3523		-15.625000
3524		-11.718750
3525		-15.625000
3526		-11.718750
3527		-15.625000
3528		-11.718750
3529		-15.625000
3530		-13.671875
3531		-15.625000
3532		-13.671875
3533		-15.625000
3534		-13.671875
3535		-15.625000
3536		-13.671875
3537		-17.578125
3538		-13.671875
3539		-17.578125
3540		-13.671875
3541		-17.578125
3542		-13.671875
3543		-17.578125
3544		-15.625000
3545		-17.578125
3546		-15.625000
3547		-17.578125
3548		-15.625000
3549		-17.578125
3550		-15.625000
3551		-17.578125
3552		-15.625000
3553		-17.578125
3554		-15.625000
3555		-17.578125
3556		-15.625000
3557		-19.531250
3558		-15.625000
3559		-19.531250
3560		-15.625000
3561		-19.531250
3562		-15.625000
3563		-19.531250
3564		-15.625000
3565		-19.531250
3566		-15.625000
3567		-19.531250
3568		-15.625000
3569		-19.531250
3570		-15.625000
3571		-19.531250
3572		-15.625000
3573		-19.531250
3574		-15.625000
3575		-19.531250
3576		-15.625000
3577		-19.531250
3578		-15.625000
3579		-19.531250
3580		-15.625000
3581		-19.531250
3582		-17.578125
3583		-19.531250
3584		-15.625000
3585		-19.531250
3586		-15.625000
3587		-19.531250
3588		-15.625000
3589		-19.531250
3590		-15.625000
3591		-19.531250
3592		-15.625000
3593		-19.531250
3594		-15.625000
3595		-19.531250
3596		-15.625000
3597		-19.531250
3598		-15.625000
3599		-17.578125
3600		-15.625000
3601		-19.531250
3602		-15.625000
3603		-17.578125
3604		-15.625000
3605		-17.578125
3606		-15.625000
3607		-17.578125
3608		-15.625000
3609		-17.578125
3610		-13.671875
3611		-17.578125
3612		-15.625000
3613		-17.578125
3614		-13.671875
3615		-17.578125
3616		-13.671875
3617		-17.578125
3618		-13.671875
3619		-17.578125
3620		-13.671875
3621		-15.625000
3622		-13.671875
3623		-15.625000
3624		-13.671875
3625		-15.625000
3626		-13.671875
3627		-15.625000
3628		-11.718750
3629		-15.625000
3630		-11.718750
3631		-15.625000
3632		-11.718750
3633		-15.625000
3634		-11.718750
3635		-13.671875
3636		-11.718750
3637		-13.671875
3638		-11.718750
3639		-13.671875
3640		-11.718750
3641		-13.671875
3642		-9.765625
3643		-13.671875
3644		-9.765625
3645		-13.671875
3646		-9.765625
3647		-11.718750
3648		-9.765625
3649		-11.718750
3650		-9.765625
3651		-11.718750
3652		-9.765625
3653		-11.718750
3654		-7.812500
3655		-11.718750
3656		-7.812500
3657		-9.765625
3658		-7.812500
3659		-9.765625
3660		-7.812500
3661		-9.765625
3662		-5.859375
3663		-9.765625
3664		-5.859375
3665		-9.765625
3666		-5.859375
3667		-7.812500
3668		-5.859375
3669		-7.812500
3670		-5.859375
3671		-7.812500
3672		-5.859375
3673		-7.812500
3674		-3.906250
3675		-7.812500
3676		-3.906250
3677		-7.812500
3678		-3.906250
3679		-5.859375
3680		-3.906250
3681		-5.859375
3682		-1.953125
3683		-5.859375
3684		-1.953125
3685		-5.859375
3686		-1.953125
3687		-3.906250
3688		-1.953125
3689		-3.906250
3690		-1.953125
3691		-3.906250
3692		0.000000
3693		-3.906250
3694		0.000000
3695		-1.953125
3696		0.000000
3697		-1.953125
3698		0.000000
3699		-1.953125
3700		0.000000
3701		-1.953125
3702		1.953125
3703		-1.953125
3704		1.953125
3705		-1.953125
3706		1.953125
3707		0.000000
3708		1.953125
3709		0.000000
3710		3.906250
3711		0.000000
3712		3.906250
3713		0.000000
3714		3.906250
3715		1.953125
3716		3.906250
3717		1.953125
3718		3.906250
3719		1.953125
3720		5.859375
3721		1.953125
3722		5.859375
3723		1.953125
3724		5.859375
3725		3.906250
3726		5.859375
3727		3.906250
3728		5.859375
3729		3.906250
3730		7.812500
3731		3.906250
3732		7.812500
3733		5.859375
3734		7.812500
3735		5.859375
3736		7.812500
3737		5.859375
3738		7.812500
3739		5.859375
3740		9.765625
3741		5.859375
3742		9.765625
3743		5.859375
3744		9.765625
3745		7.812500
3746		9.765625
3747		7.812500
3748		9.765625
3749		7.812500
3750		11.718750
3751		7.812500
3752		11.718750
3753		7.812500
3754		11.718750
3755		7.812500
3756		11.718750
3757		9.765625
3758		11.718750
3759		9.765625
3760		11.718750
3761		9.765625
3762		11.718750
3763		9.765625
3764		11.718750
3765		9.765625
3766		13.671875
3767		9.765625
3768		13.671875
3769		9.765625
3770		13.671875
3771		9.765625
3772		13.671875
3773		9.765625
3774		13.671875
3775		9.765625
3776		13.671875
3777		11.718750
3778		13.671875
3779		11.718750
3780		13.671875
3781		11.718750
3782		13.671875
3783		11.718750
3784		15.625000
3785		11.718750
3786		13.671875
3787		11.718750
3788		15.625000
3789		11.718750
3790		15.625000
3791		11.718750
3792		15.625000
3793		11.718750
3794		15.625000
3795		11.718750
3796		15.625000
3797		11.718750
3798		15.625000
3799		11.718750
3800		15.625000
3801		11.718750
3802		15.625000
3803		13.671875
3804		15.625000
3805		11.718750
3806		15.625000
3807		13.671875
3808		15.625000
3809		13.671875
3810		15.625000
3811		11.718750
3812		15.625000
3813		13.671875
3814		15.625000
3815		13.671875
3816		15.625000
3817		13.671875
3818		15.625000
3819		13.671875
3820		15.625000
3821		13.671875
3822		15.625000
3823		13.671875
3824		15.625000
3825		13.671875
3826		15.625000
3827		11.718750
3828		15.625000
3829		11.718750
3830		15.625000
3831		11.718750
3832		15.625000
3833		11.718750
3834		15.625000
3835		11.718750
3836		15.625000
3837		11.718750
3838		15.625000
3839		11.718750
3840		15.625000
3841		11.718750
3842		15.625000
3843		11.718750
3844		15.625000
3845		11.718750
3846		13.671875
3847		11.718750
3848		13.671875
3849		11.718750
3850		13.671875
3851		9.765625
3852		13.671875
3853		11.718750
3854		13.671875
3855		9.765625
3856		13.671875
3857		9.765625
3858		13.671875
3859		9.765625
3860		13.671875
3861		9.765625
3862		13.671875
3863		9.765625
3864		11.718750
3865		9.765625
3866		11.718750
3867		9.765625
3868		11.718750
3869		7.812500
3870		11.718750
3871		9.765625
3872		11.718750
3873		7.812500
3874		11.718750
3875		7.812500
3876		11.718750
3877		7.812500
3878		9.765625
3879		7.812500
3880		9.765625
3881		7.812500
3882		9.765625
3883		5.859375
3884		9.765625
3885		5.859375
3886		9.765625
3887		5.859375
3888		9.765625
3889		5.859375
3890		7.812500
3891		5.859375
3892		7.812500
3893		5.859375
3894		7.812500
3895		3.906250
3896		7.812500
3897		3.906250
3898		7.812500
3899		3.906250
3900		7.812500
3901		3.906250
3902		5.859375
3903		3.906250
3904		5.859375
3905		1.953125
3906		5.859375
3907		1.953125
3908		5.859375
3909		1.953125
3910		5.859375
3911		1.953125
3912		3.906250
3913		1.953125
3914		3.906250
3915		0.000000
3916		3.906250
3917		0.000000
3918		3.906250
3919		0.000000
3920		1.953125
3921		0.000000
3922		1.953125
3923		-1.953125
3924		1.953125
3925		-1.953125
3926		1.953125
3927		-1.953125
3928		1.953125
3929		-1.953125
3930		1.953125
3931		-1.953125
3932		0.000000
3933		-3.906250
3934		0.000000
3935		-3.906250
3936		0.000000
3937		-3.906250
3938		0.000000
3939		-3.906250
3940		-1.953125
3941		-3.906250
3942		-1.953125
3943		-3.906250
3944		-1.953125
3945		-5.859375
3946		-1.953125
3947		-5.859375
3948		-3.906250
3949		-5.859375
3950		-3.906250
3951		-5.859375
3952		-3.906250
3953		-7.812500
3954		-3.906250
3955		-7.812500
3956		-3.906250
3957		-7.812500
3958		-5.859375
3959		-7.812500
3960		-5.859375
3961		-9.765625
3962		-5.859375
3963		-9.765625
3964		-5.859375
3965		-9.765625
3966		-5.859375
3967		-9.765625
3968		-7.812500
3969		-9.765625
3970		-7.812500
3971		-11.718750
3972		-7.812500
3973		-11.718750
3974		-7.812500
3975		-11.718750
3976		-7.812500
3977		-11.718750
3978		-9.765625
3979		-11.718750
3980		-9.765625
3981		-13.671875
3982		-9.765625
3983		-13.671875
3984		-9.765625
3985		-13.671875
3986		-9.765625
3987		-13.671875
3988		-11.718750
3989		-13.671875
3990		-11.718750
3991		-13.671875
3992		-11.718750
3993		-15.625000
3994		-11.718750
3995		-15.625000
3996		-11.718750
3997		-15.625000
3998		-11.718750
3999		-15.625000
4000		-13.671875
4001		-15.625000
4002		-13.671875
4003		-15.625000
4004		-13.671875
4005		-15.625000
4006		-13.671875
4007		-17.578125
4008		-13.671875
4009		-17.578125
4010		-13.671875
4011		-17.578125
4012		-13.671875
4013		-17.578125
4014		-13.671875
4015		-17.578125
4016		-15.625000
4017		-19.531250
4018		-13.671875
4019		-17.578125
4020		-15.625000
4021		-17.578125
4022		-15.625000
4023		-17.578125
4024		-15.625000
4025		-17.578125
4026		-15.625000
4027		-19.531250
4028		-15.625000
4029		-19.531250
4030		-15.625000
4031		-19.531250
4032		-15.625000
4033		-19.531250
4034		-15.625000
4035		-19.531250
4036		-15.625000
4037		-19.531250
4038		-15.625000
4039		-19.531250
4040		-15.625000
4041		-19.531250
4042		-15.625000
4043		-19.531250
4044		-15.625000
4045		-19.531250
4046		-15.625000
4047		-19.531250
4048		-15.625000
4049		-19.531250
4050		-15.625000
4051		-19.531250
4052		-15.625000
4053		-19.531250
4054		-15.625000
4055		-19.531250
4056		-15.625000
4057		-19.531250
4058		-15.625000
4059		-19.531250
4060		-15.625000
4061		-19.531250
4062		-15.625000
4063		-19.531250
4064		-15.625000
4065		-19.531250
4066		-15.625000
4067		-19.531250
4068		-15.625000
4069		-19.531250
4070		-15.625000
4071		-17.578125
4072		-15.625000
4073		-17.578125
4074		-15.625000
4075		-17.578125
4076		-15.625000
4077		-17.578125
4078		-15.625000
4079		-17.578125
4080		-15.625000
4081		-17.578125
4082		-15.625000
4083		-17.578125
4084		-13.671875
4085		-17.578125
4086		-13.671875
4087		-17.578125
4088		-13.671875
4089		-17.578125
4090		-13.671875
4091		-17.578125
4092		-13.671875
4093		-17.578125
4094		-13.671875
4095		-15.625000
4096		-13.671875
4097		-15.625000
4098		-11.718750
4099		-15.625000
4100		-13.671875
4101		-15.625000
4102		-11.718750
4103		-15.625000
4104		-11.718750
4105		-15.625000
4106		-11.718750
4107		-13.671875
4108		-11.718750
4109		-13.671875
4110		-11.718750
4111		-13.671875
4112		-9.765625
4113		-13.671875
4114		-9.765625
4115		-13.671875
4116		-9.765625
4117		-13.671875
4118		-9.765625
4119		-11.718750
4120		-9.765625
4121		-11.718750
4122		-9.765625
4123		-11.718750
4124		-7.812500
4125		-11.718750
4126		-7.812500
4127		-11.718750
4128		-7.812500
4129		-9.765625
4130		-7.812500
4131		-9.765625
4132		-5.859375
4133		-9.765625
4134		-5.859375
4135		-9.765625
4136		-5.859375
4137		-7.812500
4138		-5.859375
4139		-7.812500
4140		-5.859375
4141		-7.812500
4142		-5.859375
4143		-7.812500
4144		-3.906250
4145		-7.812500
4146		-3.906250
4147		-5.859375
4148		-3.906250
4149		-5.859375
4150		-3.906250
4151		-5.859375
4152		-3.906250
4153		-5.859375
4154		-1.953125
4155		-5.859375
4156		-1.953125
4157		-3.906250
4158		-1.953125
4159		-3.906250
4160		-1.953125
4161		-3.906250
4162		-1.953125
4163		-3.906250
4164		0.000000
4165		-1.953125
4166		0.000000
4167		-1.953125
4168		0.000000
4169		-1.953125
4170		0.000000
4171		-1.953125
4172		1.953125
4173		-1.953125
4174		1.953125
4175		0.000000
4176		1.953125
4177		0.000000
4178		1.953125
4179		0.000000
4180		1.953125
4181		0.000000
4182		3.906250
4183		1.953125
4184		3.906250
4185		1.953125
4186		3.906250
4187		1.953125
4188		5.859375
4189		1.953125
4190		5.859375
4191		1.953125
4192		5.859375
4193		1.953125
4194		5.859375
4195		3.906250
4196		5.859375
4197		3.906250
4198		5.859375
4199		3.906250
4200		7.812500
4201		3.906250
4202		7.812500
4203		3.906250
4204		7.812500
4205		5.859375
4206		7.812500
4207		5.859375
4208		7.812500
4209		5.859375
4210		9.765625
4211		5.859375
4212		9.765625
4213		5.859375
4214		9.765625
4215		5.859375
4216		9.765625
4217		5.859375
4218		11.718750
4219		7.812500
4220		11.718750
4221		7.812500
4222		11.718750
4223		5.859375
4224		11.718750
4225		7.812500
4226		11.718750
4227		7.812500
4228		11.718750
4229		9.765625
4230		11.718750
4231		9.765625
4232		11.718750
4233		9.765625
4234		11.718750
4235		7.812500
4236		13.671875
4237		9.765625
4238		13.671875
4239		7.812500
4240		13.671875
4241		9.765625
4242		13.671875
4243		9.765625
4244		15.625000
4245		11.718750
4246		13.671875
4247		9.765625
4248		15.625000
4249		9.765625
4250		13.671875
4251		9.765625
4252		15.625000
4253		11.718750
4254		15.625000
4255		11.718750
4256		15.625000
4257		11.718750
4258		15.625000
4259		9.765625
4260		17.578125
4261		11.718750
4262		15.625000
4263		11.718750
4264		15.625000
4265		11.718750
4266		15.625000
4267		11.718750
4268		15.625000
4269		11.718750
4270		15.625000
4271		11.718750
4272		15.625000
4273		11.718750
4274		15.625000
4275		11.718750
4276		17.578125
4277		13.671875
4278		15.625000
4279		13.671875
4280		15.625000
4281		11.718750
4282		15.625000
4283		9.765625
4284		19.531250
4285		11.718750
4286		17.578125
4287		11.718750
4288		15.625000
4289		11.718750
4290		17.578125
4291		13.671875
4292		15.625000
4293		9.765625
4294		19.531250
4295		13.671875
4296		15.625000
4297		13.671875
4298		15.625000
4299		9.765625
4300		17.578125
4301		9.765625
4302		17.578125
4303		11.718750
4304		15.625000
4305		11.718750
4306		15.625000
4307		9.765625
4308		19.531250
4309		9.765625
4310		17.578125
4311		11.718750
4312		15.625000
4313		11.718750
4314		15.625000
4315		9.765625
4316		15.625000
4317		9.765625
4318		17.578125
4319		9.765625
4320		15.625000
4321		11.718750
4322		15.625000
4323		7.812500
4324		15.625000
4325		11.718750
4326		13.671875
4327		9.765625
4328		17.578125
4329		9.765625
4330		13.671875
4331		9.765625
4332		13.671875
4333		5.859375
4334		15.625000
4335		9.765625
4336		13.671875
4337		9.765625
4338		11.718750
4339		7.812500
4340		13.671875
4341		5.859375
4342		15.625000
4343		5.859375
4344		13.671875
4345		7.812500
4346		11.718750
4347		7.812500
4348		11.718750
4349		5.859375
4350		11.718750
4351		3.906250
4352		13.671875
4353		5.859375
4354		9.765625
4355		7.812500
4356		9.765625
4357		3.906250
4358		11.718750
4359		3.906250
4360		11.718750
4361		3.906250
4362		11.718750
4363		5.859375
4364		9.765625
4365		3.906250
4366		7.812500
4367		1.953125
4368		9.765625
4369		1.953125
4370		7.812500
4371		3.906250
4372		7.812500
4373		1.953125
4374		9.765625
4375		0.000000
4376		9.765625
4377		0.000000
4378		7.812500
4379		1.953125
4380		5.859375
4381		1.953125
4382		5.859375
4383		0.000000
4384		7.812500
4385		0.000000
4386		7.812500
4387		1.953125
4388		3.906250
4389		0.000000
4390		3.906250
4391		-1.953125
4392		5.859375
4393		-1.953125
4394		3.906250
4395		0.000000
4396		1.953125
4397		-1.953125
4398		1.953125
4399		-1.953125
4400		1.953125
4401		-3.906250
4402		3.906250
4403		-3.906250
4404		1.953125
4405		-3.906250
4406		0.000000
4407		-5.859375
4408		1.953125
4409		-5.859375
4410		1.953125
4411		-5.859375
4412		1.953125
4413		-3.906250
4414		-1.953125
4415		-5.859375
4416		-1.953125
4417		-7.812500
4418		0.000000
4419		-7.812500
4420		0.000000
4421		-5.859375
4422		-3.906250
4423		-9.765625
4424		-3.906250
4425		-9.765625
4426		-1.953125
4427		-9.765625
4428		-3.906250
4429		-7.812500
4430		-5.859375
4431		-7.812500
4432		-5.859375
4433		-9.765625
4434		-3.906250
4435		-11.718750
4436		-3.906250
4437		-9.765625
4438		-3.906250
4439		-9.765625
4440		-7.812500
4441		-13.671875
4442		-3.906250
4443		-11.718750
4444		-7.812500
4445		-13.671875
4446		-3.906250
4447		-11.718750
4448		-7.812500
4449		-13.671875
4450		-7.812500
4451		-15.625000
4452		-5.859375
4453		-13.671875
4454		-7.812500
4455		-13.671875
4456		-9.765625
4457		-15.625000
4458		-7.812500
4459		-17.578125
4460		-7.812500
4461		-15.625000
4462		-7.812500
4463		-13.671875
4464		-11.718750
4465		-13.671875
4466		-11.718750
4467		-15.625000
4468		-9.765625
4469		-15.625000
4470		-11.718750
4471		-15.625000
4472		-11.718750
4473		-15.625000
4474		-11.718750
4475		-19.531250
4476		-9.765625
4477		-19.531250
4478		-11.718750
4479		-17.578125
4480		-13.671875
4481		-17.578125
4482		-13.671875
4483		-17.578125
4484		-13.671875
4485		-17.578125
4486		-13.671875
4487		-19.531250
4488		-13.671875
4489		-17.578125
4490		-13.671875
4491		-19.531250
4492		-13.671875
4493		-17.578125
4494		-15.625000
4495		-19.531250
4496		-11.718750
4497		-17.578125
4498		-15.625000
4499		-17.578125
4500		-15.625000
4501		-17.578125
4502		-15.625000
4503		-19.531250
4504		-13.671875
4505		-17.578125
4506		-15.625000
4507		-19.531250
4508		-13.671875
4509		-17.578125
4510		-15.625000
4511		-17.578125
4512		-15.625000
4513		-19.531250
4514		-15.625000
4515		-19.531250
4516		-15.625000
4517		-19.531250
4518		-15.625000
4519		-19.531250
4520		-15.625000
4521		-19.531250
4522		-13.671875
4523		-19.531250
4524		-15.625000
4525		-21.484375
4526		-13.671875
4527		-17.578125
4528		-15.625000
4529		-19.531250
4530		-15.625000
4531		-19.531250
4532		-15.625000
4533		-19.531250
4534		-15.625000
4535		-19.531250
4536		-15.625000
4537		-17.578125
4538		-15.625000
4539		-17.578125
4540		-15.625000
4541		-19.531250
4542		-15.625000
4543		-17.578125
4544		-15.625000
4545		-17.578125
4546		-15.625000
4547		-17.578125
4548		-15.625000
4549		-17.578125
4550		-15.625000
4551		-17.578125
4552		-13.671875
4553		-17.578125
4554		-13.671875
4555		-17.578125
4556		-13.671875
4557		-17.578125
4558		-13.671875
4559		-15.625000
4560		-13.671875
4561		-15.625000
4562		-13.671875
4563		-17.578125
4564		-13.671875
4565		-15.625000
4566		-13.671875
4567		-15.625000
4568		-11.718750
4569		-15.625000
4570		-11.718750
4571		-15.625000
4572		-11.718750
4573		-15.625000
4574		-11.718750
4575		-15.625000
4576		-9.765625
4577		-15.625000
4578		-9.765625
4579		-15.625000
4580		-9.765625
4581		-13.671875
4582		-9.765625
4583		-13.671875
4584		-9.765625
4585		-13.671875
4586		-7.812500
4587		-13.671875
4588		-7.812500
4589		-13.671875
4590		-7.812500
4591		-13.671875
4592		-7.812500
4593		-11.718750
4594		-7.812500
4595		-11.718750
4596		-7.812500
4597		-11.718750
4598		-7.812500
4599		-9.765625
4600		-7.812500
4601		-9.765625
4602		-5.859375
4603		-11.718750
4604		-5.859375
4605		-9.765625
4606		-5.859375
4607		-9.765625
4608		-3.906250
4609		-9.765625
4610		-3.906250
4611		-9.765625
4612		-3.906250
4613		-7.812500
4614		-3.906250
4615		-7.812500
4616		-3.906250
4617		-7.812500
4618		-1.953125
4619		-7.812500
4620		-1.953125
4621		-7.812500
4622		-1.953125
4623		-5.859375
4624		0.000000
4625		-5.859375
4626		0.000000
4627		-5.859375
4628		0.000000
4629		-5.859375
4630		0.000000
4631		-3.906250
4632		0.000000
4633		-3.906250
4634		0.000000
4635		-3.906250
4636		1.953125
4637		-1.953125
4638		0.000000
4639		-1.953125
4640		1.953125
4641		-3.906250
4642		1.953125
4643		-1.953125
4644		1.953125
4645		-1.953125
4646		3.906250
4647		-1.953125
4648		1.953125
4649		0.000000
4650		3.906250
4651		0.000000
4652		3.906250
4653		0.000000
4654		3.906250
4655		0.000000
4656		3.906250
4657		0.000000
4658		5.859375
4659		1.953125
4660		5.859375
4661		0.000000
4662		5.859375
4663		1.953125
4664		7.812500
4665		3.906250
4666		5.859375
4667		3.906250
4668		7.812500
4669		3.906250
4670		7.812500
4671		3.906250
4672		7.812500
4673		3.906250
4674		9.765625
4675		3.906250
4676		9.765625
4677		3.906250
4678		9.765625
4679		5.859375
4680		9.765625
4681		5.859375
4682		9.765625
4683		5.859375
4684		9.765625
4685		5.859375
4686		9.765625
4687		7.812500
4688		9.765625
4689		7.812500
4690		11.718750
4691		5.859375
4692		11.718750
4693		7.812500
4694		11.718750
4695		7.812500
4696		11.718750
4697		7.812500
4698		11.718750
4699		9.765625
4700		11.718750
4701		9.765625
4702		13.671875
4703		9.765625
4704		13.671875
4705		9.765625
4706		13.671875
4707		7.812500
4708		15.625000
4709		9.765625
4710		13.671875
4711		9.765625
4712		13.671875
4713		9.765625
4714		13.671875
4715		11.718750
4716		13.671875
4717		11.718750
4718		13.671875
4719		11.718750
4720		15.625000
4721		11.718750
4722		15.625000
4723		11.718750
4724		15.625000
4725		9.765625
4726		15.625000
4727		11.718750
4728		15.625000
4729		11.718750
4730		15.625000
4731		11.718750
4732		15.625000
4733		11.718750
4734		15.625000
4735		11.718750
4736		15.625000
4737		11.718750
4738		15.625000
4739		13.671875
4740		15.625000
4741		11.718750
4742		17.578125
4743		13.671875
4744		15.625000
4745		13.671875
4746		15.625000
4747		11.718750
4748		15.625000
4749		13.671875
4750		15.625000
4751		11.718750
4752		15.625000
4753		13.671875
4754		15.625000
4755		13.671875
4756		15.625000
4757		11.718750
4758		17.578125
4759		13.671875
4760		15.625000
4761		13.671875
4762		15.625000
4763		13.671875
4764		15.625000
4765		13.671875
4766		15.625000
4767		13.671875
4768		15.625000
4769		11.718750
4770		17.578125
4771		13.671875
4772		15.625000
4773		11.718750
4774		15.625000
4775		11.718750
4776		15.625000
4777		11.718750
4778		15.625000
4779		11.718750
4780		15.625000
4781		11.718750
4782		15.625000
4783		11.718750
4784		15.625000
4785		11.718750
4786		15.625000
4787		11.718750
4788		15.625000
4789		11.718750
4790		15.625000
4791		9.765625
4792		15.625000
4793		9.765625
4794		15.625000
4795		11.718750
4796		15.625000
4797		11.718750
4798		13.671875
4799		11.718750
4800		13.671875
4801		11.718750
4802		13.671875
4803		9.765625
4804		13.671875
4805		9.765625
4806		13.671875
4807		9.765625
4808		13.671875
4809		9.765625
4810		13.671875
4811		9.765625
4812		11.718750
4813		7.812500
4814		11.718750
4815		7.812500
4816		11.718750
4817		7.812500
4818		11.718750
4819		7.812500
4820		11.718750
4821		7.812500
4822		11.718750
4823		7.812500
4824		11.718750
4825		5.859375
4826		9.765625
4827		7.812500
4828		9.765625
4829		5.859375
4830		9.765625
4831		5.859375
4832		9.765625
4833		5.859375
4834		9.765625
4835		3.906250
4836		7.812500
4837		5.859375
4838		7.812500
4839		3.906250
4840		7.812500
4841		3.906250
4842		7.812500
4843		3.906250
4844		7.812500
4845		3.906250
4846		7.812500
4847		1.953125
4848		7.812500
4849		1.953125
4850		5.859375
4851		1.953125
4852		5.859375
4853		1.953125
4854		5.859375
4855		1.953125
4856		3.906250
4857		1.953125
4858		5.859375
4859		1.953125
4860		3.906250
4861		0.000000
4862		3.906250
4863		0.000000
4864		3.906250
4865		-1.953125
4866		3.906250
4867		0.000000
4868		1.953125
4869		-1.953125
4870		1.953125
4871		-1.953125
4872		1.953125
4873		-1.953125
4874		1.953125
4875		-1.953125
4876		0.000000
4877		-3.906250
4878		0.000000
4879		-3.906250
4880		0.000000
4881		-5.859375
4882		0.000000
4883		-3.906250
4884		-1.953125
4885		-3.906250
4886		-1.953125
4887		-5.859375
4888		-1.953125
4889		-5.859375
4890		-1.953125
4891		-5.859375
4892		-1.953125
4893		-5.859375
4894		-1.953125
4895		-7.812500
4896		-3.906250
4897		-7.812500
4898		-3.906250
4899		-7.812500
4900		-3.906250
4901		-7.812500
4902		-5.859375
4903		-7.812500
4904		-5.859375
4905		-9.765625
4906		-5.859375
4907		-9.765625
4908		-5.859375
4909		-9.765625
4910		-5.859375
4911		-9.765625
4912		-7.812500
4913		-9.765625
4914		-5.859375
4915		-11.718750
4916		-7.812500
4917		-11.718750
4918		-7.812500
4919		-11.718750
4920		-7.812500
4921		-11.718750
4922		-7.812500
4923		-11.718750
4924		-7.812500
4925		-13.671875
4926		-9.765625
4927		-13.671875
4928		-9.765625
4929		-13.671875
4930		-9.765625
4931		-13.671875
4932		-9.765625
4933		-13.671875
4934		-9.765625
4935		-13.671875
4936		-11.718750
4937		-13.671875
4938		-11.718750
4939		-15.625000
4940		-11.718750
4941		-15.625000
4942		-11.718750
4943		-15.625000
4944		-11.718750
4945		-15.625000
4946		-11.718750
4947		-15.625000
4948		-11.718750
4949		-15.625000
4950		-13.671875
4951		-15.625000
4952		-13.671875
4953		-17.578125
4954		-13.671875
4955		-17.578125
4956		-13.671875
4957		-17.578125
4958		-13.671875
4959		-17.578125
4960		-13.671875
4961		-17.578125
4962		-13.671875
4963		-17.578125
4964		-13.671875
4965		-17.578125
4966		-13.671875
4967		-17.578125
4968		-15.625000
4969		-17.578125
4970		-13.671875
4971		-19.531250
4972		-15.625000
4973		-17.578125
4974		-15.625000
4975		-17.578125
4976		-15.625000
4977		-19.531250
4978		-15.625000
4979		-19.531250
4980		-15.625000
4981		-19.531250
4982		-15.625000
4983		-17.578125
4984		-15.625000
4985		-19.531250
4986		-15.625000
4987		-19.531250
4988		-13.671875
4989		-19.531250
4990		-15.625000
4991		-19.531250
4992		-15.625000
4993		-19.531250
4994		-15.625000
4995		-19.531250
4996		-15.625000
4997		-19.531250
4998		-15.625000
4999		-19.531250
5000		-15.625000
5001		-19.531250
5002		-15.625000
5003		-19.531250
5004		-15.625000
5005		-19.531250
5006		-13.671875
5007		-19.531250
5008		-15.625000
5009		-17.578125
5010		-15.625000
5011		-17.578125
5012		-15.625000
5013		-17.578125
5014		-13.671875
5015		-17.578125
5016		-15.625000
5017		-17.578125
5018		-13.671875
5019		-17.578125
5020		-13.671875
5021		-17.578125
5022		-13.671875
5023		-17.578125
5024		-13.671875
5025		-17.578125
5026		-13.671875
5027		-17.578125
5028		-13.671875
5029		-17.578125
5030		-13.671875
5031		-17.578125
5032		-13.671875
5033		-15.625000
5034		-11.718750
5035		-15.625000
5036		-13.671875
5037		-17.578125
5038		-11.718750
5039		-15.625000
5040		-11.718750
5041		-15.625000
5042		-11.718750
5043		-15.625000
5044		-11.718750
5045		-13.671875
5046		-11.718750
5047		-15.625000
5048		-11.718750
5049		-13.671875
5050		-9.765625
5051		-13.671875
5052		-9.765625
5053		-13.671875
5054		-9.765625
5055		-13.671875
5056		-9.765625
5057		-11.718750
5058		-9.765625
5059		-11.718750
5060		-7.812500
5061		-11.718750
5062		-7.812500
5063		-11.718750
5064		-7.812500
5065		-11.718750
5066		-7.812500
5067		-11.718750
5068		-7.812500
5069		-9.765625
5070		-7.812500
5071		-9.765625
5072		-5.859375
5073		-9.765625
5074		-5.859375
5075		-9.765625
5076		-5.859375
5077		-9.765625
5078		-3.906250
5079		-7.812500
5080		-5.859375
5081		-7.812500
5082		-3.906250
5083		-7.812500
5084		-3.906250
5085		-7.812500
5086		-3.906250
5087		-5.859375
5088		-3.906250
5089		-7.812500
5090		-3.906250
5091		-5.859375
5092		-1.953125
5093		-5.859375
5094		-1.953125
5095		-5.859375
5096		-1.953125
5097		-3.906250
5098		-1.953125
5099		-3.906250
5100		0.000000
5101		-3.906250
5102		0.000000
5103		-3.906250
5104		0.000000
5105		-3.906250
5106		0.000000
5107		-1.953125
5108		1.953125
5109		-1.953125
5110		1.953125
5111		-1.953125
5112		1.953125
5113		-1.953125
5114		1.953125
5115		0.000000
5116		3.906250
5117		0.000000
5118		3.906250
5119		0.000000
5120		3.906250
5121		0.000000
5122		3.906250
5123		1.953125
5124		3.906250
5125		1.953125
5126		3.906250
5127		1.953125
5128		5.859375
5129		1.953125
5130		5.859375
5131		1.953125
5132		5.859375
5133		1.953125
5134		5.859375
5135		3.906250
5136		5.859375
5137		3.906250
5138		7.812500
5139		3.906250
5140		7.812500
5141		3.906250
5142		7.812500
5143		3.906250
5144		7.812500
5145		3.906250
5146		9.765625
5147		5.859375
5148		9.765625
5149		5.859375
5150		9.765625
5151		5.859375
5152		9.765625
5153		5.859375
5154		9.765625
5155		7.812500
5156		9.765625
5157		7.812500
5158		11.718750
5159		7.812500
5160		11.718750
5161		7.812500
5162		11.718750
5163		7.812500
5164		11.718750
5165		7.812500
5166		11.718750
5167		9.765625
5168		13.671875
5169		9.765625
5170		11.718750
5171		9.765625
5172		11.718750
5173		9.765625
5174		13.671875
5175		9.765625
5176		13.671875
5177		9.765625
5178		13.671875
5179		9.765625
5180		13.671875
5181		11.718750
5182		13.671875
5183		9.765625
5184		13.671875
5185		9.765625
5186		13.671875
5187		11.718750
5188		13.671875
5189		11.718750
5190		15.625000
5191		11.718750
5192		15.625000
5193		11.718750
5194		15.625000
5195		11.718750
5196		15.625000
5197		11.718750
5198		15.625000
5199		13.671875
5200		15.625000
5201		11.718750
5202		15.625000
5203		13.671875
5204		15.625000
5205		13.671875
5206		15.625000
5207		13.671875
5208		15.625000
5209		13.671875
5210		17.578125
5211		13.671875
5212		15.625000
5213		13.671875
5214		15.625000
5215		13.671875
5216		15.625000
5217		13.671875
5218		17.578125
5219		13.671875
5220		15.625000
5221		13.671875
5222		15.625000
5223		13.671875
5224		17.578125
5225		13.671875
5226		17.578125
5227		13.671875
5228		17.578125
5229		13.671875
5230		17.578125
5231		13.671875
5232		17.578125
5233		13.671875
5234		17.578125
5235		13.671875
5236		17.578125
5237		13.671875
5238		17.578125
5239		13.671875
5240		17.578125
5241		13.671875
5242		15.625000
5243		13.671875
5244		17.578125
5245		11.718750
5246		17.578125
5247		13.671875
5248		17.578125
5249		11.718750
5250		15.625000
5251		11.718750
5252		17.578125
5253		11.718750
5254		15.625000
5255		11.718750
5256		15.625000
5257		11.718750
5258		15.625000
5259		11.718750
5260		15.625000
5261		11.718750
5262		15.625000
5263		11.718750
5264		15.625000
5265		11.718750
5266		15.625000
5267		11.718750
5268		15.625000
5269		9.765625
5270		15.625000
5271		11.718750
5272		13.671875
5273		11.718750
5274		15.625000
5275		9.765625
5276		13.671875
5277		9.765625
5278		13.671875
5279		9.765625
5280		13.671875
5281		9.765625
5282		13.671875
5283		9.765625
5284		13.671875
5285		7.812500
5286		13.671875
5287		9.765625
5288		11.718750
5289		9.765625
5290		11.718750
5291		7.812500
5292		11.718750
5293		7.812500
5294		11.718750
5295		7.812500
5296		11.718750
5297		7.812500
5298		11.718750
5299		7.812500
5300		11.718750
5301		5.859375
5302		9.765625
5303		7.812500
5304		9.765625
5305		5.859375
5306		9.765625
5307		5.859375
5308		9.765625
5309		5.859375
5310		9.765625
5311		5.859375
5312		9.765625
5313		5.859375
5314		7.812500
5315		3.906250
5316		7.812500
5317		3.906250
5318		7.812500
5319		3.906250
5320		7.812500
5321		3.906250
5322		5.859375
5323		1.953125
5324		5.859375
5325		1.953125
5326		5.859375
5327		1.953125
5328		5.859375
5329		1.953125
5330		3.906250
5331		1.953125
5332		3.906250
5333		1.953125
5334		3.906250
5335		0.000000
5336		3.906250
5337		0.000000
5338		3.906250
5339		0.000000
5340		1.953125
5341		0.000000
5342		1.953125
5343		-1.953125
5344		1.953125
5345		-1.953125
5346		1.953125
5347		-1.953125
5348		1.953125
5349		-1.953125
5350		0.000000
5351		-3.906250
5352		0.000000
5353		-3.906250
5354		0.000000
5355		-3.906250
5356		0.000000
5357		-3.906250
5358		0.000000
5359		-3.906250
5360		-1.953125
5361		-5.859375
5362		-1.953125
5363		-5.859375
5364		-1.953125
5365		-5.859375
5366		-1.953125
5367		-5.859375
5368		-3.906250
5369		-7.812500
5370		-3.906250
5371		-7.812500
5372		-3.906250
5373		-7.812500
5374		-3.906250
5375		-7.812500
5376		-3.906250
5377		-7.812500
5378		-3.906250
5379		-9.765625
5380		-5.859375
5381		-9.765625
5382		-5.859375
5383		-9.765625
5384		-5.859375
5385		-9.765625
5386		-5.859375
5387		-9.765625
5388		-5.859375
5389		-9.765625
5390		-7.812500
5391		-11.718750
5392		-7.812500
5393		-11.718750
5394		-7.812500
5395		-11.718750
5396		-7.812500
5397		-11.718750
5398		-9.765625
5399		-13.671875
5400		-9.765625
5401		-13.671875
5402		-9.765625
5403		-13.671875
5404		-9.765625
5405		-13.671875
5406		-9.765625
5407		-13.671875
5408		-9.765625
5409		-13.671875
5410		-11.718750
5411		-13.671875
5412		-9.765625
5413		-13.671875
5414		-11.718750
5415		-15.625000
5416		-11.718750
5417		-15.625000
5418		-11.718750
5419		-17.578125
5420		-11.718750
5421		-15.625000
5422		-11.718750
5423		-15.625000
5424		-13.671875
5425		-15.625000
5426		-11.718750
5427		-15.625000
5428		-13.671875
5429		-17.578125
5430		-13.671875
5431		-17.578125
5432		-13.671875
5433		-17.578125
5434		-13.671875
5435		-17.578125
5436		-13.671875
5437		-17.578125
5438		-13.671875
5439		-17.578125
5440		-13.671875
5441		-17.578125
5442		-13.671875
5443		-17.578125
5444		-13.671875
5445		-17.578125
5446		-13.671875
5447		-17.578125
5448		-15.625000
5449		-17.578125
5450		-13.671875
5451		-17.578125
5452		-13.671875
5453		-17.578125
5454		-13.671875
5455		-17.578125
5456		-15.625000
5457		-17.578125
5458		-15.625000
5459		-17.578125
5460		-15.625000
5461		-17.578125
5462		-13.671875
5463		-17.578125
5464		-15.625000
5465		-17.578125
5466		-15.625000
5467		-17.578125
5468		-13.671875
5469		-19.531250
5470		-15.625000
5471		-17.578125
5472		-15.625000
5473		-17.578125
5474		-13.671875
5475		-17.578125
5476		-13.671875
5477		-17.578125
5478		-13.671875
5479		-17.578125
5480		-13.671875
5481		-17.578125
5482		-13.671875
5483		-17.578125
5484		-13.671875
5485		-17.578125
5486		-13.671875
5487		-17.578125
5488		-13.671875
5489		-17.578125
5490		-13.671875
5491		-17.578125
5492		-13.671875
5493		-17.578125
5494		-13.671875
5495		-17.578125
5496		-11.718750
5497		-15.625000
5498		-11.718750
5499		-15.625000
5500		-11.718750
5501		-15.625000
5502		-11.718750
5503		-15.625000
5504		-11.718750
5505		-15.625000
5506		-11.718750
5507		-15.625000
5508		-11.718750
5509		-15.625000
5510		-9.765625
5511		-15.625000
5512		-9.765625
5513		-13.671875
5514		-11.718750
5515		-13.671875
5516		-9.765625
5517		-13.671875
5518		-9.765625
5519		-13.671875
5520		-9.765625
5521		-13.671875
5522		-9.765625
5523		-11.718750
5524		-9.765625
5525		-13.671875
5526		-7.812500
5527		-11.718750
5528		-7.812500
5529		-11.718750
5530		-7.812500
5531		-11.718750
5532		-7.812500
5533		-11.718750
5534		-7.812500
5535		-9.765625
5536		-7.812500
5537		-9.765625
5538		-5.859375
5539		-9.765625
5540		-5.859375
5541		-9.765625
5542		-5.859375
5543		-9.765625
5544		-5.859375
5545		-9.765625
5546		-5.859375
5547		-7.812500
5548		-5.859375
5549		-7.812500
5550		-3.906250
5551		-7.812500
5552		-3.906250
5553		-7.812500
5554		-3.906250
5555		-5.859375
5556		-1.953125
5557		-5.859375
5558		-1.953125
5559		-5.859375
5560		-1.953125
5561		-5.859375
5562		-1.953125
5563		-5.859375
5564		-1.953125
5565		-3.906250
5566		0.000000
5567		-3.906250
5568		0.000000
5569		-3.906250
5570		0.000000
5571		-3.906250
5572		1.953125
5573		-1.953125
5574		0.000000
5575		-3.906250
5576		1.953125
5577		-1.953125
5578		1.953125
5579		-1.953125
5580		1.953125
5581		-1.953125
5582		1.953125
5583		0.000000
5584		3.906250
5585		0.000000
5586		3.906250
5587		0.000000
5588		3.906250
5589		0.000000
5590		3.906250
5591		1.953125
5592		3.906250
5593		1.953125
5594		5.859375
5595		1.953125
5596		5.859375
5597		1.953125
5598		5.859375
5599		3.906250
5600		5.859375
5601		1.953125
5602		7.812500
5603		3.906250
5604		7.812500
5605		3.906250
5606		7.812500
5607		3.906250
5608		7.812500
5609		3.906250
5610		7.812500
5611		3.906250
5612		7.812500
5613		5.859375
5614		9.765625
5615		5.859375
5616		9.765625
5617		5.859375
5618		9.765625
5619		7.812500
5620		9.765625
5621		5.859375
5622		9.765625
5623		7.812500
5624		9.765625
5625		7.812500
5626		11.718750
5627		7.812500
5628		11.718750
5629		7.812500
5630		11.718750
5631		7.812500
5632		11.718750
5633		9.765625
5634		11.718750
5635		7.812500
5636		13.671875
5637		9.765625
5638		13.671875
5639		9.765625
5640		13.671875
5641		9.765625
5642		13.671875
5643		9.765625
5644		13.671875
5645		9.765625
5646		13.671875
5647		11.718750
5648		13.671875
5649		11.718750
5650		13.671875
5651		11.718750
5652		15.625000
5653		11.718750
5654		15.625000
5655		11.718750
5656		15.625000
5657		11.718750
5658		15.625000
5659		11.718750
5660		15.625000
5661		11.718750
5662		15.625000
5663		11.718750
5664		15.625000
5665		13.671875
5666		15.625000
5667		11.718750
5668		15.625000
5669		13.671875
5670		15.625000
5671		13.671875
5672		17.578125
5673		13.671875
5674		17.578125
5675		13.671875
5676		17.578125
5677		13.671875
5678		17.578125
5679		13.671875
5680		17.578125
5681		13.671875
5682		17.578125
5683		13.671875
5684		17.578125
5685		13.671875
5686		17.578125
5687		13.671875
5688		17.578125
5689		13.671875
5690		17.578125
5691		13.671875
5692		17.578125
5693		13.671875
5694		17.578125
5695		13.671875
5696		17.578125
5697		13.671875
5698		17.578125
5699		13.671875
5700		17.578125
5701		13.671875
5702		17.578125
5703		13.671875
5704		17.578125
5705		13.671875
5706		17.578125
5707		13.671875
5708		17.578125
5709		13.671875
5710		17.578125
5711		15.625000
5712		17.578125
5713		13.671875
5714		17.578125
5715		13.671875
5716		17.578125
5717		13.671875
5718		17.578125
5719		13.671875
5720		17.578125
5721		13.671875
5722		17.578125
5723		13.671875
5724		15.625000
5725		13.671875
5726		17.578125
5727		13.671875
5728		17.578125
5729		13.671875
5730		15.625000
5731		13.671875
5732		15.625000
5733		13.671875
5734		15.625000
5735		11.718750
5736		15.625000
5737		13.671875
5738		15.625000
5739		11.718750
5740		15.625000
5741		11.718750
5742		15.625000
5743		11.718750
5744		15.625000
5745		11.718750
5746		15.625000
5747		11.718750
5748		15.625000
5749		9.765625
5750		13.671875
5751		9.765625
5752		13.671875
5753		11.718750
5754		13.671875
5755		9.765625
5756		15.625000
5757		9.765625
5758		13.671875
5759		9.765625
5760		13.671875
5761		9.765625
5762		13.671875
5763		9.765625
5764		13.671875
5765		9.765625
5766		11.718750
5767		7.812500
5768		11.718750
5769		7.812500
5770		11.718750
5771		7.812500
5772		11.718750
5773		7.812500
5774		11.718750
5775		7.812500
5776		11.718750
5777		5.859375
5778		9.765625
5779		5.859375
5780		9.765625
5781		5.859375
5782		9.765625
5783		5.859375
5784		9.765625
5785		5.859375
5786		9.765625
5787		5.859375
5788		7.812500
5789		3.906250
5790		7.812500
5791		3.906250
5792		7.812500
5793		3.906250
5794		7.812500
5795		3.906250
5796		7.812500
5797		3.906250
5798		7.812500
5799		1.953125
5800		5.859375
5801		1.953125
5802		5.859375
5803		1.953125
5804		5.859375
5805		1.953125
5806		5.859375
5807		1.953125
5808		3.906250
5809		0.000000
5810		3.906250
5811		0.000000
5812		3.906250
5813		0.000000
5814		3.906250
5815		0.000000
5816		1.953125
5817		0.000000
5818		1.953125
5819		-1.953125
5820		1.953125
5821		-1.953125
5822		1.953125
5823		-1.953125
5824		1.953125
5825		-1.953125
5826		0.000000
5827		-3.906250
5828		0.000000
5829		-3.906250
5830		0.000000
5831		-3.906250
5832		0.000000
5833		-3.906250
5834		-1.953125
5835		-5.859375
5836		-1.953125
5837		-5.859375
5838		-1.953125
5839		-5.859375
5840		-1.953125
5841		-5.859375
5842		-1.953125
5843		-5.859375
5844		-3.906250
5845		-7.812500
5846		-3.906250
5847		-7.812500
5848		-3.906250
5849		-7.812500
5850		-3.906250
5851		-7.812500
5852		-5.859375
5853		-7.812500
5854		-5.859375
5855		-9.765625
5856		-5.859375
5857		-9.765625
5858		-3.906250
5859		-9.765625
5860		-5.859375
5861		-9.765625
5862		-7.812500
5863		-9.765625
5864		-7.812500
5865		-9.765625
5866		-7.812500
5867		-11.718750
5868		-7.812500
5869		-11.718750
5870		-7.812500
5871		-11.718750
5872		-7.812500
5873		-11.718750
5874		-7.812500
5875		-11.718750
5876		-9.765625
5877		-13.671875
5878		-9.765625
5879		-13.671875
5880		-9.765625
5881		-13.671875
5882		-9.765625
5883		-13.671875
5884		-9.765625
5885		-13.671875
5886		-11.718750
5887		-15.625000
5888		-11.718750
5889		-15.625000
5890		-11.718750
5891		-15.625000
5892		-11.718750
5893		-13.671875
5894		-11.718750
5895		-15.625000
5896		-11.718750
5897		-15.625000
5898		-11.718750
5899		-15.625000
5900		-11.718750
5901		-15.625000
5902		-13.671875
5903		-15.625000
5904		-13.671875
5905		-15.625000
5906		-13.671875
5907		-17.578125
5908		-11.718750
5909		-15.625000
5910		-13.671875
5911		-17.578125
5912		-13.671875
5913		-17.578125
5914		-13.671875
5915		-17.578125
5916		-13.671875
5917		-17.578125
5918		-13.671875
5919		-17.578125
5920		-13.671875
5921		-17.578125
5922		-13.671875
5923		-17.578125
5924		-13.671875
5925		-17.578125
5926		-13.671875
5927		-17.578125
5928		-13.671875
5929		-17.578125
5930		-13.671875
5931		-17.578125
5932		-13.671875
5933		-17.578125
5934		-13.671875
5935		-17.578125
5936		-13.671875
5937		-17.578125
5938		-13.671875
5939		-17.578125
5940		-13.671875
5941		-17.578125
5942		-13.671875
5943		-17.578125
5944		-13.671875
5945		-17.578125
5946		-13.671875
5947		-17.578125
5948		-13.671875
5949		-17.578125
5950		-13.671875
5951		-17.578125
5952		-13.671875
5953		-17.578125
5954		-13.671875
5955		-17.578125
5956		-13.671875
5957		-17.578125
5958		-13.671875
5959		-15.625000
5960		-13.671875
5961		-15.625000
5962		-13.671875
5963		-17.578125
5964		-11.718750
5965		-15.625000
5966		-13.671875
5967		-15.625000
5968		-11.718750
5969		-15.625000
5970		-11.718750
5971		-15.625000
5972		-11.718750
5973		-15.625000
5974		-11.718750
5975		-15.625000
5976		-11.718750
5977		-13.671875
5978		-11.718750
5979		-15.625000
5980		-9.765625
5981		-13.671875
5982		-11.718750
5983		-13.671875
5984		-9.765625
5985		-13.671875
5986		-9.765625
5987		-13.671875
5988		-9.765625
5989		-13.671875
5990		-9.765625
5991		-13.671875
5992		-9.765625
5993		-11.718750
5994		-9.765625
5995		-11.718750
5996		-7.812500
5997		-11.718750
5998		-7.812500
5999		-11.718750
6000		-7.812500
6001		-11.718750
6002		-7.812500
6003		-9.765625
6004		-7.812500
6005		-9.765625
6006		-7.812500
6007		-11.718750
6008		-5.859375
6009		-9.765625
6010		-5.859375
6011		-7.812500
6012		-5.859375
6013		-9.765625
6014		-5.859375
6015		-7.812500
6016		-3.906250
6017		-7.812500
6018		-3.906250
6019		-7.812500
6020		-3.906250
6021		-7.812500
6022		-3.906250
6023		-5.859375
6024		-3.906250
6025		-5.859375
6026		-3.906250
6027		-5.859375
6028		-3.906250
6029		-5.859375
6030		-1.953125
6031		-3.906250
6032		-1.953125
6033		-5.859375
6034		-1.953125
6035		-3.906250
6036		0.000000
6037		-3.906250
6038		0.000000
6039		-3.906250
6040		0.000000
6041		-3.906250
6042		0.000000
6043		-1.953125
6044		0.000000
6045		-1.953125
6046		1.953125
6047		-1.953125
6048		1.953125
6049		-1.953125
6050		1.953125
6051		0.000000
6052		3.906250
6053		0.000000
6054		3.906250
6055		0.000000
6056		3.906250
6057		0.000000
6058		3.906250
6059		0.000000
6060		3.906250
6061		1.953125
6062		3.906250
6063		1.953125
6064		5.859375
6065		1.953125
6066		5.859375
6067		1.953125
6068		5.859375
6069		3.906250
6070		5.859375
6071		1.953125
6072		7.812500
6073		3.906250
6074		7.812500
6075		3.906250
6076		7.812500
6077		3.906250
6078		7.812500
6079		3.906250
6080		9.765625
6081		3.906250
6082		9.765625
6083		5.859375
6084		9.765625
6085		5.859375
6086		9.765625
6087		5.859375
6088		9.765625
6089		5.859375
6090		9.765625
6091		5.859375
6092		11.718750
6093		7.812500
6094		11.718750
6095		7.812500
6096		11.718750
6097		7.812500
6098		11.718750
6099		7.812500
6100		11.718750
6101		9.765625
6102		11.718750
6103		9.765625
6104		11.718750
6105		9.765625
6106		13.671875
6107		9.765625
6108		13.671875
6109		9.765625
6110		13.671875
6111		9.765625
6112		13.671875
6113		9.765625
6114		15.625000
6115		9.765625
6116		13.671875
6117		9.765625
6118		15.625000
6119		11.718750
6120		15.625000
6121		11.718750
6122		15.625000
6123		11.718750
6124		15.625000
6125		11.718750
6126		15.625000
6127		11.718750
6128		15.625000
6129		11.718750
6130		17.578125
6131		13.671875
6132		15.625000
6133		13.671875
6134		15.625000
6135		13.671875
6136		17.578125
6137		13.671875
6138		15.625000
6139		13.671875
6140		15.625000
6141		13.671875
6142		17.578125
6143		13.671875
6144		17.578125
6145		13.671875
6146		17.578125
6147		13.671875
6148		17.578125
6149		13.671875
6150		17.578125
6151		13.671875
6152		17.578125
6153		13.671875
6154		17.578125
6155		13.671875
6156		17.578125
6157		13.671875
6158		17.578125
6159		15.625000
6160		17.578125
6161		15.625000
6162		17.578125
6163		13.671875
6164		17.578125
6165		13.671875
6166		17.578125
6167		15.625000
6168		17.578125
6169		15.625000
6170		17.578125
6171		15.625000
6172		17.578125
6173		13.671875
6174		17.578125
6175		15.625000
6176		17.578125
6177		13.671875
6178		17.578125
6179		15.625000
6180		17.578125
6181		13.671875
6182		17.578125
6183		13.671875
6184		17.578125
6185		13.671875
6186		17.578125
6187		13.671875
6188		17.578125
6189		13.671875
6190		17.578125
6191		13.671875
6192		17.578125
6193		13.671875
6194		17.578125
6195		13.671875
6196		17.578125
6197		13.671875
6198		17.578125
6199		13.671875
6200		17.578125
6201		13.671875
6202		15.625000
6203		13.671875
6204		15.625000
6205		11.718750
6206		17.578125
6207		13.671875
6208		15.625000
6209		11.718750
6210		15.625000
6211		11.718750
6212		15.625000
6213		11.718750
6214		15.625000
6215		11.718750
6216		15.625000
6217		11.718750
6218		15.625000
6219		11.718750
6220		15.625000
6221		11.718750
6222		15.625000
6223		11.718750
6224		15.625000
6225		11.718750
6226		15.625000
6227		9.765625
6228		13.671875
6229		9.765625
6230		13.671875
6231		9.765625
6232		13.671875
6233		9.765625
6234		11.718750
6235		9.765625
6236		11.718750
6237		7.812500
6238		13.671875
6239		7.812500
6240		11.718750
6241		7.812500
6242		11.718750
6243		7.812500
6244		11.718750
6245		7.812500
6246		11.718750
6247		5.859375
6248		11.718750
6249		7.812500
6250		9.765625
6251		5.859375
6252		9.765625
6253		5.859375
6254		9.765625
6255		5.859375
6256		9.765625
6257		5.859375
6258		7.812500
6259		5.859375
6260		7.812500
6261		3.906250
6262		7.812500
6263		3.906250
6264		7.812500
6265		3.906250
6266		7.812500
6267		3.906250
6268		7.812500
6269		1.953125
6270		5.859375
6271		1.953125
6272		5.859375
6273		1.953125
6274		5.859375
6275		1.953125
6276		5.859375
6277		1.953125
6278		5.859375
6279		1.953125
6280		3.906250
6281		0.000000
6282		3.906250
6283		0.000000
6284		3.906250
6285		0.000000
6286		3.906250
6287		0.000000
6288		3.906250
6289		0.000000
6290		1.953125
6291		-1.953125
6292		1.953125
6293		-1.953125
6294		1.953125
6295		-1.953125
6296		1.953125
6297		-1.953125
6298		0.000000
6299		-3.906250
6300		0.000000
6301		-3.906250
6302		0.000000
6303		-3.906250
6304		0.000000
6305		-3.906250
6306		-1.953125
6307		-5.859375
6308		-1.953125
6309		-5.859375
6310		-1.953125
6311		-5.859375
6312		-1.953125
6313		-5.859375
6314		-3.906250
6315		-7.812500
6316		-1.953125
6317		-7.812500
6318		-3.906250
6319		-7.812500
6320		-3.906250
6321		-7.812500
6322		-3.906250
6323		-7.812500
6324		-5.859375
6325		-9.765625
6326		-5.859375
6327		-9.765625
6328		-5.859375
6329		-9.765625
6330		-5.859375
6331		-9.765625
6332		-5.859375
6333		-9.765625
6334		-5.859375
6335		-9.765625
6336		-7.812500
6337		-11.718750
6338		-7.812500
6339		-11.718750
6340		-7.812500
6341		-11.718750
6342		-7.812500
6343		-11.718750
6344		-7.812500
6345		-11.718750
6346		-9.765625
6347		-11.718750
6348		-9.765625
6349		-13.671875
6350		-9.765625
6351		-13.671875
6352		-9.765625
6353		-13.671875
6354		-9.765625
6355		-13.671875
6356		-9.765625
6357		-13.671875
6358		-9.765625
6359		-13.671875
6360		-11.718750
6361		-15.625000
6362		-9.765625
6363		-13.671875
6364		-11.718750
6365		-15.625000
6366		-9.765625
6367		-15.625000
6368		-11.718750
6369		-15.625000
6370		-11.718750
6371		-15.625000
6372		-11.718750
6373		-15.625000
6374		-11.718750
6375		-15.625000
6376		-13.671875
6377		-15.625000
6378		-13.671875
6379		-15.625000
6380		-13.671875
6381		-15.625000
6382		-13.671875
6383		-17.578125
6384		-13.671875
6385		-15.625000
6386		-13.671875
6387		-17.578125
6388		-13.671875
6389		-17.578125
6390		-13.671875
6391		-17.578125
6392		-13.671875
6393		-17.578125
6394		-13.671875
6395		-17.578125
6396		-13.671875
6397		-17.578125
6398		-13.671875
6399		-17.578125
6400		-13.671875
6401		-17.578125
6402		-13.671875
6403		-17.578125
6404		-13.671875
6405		-17.578125
6406		-13.671875
6407		-17.578125
6408		-13.671875
6409		-17.578125
6410		-13.671875
6411		-17.578125
6412		-13.671875
6413		-17.578125
6414		-13.671875
6415		-17.578125
6416		-13.671875
6417		-17.578125
6418		-13.671875
6419		-17.578125
6420		-13.671875
6421		-17.578125
6422		-13.671875
6423		-17.578125
6424		-11.718750
6425		-17.578125
6426		-11.718750
6427		-15.625000
6428		-13.671875
6429		-15.625000
6430		-13.671875
6431		-15.625000
6432		-13.671875
6433		-15.625000
6434		-11.718750
6435		-15.625000
6436		-11.718750
6437		-15.625000
6438		-11.718750
6439		-15.625000
6440		-11.718750
6441		-15.625000
6442		-11.718750
6443		-15.625000
6444		-11.718750
6445		-13.671875
6446		-11.718750
6447		-13.671875
6448		-11.718750
6449		-15.625000
6450		-9.765625
6451		-15.625000
6452		-9.765625
6453		-13.671875
6454		-9.765625
6455		-13.671875
6456		-9.765625
6457		-13.671875
6458		-9.765625
6459		-13.671875
6460		-9.765625
6461		-11.718750
6462		-9.765625
6463		-11.718750
6464		-9.765625
6465		-11.718750
6466		-9.765625
6467		-11.718750
6468		-7.812500
6469		-11.718750
6470		-7.812500
6471		-11.718750
6472		-7.812500
6473		-9.765625
6474		-7.812500
6475		-9.765625
6476		-7.812500
6477		-9.765625
6478		-5.859375
6479		-9.765625
6480		-5.859375
6481		-9.765625
6482		-5.859375
6483		-9.765625
6484		-5.859375
6485		-7.812500
6486		-5.859375
6487		-7.812500
6488		-3.906250
6489		-7.812500
6490		-3.906250
6491		-7.812500
6492		-3.906250
6493		-7.812500
6494		-3.906250
6495		-5.859375
6496		-1.953125
6497		-5.859375
6498		-1.953125
6499		-5.859375
6500		-1.953125
6501		-5.859375
6502		-1.953125
6503		-3.906250
6504		-1.953125
6505		-3.906250
6506		0.000000
6507		-3.906250
6508		0.000000
6509		-3.906250
6510		0.000000
6511		-3.906250
6512		0.000000
6513		-1.953125
6514		0.000000
6515		-1.953125
6516		1.953125
6517		-1.953125
6518		1.953125
6519		-1.953125
6520		1.953125
6521		0.000000
6522		1.953125
6523		0.000000
6524		1.953125
6525		0.000000
6526		3.906250
6527		0.000000
6528		3.906250
6529		0.000000
6530		3.906250
6531		1.953125
6532		3.906250
6533		1.953125
6534		5.859375
6535		1.953125
6536		5.859375
6537		1.953125
6538		5.859375
6539		3.906250
6540		5.859375
6541		1.953125
6542		7.812500
6543		3.906250
6544		7.812500
6545		3.906250
6546		7.812500
6547		5.859375
6548		7.812500
6549		5.859375
6550		7.812500
6551		5.859375
6552		7.812500
6553		5.859375
6554		9.765625
6555		5.859375
6556		9.765625
6557		5.859375
6558		9.765625
6559		5.859375
6560		9.765625
6561		7.812500
6562		9.765625
6563		7.812500
6564		11.718750
6565		7.812500
6566		11.718750
6567		7.812500
6568		11.718750
6569		9.765625
6570		11.718750
6571		9.765625
6572		11.718750
6573		9.765625
6574		11.718750
6575		9.765625
6576		13.671875
6577		9.765625
6578		13.671875
6579		9.765625
6580		13.671875
6581		9.765625
6582		13.671875
6583		11.718750
6584		13.671875
6585		9.765625
6586		15.625000
6587		11.718750
6588		13.671875
6589		11.718750
6590		15.625000
6591		11.718750
6592		15.625000
6593		11.718750
6594		15.625000
6595		11.718750
6596		15.625000
6597		11.718750
6598		15.625000
6599		11.718750
6600		15.625000
6601		13.671875
6602		15.625000
6603		13.671875
6604		15.625000
6605		13.671875
6606		17.578125
6607		13.671875
6608		17.578125
6609		13.671875
6610		17.578125
6611		13.671875
6612		17.578125
6613		13.671875
6614		17.578125
6615		13.671875
6616		17.578125
6617		13.671875
6618		17.578125
6619		15.625000
6620		17.578125
6621		13.671875
6622		17.578125
6623		15.625000
6624		17.578125
6625		13.671875
6626		17.578125
6627		15.625000
6628		17.578125
6629		13.671875
6630		19.531250
6631		15.625000
6632		17.578125
6633		15.625000
6634		17.578125
6635		13.671875
6636		17.578125
6637		15.625000
6638		17.578125
6639		15.625000
6640		17.578125
6641		15.625000
6642		17.578125
6643		13.671875
6644		19.531250
6645		13.671875
6646		19.531250
6647		15.625000
6648		17.578125
6649		13.671875
6650		19.531250
6651		13.671875
6652		17.578125
6653		15.625000
6654		17.578125
6655		15.625000
6656		17.578125
6657		15.625000
6658		17.578125
6659		15.625000
6660		17.578125
6661		13.671875
6662		17.578125
6663		13.671875
6664		17.578125
6665		13.671875
6666		17.578125
6667		13.671875
6668		17.578125
6669		13.671875
6670		17.578125
6671		13.671875
6672		17.578125
6673		13.671875
6674		17.578125
6675		13.671875
6676		17.578125
6677		13.671875
6678		17.578125
6679		13.671875
6680		17.578125
6681		11.718750
6682		15.625000
6683		13.671875
6684		15.625000
6685		13.671875
6686		15.625000
6687		11.718750
6688		15.625000
6689		11.718750
6690		15.625000
6691		11.718750
6692		15.625000
6693		11.718750
6694		15.625000
6695		11.718750
6696		15.625000
6697		11.718750
6698		13.671875
6699		11.718750
6700		13.671875
6701		9.765625
6702		13.671875
6703		9.765625
6704		13.671875
6705		9.765625
6706		13.671875
6707		9.765625
6708		13.671875
6709		9.765625
6710		13.671875
6711		9.765625
6712		13.671875
6713		7.812500
6714		11.718750
6715		7.812500
6716		11.718750
6717		7.812500
6718		11.718750
6719		5.859375
6720		11.718750
6721		7.812500
6722		9.765625
6723		5.859375
6724		9.765625
6725		5.859375
6726		9.765625
6727		5.859375
6728		9.765625
6729		5.859375
6730		9.765625
6731		5.859375
6732		9.765625
6733		5.859375
6734		7.812500
6735		3.906250
6736		7.812500
6737		3.906250
6738		7.812500
6739		3.906250
6740		7.812500
6741		3.906250
6742		5.859375
6743		3.906250
6744		5.859375
6745		1.953125
6746		5.859375
6747		1.953125
6748		5.859375
6749		1.953125
6750		5.859375
6751		1.953125
6752		3.906250
6753		0.000000
6754		5.859375
6755		0.000000
6756		3.906250
6757		0.000000
6758		3.906250
6759		0.000000
6760		3.906250
6761		0.000000
6762		1.953125
6763		-1.953125
6764		1.953125
6765		-1.953125
6766		1.953125
6767		-1.953125
6768		1.953125
6769		-1.953125
6770		0.000000
6771		-3.906250
6772		0.000000
6773		-3.906250
6774		0.000000
6775		-3.906250
6776		0.000000
6777		-3.906250
6778		-1.953125
6779		-3.906250
6780		-1.953125
6781		-5.859375
6782		-1.953125
6783		-5.859375
6784		-1.953125
6785		-5.859375
6786		-1.953125
6787		-5.859375
6788		-3.906250
6789		-7.812500
6790		-3.906250
6791		-7.812500
6792		-3.906250
6793		-7.812500
6794		-3.906250
6795		-7.812500
6796		-3.906250
6797		-9.765625
6798		-3.906250
6799		-7.812500
6800		-5.859375
6801		-9.765625
6802		-5.859375
6803		-9.765625
6804		-5.859375
6805		-9.765625
6806		-5.859375
6807		-9.765625
6808		-5.859375
6809		-11.718750
6810		-7.812500
6811		-11.718750
6812		-7.812500
6813		-11.718750
6814		-7.812500
6815		-11.718750
6816		-7.812500
6817		-11.718750
6818		-7.812500
6819		-11.718750
6820		-7.812500
6821		-13.671875
6822		-9.765625
6823		-13.671875
6824		-9.765625
6825		-13.671875
6826		-9.765625
6827		-13.671875
6828		-9.765625
6829		-13.671875
6830		-9.765625
6831		-15.625000
6832		-9.765625
6833		-13.671875
6834		-11.718750
6835		-13.671875
6836		-11.718750
6837		-13.671875
6838		-11.718750
6839		-15.625000
6840		-11.718750
6841		-15.625000
6842		-11.718750
6843		-15.625000
6844		-11.718750
6845		-15.625000
6846		-11.718750
6847		-15.625000
6848		-11.718750
6849		-15.625000
6850		-11.718750
6851		-15.625000
6852		-13.671875
6853		-17.578125
6854		-13.671875
6855		-15.625000
6856		-13.671875
6857		-15.625000
6858		-13.671875
6859		-15.625000
6860		-13.671875
6861		-17.578125
6862		-13.671875
6863		-17.578125
6864		-13.671875
6865		-17.578125
6866		-13.671875
6867		-15.625000
6868		-13.671875
6869		-17.578125
6870		-13.671875
6871		-17.578125
6872		-13.671875
6873		-17.578125
6874		-13.671875
6875		-17.578125
6876		-13.671875
6877		-17.578125
6878		-13.671875
6879		-17.578125
6880		-13.671875
6881		-17.578125
6882		-13.671875
6883		-15.625000
6884		-13.671875
6885		-17.578125
6886		-13.671875
6887		-17.578125
6888		-13.671875
6889		-17.578125
6890		-13.671875
6891		-15.625000
6892		-13.671875
6893		-15.625000
6894		-13.671875
6895		-15.625000
6896		-11.718750
6897		-17.578125
6898		-11.718750
6899		-15.625000
6900		-11.718750
6901		-15.625000
6902		-13.671875
6903		-15.625000
6904		-11.718750
6905		-15.625000
6906		-11.718750
6907		-15.625000
6908		-11.718750
6909		-15.625000
6910		-11.718750
6911		-15.625000
6912		-11.718750
6913		-13.671875
6914		-11.718750
6915		-15.625000
6916		-11.718750
6917		-13.671875
6918		-11.718750
6919		-13.671875
6920		-11.718750
6921		-15.625000
6922		-9.765625
6923		-13.671875
6924		-9.765625
6925		-13.671875
6926		-9.765625
6927		-13.671875
6928		-9.765625
6929		-13.671875
6930		-9.765625
6931		-11.718750
6932		-7.812500
6933		-11.718750
6934		-7.812500
6935		-11.718750
6936		-7.812500
6937		-11.718750
6938		-7.812500
6939		-11.718750
6940		-7.812500
6941		-11.718750
6942		-7.812500
6943		-9.765625
6944		-7.812500
6945		-9.765625
6946		-5.859375
6947		-9.765625
6948		-5.859375
6949		-9.765625
6950		-5.859375
6951		-9.765625
6952		-5.859375
6953		-7.812500
6954		-5.859375
6955		-7.812500
6956		-3.906250
6957		-7.812500
6958		-3.906250
6959		-7.812500
6960		-3.906250
6961		-5.859375
6962		-3.906250
6963		-7.812500
6964		-1.953125
6965		-5.859375
6966		-1.953125
6967		-5.859375
6968		-1.953125
6969		-3.906250
6970		-1.953125
6971		-3.906250
6972		-1.953125
6973		-5.859375
6974		-1.953125
6975		-3.906250
6976		0.000000
6977		-3.906250
6978		0.000000
6979		-3.906250
6980		0.000000
6981		-1.953125
6982		0.000000
6983		-1.953125
6984		1.953125
6985		-1.953125
6986		1.953125
6987		-1.953125
6988		1.953125
6989		0.000000
6990		1.953125
6991		0.000000
6992		1.953125
6993		0.000000
6994		3.906250
6995		0.000000
6996		3.906250
6997		0.000000
6998		3.906250
6999		0.000000
7000		3.906250
7001		1.953125
7002		3.906250
7003		1.953125
7004		5.859375
7005		1.953125
7006		5.859375
7007		1.953125
7008		7.812500
7009		3.906250
7010		5.859375
7011		3.906250
7012		7.812500
7013		3.906250
7014		7.812500
7015		3.906250
7016		7.812500
7017		3.906250
7018		7.812500
7019		5.859375
7020		7.812500
7021		5.859375
7022		9.765625
7023		5.859375
7024		9.765625
7025		5.859375
7026		9.765625
7027		7.812500
7028		9.765625
7029		5.859375
7030		9.765625
7031		7.812500
7032		11.718750
7033		7.812500
7034		11.718750
7035		7.812500
7036		11.718750
7037		9.765625
7038		11.718750
7039		7.812500
7040		11.718750
7041		9.765625
7042		11.718750
7043		9.765625
7044		13.671875
7045		9.765625
7046		13.671875
7047		9.765625
7048		13.671875
7049		9.765625
7050		13.671875
7051		9.765625
7052		13.671875
7053		9.765625
7054		13.671875
7055		11.718750
7056		15.625000
7057		11.718750
7058		15.625000
7059		11.718750
7060		15.625000
7061		11.718750
7062		15.625000
7063		11.718750
7064		15.625000
7065		13.671875
7066		15.625000
7067		13.671875
7068		17.578125
7069		13.671875
7070		15.625000
7071		11.718750
7072		17.578125
7073		13.671875
7074		17.578125
7075		13.671875
7076		17.578125
7077		13.671875
7078		17.578125
7079		13.671875
7080		17.578125
7081		13.671875
7082		17.578125
7083		13.671875
7084		17.578125
7085		13.671875
7086		17.578125
7087		15.625000
7088		17.578125
7089		15.625000
7090		17.578125
7091		15.625000
7092		17.578125
7093		15.625000
7094		17.578125
7095		15.625000
7096		17.578125
7097		15.625000
7098		17.578125
7099		15.625000
7100		17.578125
7101		15.625000
7102		19.531250
7103		15.625000
7104		17.578125
7105		15.625000
7106		19.531250
7107		15.625000
7108		19.531250
7109		15.625000
7110		19.531250
7111		15.625000
7112		19.531250
7113		15.625000
7114		19.531250
7115		15.625000
7116		19.531250
7117		15.625000
7118		19.531250
7119		15.625000
7120		19.531250
7121		15.625000
7122		17.578125
7123		15.625000
7124		19.531250
7125		13.671875
7126		19.531250
7127		15.625000
7128		17.578125
7129		15.625000
7130		19.531250
7131		15.625000
7132		19.531250
7133		15.625000
7134		19.531250
7135		15.625000
7136		17.578125
7137		15.625000
7138		17.578125
7139		13.671875
7140		19.531250
7141		13.671875
7142		17.578125
7143		13.671875
7144		17.578125
7145		13.671875
7146		17.578125
7147		13.671875
7148		17.578125
7149		13.671875
7150		17.578125
7151		13.671875
7152		17.578125
7153		13.671875
7154		17.578125
7155		13.671875
7156		17.578125
7157		13.671875
7158		17.578125
7159		13.671875
7160		15.625000
7161		13.671875
7162		15.625000
7163		11.718750
7164		15.625000
7165		11.718750
7166		15.625000
7167		9.765625
7168		15.625000
7169		11.718750
7170		15.625000
7171		11.718750
7172		13.671875
7173		11.718750
7174		13.671875
7175		9.765625
7176		13.671875
7177		9.765625
7178		13.671875
7179		9.765625
7180		13.671875
7181		9.765625
7182		13.671875
7183		9.765625
7184		13.671875
7185		9.765625
7186		13.671875
7187		9.765625
7188		11.718750
7189		7.812500
7190		11.718750
7191		7.812500
7192		11.718750
7193		7.812500
7194		11.718750
7195		7.812500
7196		9.765625
7197		7.812500
7198		9.765625
7199		7.812500
7200		9.765625
7201		5.859375
7202		9.765625
7203		5.859375
7204		9.765625
7205		5.859375
7206		7.812500
7207		3.906250
7208		9.765625
7209		3.906250
7210		7.812500
7211		3.906250
7212		7.812500
7213		3.906250
7214		7.812500
7215		3.906250
7216		5.859375
7217		3.906250
7218		5.859375
7219		1.953125
7220		5.859375
7221		1.953125
7222		5.859375
7223		1.953125
7224		5.859375
7225		1.953125
7226		5.859375
7227		1.953125
7228		3.906250
7229		0.000000
7230		3.906250
7231		0.000000
7232		3.906250
7233		0.000000
7234		3.906250
7235		-1.953125
7236		1.953125
7237		0.000000
7238		1.953125
7239		-1.953125
7240		1.953125
7241		-1.953125
7242		1.953125
7243		-1.953125
7244		0.000000
7245		-3.906250
7246		0.000000
7247		-3.906250
7248		0.000000
7249		-3.906250
7250		0.000000
7251		-3.906250
7252		0.000000
7253		-3.906250
7254		0.000000
7255		-3.906250
7256		-1.953125
7257		-5.859375
7258		-1.953125
7259		-5.859375
7260		-1.953125
7261		-5.859375
7262		-1.953125
7263		-5.859375
7264		-1.953125
7265		-5.859375
7266		-3.906250
7267		-7.812500
7268		-3.906250
7269		-7.812500
7270		-3.906250
7271		-7.812500
7272		-5.859375
7273		-9.765625
7274		-5.859375
7275		-7.812500
7276		-5.859375
7277		-9.765625
7278		-5.859375
7279		-9.765625
7280		-5.859375
7281		-9.765625
7282		-5.859375
7283		-9.765625
7284		-7.812500
7285		-11.718750
7286		-5.859375
7287		-9.765625
7288		-7.812500
7289		-11.718750
7290		-7.812500
7291		-11.718750
7292		-7.812500
7293		-11.718750
7294		-9.765625
7295		-11.718750
7296		-7.812500
7297		-11.718750
7298		-9.765625
7299		-13.671875
7300		-9.765625
7301		-13.671875
7302		-9.765625
7303		-13.671875
7304		-9.765625
7305		-13.671875
7306		-9.765625
7307		-13.671875
7308		-9.765625
7309		-13.671875
7310		-11.718750
7311		-15.625000
7312		-9.765625
7313		-13.671875
7314		-11.718750
7315		-15.625000
7316		-11.718750
7317		-13.671875
7318		-11.718750
7319		-15.625000
7320		-11.718750
7321		-13.671875
7322		-11.718750
7323		-15.625000
7324		-11.718750
7325		-15.625000
7326		-11.718750
7327		-15.625000
7328		-11.718750
7329		-15.625000
7330		-11.718750
7331		-15.625000
7332		-11.718750
7333		-15.625000
7334		-11.718750
7335		-15.625000
7336		-11.718750
7337		-15.625000
7338		-13.671875
7339		-15.625000
7340		-11.718750
7341		-17.578125
7342		-11.718750
7343		-15.625000
7344		-13.671875
7345		-15.625000
7346		-11.718750
7347		-15.625000
7348		-13.671875
7349		-15.625000
7350		-13.671875
7351		-15.625000
7352		-11.718750
7353		-15.625000
7354		-11.718750
7355		-15.625000
7356		-11.718750
7357		-15.625000
7358		-11.718750
7359		-15.625000
7360		-11.718750
7361		-15.625000
7362		-11.718750
7363		-15.625000
7364		-11.718750
7365		-15.625000
7366		-11.718750
7367		-15.625000
7368		-11.718750
7369		-15.625000
7370		-11.718750
7371		-15.625000
7372		-11.718750
7373		-15.625000
7374		-11.718750
7375		-15.625000
7376		-11.718750
7377		-15.625000
7378		-11.718750
7379		-13.671875
7380		-11.718750
7381		-13.671875
7382		-9.765625
7383		-15.625000
7384		-9.765625
7385		-13.671875
7386		-9.765625
7387		-13.671875
7388		-9.765625
7389		-13.671875
7390		-9.765625
7391		-11.718750
7392		-9.765625
7393		-13.671875
7394		-9.765625
7395		-11.718750
7396		-9.765625
7397		-13.671875
7398		-7.812500
7399		-11.718750
7400		-7.812500
7401		-11.718750
7402		-7.812500
7403		-11.718750
7404		-7.812500
7405		-9.765625
7406		-7.812500
7407		-11.718750
7408		-7.812500
7409		-9.765625
7410		-7.812500
7411		-9.765625
7412		-5.859375
7413		-9.765625
7414		-5.859375
7415		-9.765625
7416		-5.859375
7417		-9.765625
7418		-5.859375
7419		-7.812500
7420		-3.906250
7421		-9.765625
7422		-5.859375
7423		-7.812500
7424		-3.906250
7425		-9.765625
7426		-3.906250
7427		-7.812500
7428		-3.906250
7429		-5.859375
7430		-3.906250
7431		-5.859375
7432		-1.953125
7433		-5.859375
7434		-1.953125
7435		-5.859375
7436		-1.953125
7437		-5.859375
7438		-1.953125
7439		-3.906250
7440		-1.953125
7441		-5.859375
7442		0.000000
7443		-3.906250
7444		0.000000
7445		-3.906250
7446		0.000000
7447		-1.953125
7448		0.000000
7449		-1.953125
7450		1.953125
7451		-1.953125
7452		1.953125
7453		-1.953125
7454		1.953125
7455		0.000000
7456		1.953125
7457		0.000000
7458		1.953125
7459		0.000000
7460		3.906250
7461		0.000000
7462		3.906250
7463		0.000000
7464		3.906250
7465		1.953125
7466		3.906250
7467		1.953125
7468		5.859375
7469		1.953125
7470		5.859375
7471		1.953125
7472		5.859375
7473		1.953125
7474		5.859375
7475		1.953125
7476		5.859375
7477		3.906250
7478		5.859375
7479		3.906250
7480		7.812500
7481		3.906250
7482		7.812500
7483		3.906250
7484		7.812500
7485		5.859375
7486		7.812500
7487		5.859375
7488		9.765625
7489		5.859375
7490		9.765625
7491		5.859375
7492		9.765625
7493		5.859375
7494		9.765625
7495		5.859375
7496		9.765625
7497		7.812500
7498		11.718750
7499		7.812500
7500		11.718750
7501		7.812500
7502		11.718750
7503		7.812500
7504		11.718750
7505		7.812500
7506		11.718750
7507		9.765625
7508		11.718750
7509		9.765625
7510		13.671875
7511		9.765625
7512		13.671875
7513		9.765625
7514		13.671875
7515		9.765625
7516		13.671875
7517		9.765625
7518		15.625000
7519		11.718750
7520		13.671875
7521		9.765625
7522		15.625000
7523		11.718750
7524		15.625000
7525		11.718750
7526		15.625000
7527		11.718750
7528		15.625000
7529		13.671875
7530		15.625000
7531		13.671875
7532		15.625000
7533		11.718750
7534		15.625000
7535		13.671875
7536		17.578125
7537		13.671875
7538		17.578125
7539		13.671875
7540		17.578125
7541		13.671875
7542		17.578125
7543		13.671875
7544		17.578125
7545		13.671875
7546		17.578125
7547		13.671875
7548		19.531250
7549		15.625000
7550		17.578125
7551		15.625000
7552		17.578125
7553		15.625000
7554		17.578125
7555		13.671875
7556		19.531250
7557		15.625000
7558		19.531250
7559		15.625000
7560		19.531250
7561		15.625000
7562		19.531250
7563		15.625000
7564		19.531250
7565		15.625000
7566		19.531250
7567		15.625000
7568		19.531250
7569		13.671875
7570		19.531250
7571		15.625000
7572		19.531250
7573		15.625000
7574		19.531250
7575		15.625000
7576		19.531250
7577		15.625000
7578		19.531250
7579		15.625000
7580		19.531250
7581		15.625000
7582		19.531250
7583		15.625000
7584		19.531250
7585		15.625000
7586		19.531250
7587		15.625000
7588		19.531250
7589		15.625000
7590		19.531250
7591		15.625000
7592		19.531250
7593		15.625000
7594		19.531250
7595		15.625000
7596		19.531250
7597		15.625000
7598		19.531250
7599		13.671875
7600		21.484375
7601		13.671875
7602		21.484375
7603		13.671875
7604		21.484375
7605		15.625000
7606		19.531250
7607		15.625000
7608		17.578125
7609		13.671875
7610		19.531250
7611		13.671875
7612		19.531250
7613		13.671875
7614		17.578125
7615		13.671875
7616		19.531250
7617		13.671875
7618		19.531250
7619		11.718750
7620		19.531250
7621		11.718750
7622		17.578125
7623		13.671875
7624		17.578125
7625		13.671875
7626		17.578125
7627		11.718750
7628		19.531250
7629		11.718750
7630		19.531250
7631		11.718750
7632		17.578125
7633		9.765625
7634		17.578125
7635		11.718750
7636		17.578125
7637		9.765625
7638		17.578125
7639		11.718750
7640		15.625000
7641		11.718750
7642		15.625000
7643		11.718750
7644		15.625000
7645		9.765625
7646		15.625000
7647		9.765625
7648		15.625000
7649		7.812500
7650		15.625000
7651		7.812500
7652		15.625000
7653		7.812500
7654		15.625000
7655		7.812500
7656		13.671875
7657		9.765625
7658		11.718750
7659		9.765625
7660		11.718750
7661		7.812500
7662		13.671875
7663		5.859375
7664		13.671875
7665		5.859375
7666		11.718750
7667		5.859375
7668		11.718750
7669		5.859375
7670		13.671875
7671		3.906250
7672		11.718750
7673		5.859375
7674		9.765625
7675		5.859375
7676		9.765625
7677		3.906250
7678		9.765625
7679		3.906250
7680		9.765625
7681		3.906250
7682		9.765625
7683		1.953125
7684		9.765625
7685		1.953125
7686		9.765625
7687		1.953125
7688		9.765625
7689		1.953125
7690		7.812500
7691		1.953125
7692		5.859375
7693		1.953125
7694		5.859375
7695		0.000000
7696		7.812500
7697		0.000000
7698		5.859375
7699		-1.953125
7700		5.859375
7701		-1.953125
7702		5.859375
7703		-1.953125
7704		5.859375
7705		-1.953125
7706		3.906250
7707		0.000000
7708		1.953125
7709		0.000000
7710		1.953125
7711		-3.906250
7712		3.906250
7713		-3.906250
7714		1.953125
7715		-3.906250
7716		1.953125
7717		-5.859375
7718		1.953125
7719		-5.859375
7720		1.953125
7721		-5.859375
7722		1.953125
7723		-5.859375
7724		0.000000
7725		-3.906250
7726		-1.953125
7727		-5.859375
7728		-1.953125
7729		-7.812500
7730		0.000000
7731		-7.812500
7732		0.000000
7733		-7.812500
7734		0.000000
7735		-9.765625
7736		-1.953125
7737		-9.765625
7738		-1.953125
7739		-9.765625
7740		-1.953125
7741		-7.812500
7742		-3.906250
7743		-7.812500
7744		-3.906250
7745		-9.765625
7746		-3.906250
7747		-11.718750
7748		-3.906250
7749		-11.718750
7750		-3.906250
7751		-11.718750
7752		-3.906250
7753		-11.718750
7754		-3.906250
7755		-11.718750
7756		-5.859375
7757		-9.765625
7758		-5.859375
7759		-11.718750
7760		-7.812500
7761		-13.671875
7762		-7.812500
7763		-13.671875
7764		-5.859375
7765		-13.671875
7766		-5.859375
7767		-13.671875
7768		-7.812500
7769		-15.625000
7770		-7.812500
7771		-13.671875
7772		-7.812500
7773		-13.671875
7774		-7.812500
7775		-13.671875
7776		-9.765625
7777		-15.625000
7778		-7.812500
7779		-15.625000
7780		-9.765625
7781		-15.625000
7782		-9.765625
7783		-15.625000
7784		-9.765625
7785		-15.625000
7786		-9.765625
7787		-17.578125
7788		-9.765625
7789		-17.578125
7790		-9.765625
7791		-15.625000
7792		-11.718750
7793		-15.625000
7794		-11.718750
7795		-17.578125
7796		-9.765625
7797		-17.578125
7798		-9.765625
7799		-17.578125
7800		-9.765625
7801		-17.578125
7802		-9.765625
7803		-17.578125
7804		-9.765625
7805		-17.578125
7806		-11.718750
7807		-17.578125
7808		-9.765625
7809		-15.625000
7810		-11.718750
7811		-15.625000
7812		-9.765625
7813		-17.578125
7814		-9.765625
7815		-17.578125
7816		-11.718750
7817		-17.578125
7818		-9.765625
7819		-17.578125
7820		-11.718750
7821		-19.531250
7822		-9.765625
7823		-19.531250
7824		-11.718750
7825		-15.625000
7826		-11.718750
7827		-15.625000
7828		-11.718750
7829		-17.578125
7830		-9.765625
7831		-17.578125
7832		-9.765625
7833		-17.578125
7834		-9.765625
7835		-17.578125
7836		-9.765625
7837		-17.578125
7838		-9.765625
7839		-17.578125
7840		-11.718750
7841		-15.625000
7842		-11.718750
7843		-15.625000
7844		-11.718750
7845		-15.625000
7846		-9.765625
7847		-15.625000
7848		-9.765625
7849		-17.578125
7850		-9.765625
7851		-15.625000
7852		-9.765625
7853		-15.625000
7854		-7.812500
7855		-15.625000
7856		-9.765625
7857		-15.625000
7858		-9.765625
7859		-13.671875
7860		-9.765625
7861		-13.671875
7862		-9.765625
7863		-15.625000
7864		-7.812500
7865		-15.625000
7866		-7.812500
7867		-15.625000
7868		-5.859375
7869		-13.671875
7870		-5.859375
7871		-13.671875
7872		-5.859375
7873		-13.671875
7874		-5.859375
7875		-11.718750
7876		-7.812500
7877		-9.765625
7878		-7.812500
7879		-11.718750
7880		-5.859375
7881		-11.718750
7882		-5.859375
7883		-11.718750
7884		-3.906250
7885		-11.718750
7886		-3.906250
7887		-11.718750
7888		-3.906250
7889		-11.718750
7890		-3.906250
7891		-9.765625
7892		-3.906250
7893		-7.812500
7894		-5.859375
7895		-9.765625
7896		-3.906250
7897		-9.765625
7898		-1.953125
7899		-9.765625
7900		-1.953125
7901		-7.812500
7902		-1.953125
7903		-7.812500
7904		0.000000
7905		-7.812500
7906		0.000000
7907		-7.812500
7908		0.000000
7909		-3.906250
7910		-1.953125
7911		-3.906250
7912		-1.953125
7913		-5.859375
7914		0.000000
7915		-5.859375
7916		1.953125
7917		-5.859375
7918		1.953125
7919		-5.859375
7920		1.953125
7921		-5.859375
7922		3.906250
7923		-5.859375
7924		3.906250
7925		-1.953125
7926		1.953125
7927		0.000000
7928		1.953125
7929		-1.953125
7930		3.906250
7931		-1.953125
7932		3.906250
7933		-1.953125
7934		5.859375
7935		-1.953125
7936		5.859375
7937		0.000000
7938		5.859375
7939		-1.953125
7940		5.859375
7941		0.000000
7942		5.859375
7943		1.953125
7944		5.859375
7945		1.953125
7946		5.859375
7947		1.953125
7948		7.812500
7949		1.953125
7950		7.812500
7951		1.953125
7952		7.812500
7953		1.953125
7954		9.765625
7955		1.953125
7956		9.765625
7957		3.906250
7958		9.765625
7959		5.859375
7960		9.765625
7961		5.859375
7962		9.765625
7963		5.859375
7964		11.718750
7965		3.906250
7966		11.718750
7967		5.859375
7968		11.718750
7969		5.859375
7970		13.671875
7971		5.859375
7972		11.718750
7973		5.859375
7974		13.671875
7975		5.859375
7976		13.671875
7977		9.765625
7978		11.718750
7979		7.812500
7980		13.671875
7981		7.812500
7982		15.625000
7983		7.812500
7984		13.671875
7985		7.812500
7986		15.625000
7987		7.812500
7988		15.625000
7989		9.765625
7990		15.625000
7991		9.765625
7992		15.625000
7993		11.718750
7994		13.671875
7995		11.718750
7996		15.625000
7997		9.765625
7998		17.578125
7999		9.765625
8000		17.578125
8001		9.765625
8002		17.578125
8003		11.718750
8004		17.578125
8005		11.718750
8006		17.578125
8007		11.718750
8008		17.578125
8009		11.718750
8010		17.578125
8011		13.671875
8012		17.578125
8013		13.671875
8014		19.531250
8015		11.718750
8016		19.531250
8017		11.718750
8018		19.531250
8019		11.718750
8020		19.531250
8021		13.671875
8022		19.531250
8023		13.671875
8024		19.531250
8025		13.671875
8026		21.484375
8027		15.625000
8028		17.578125
8029		15.625000
8030		19.531250
8031		13.671875
8032		19.531250
8033		13.671875
8034		21.484375
8035		13.671875
8036		21.484375
8037		13.671875
8038		21.484375
8039		13.671875
8040		21.484375
8041		13.671875
8042		21.484375
8043		15.625000
8044		19.531250
8045		15.625000
8046		19.531250
8047		13.671875
8048		21.484375
8049		13.671875
8050		21.484375
8051		13.671875
8052		21.484375
8053		13.671875
8054		21.484375
8055		13.671875
8056		21.484375
8057		13.671875
8058		21.484375
8059		13.671875
8060		21.484375
8061		15.625000
8062		19.531250
8063		13.671875
8064		21.484375
8065		13.671875
8066		21.484375
8067		13.671875
8068		21.484375
8069		13.671875
8070		19.531250
8071		13.671875
8072		21.484375
8073		13.671875
8074		21.484375
8075		13.671875
8076		19.531250
8077		15.625000
8078		17.578125
8079		15.625000
8080		17.578125
8081		13.671875
8082		19.531250
8083		13.671875
8084		19.531250
8085		13.671875
8086		19.531250
8087		11.718750
8088		19.531250
8089		13.671875
8090		19.531250
8091		11.718750
8092		19.531250
8093		13.671875
8094		17.578125
8095		13.671875
8096		17.578125
8097		11.718750
8098		17.578125
8099		11.718750
8100		19.531250
8101		9.765625
8102		17.578125
8103		11.718750
8104		17.578125
8105		9.765625
8106		17.578125
8107		9.765625
8108		17.578125
8109		9.765625
8110		17.578125
8111		11.718750
8112		15.625000
8113		11.718750
8114		15.625000
8115		9.765625
8116		17.578125
8117		9.765625
8118		15.625000
8119		9.765625
8120		15.625000
8121		7.812500
8122		15.625000
8123		9.765625
8124		15.625000
8125		7.812500
8126		13.671875
8127		9.765625
8128		13.671875
8129		9.765625
8130		11.718750
8131		7.812500
8132		13.671875
8133		5.859375
8134		13.671875
8135		5.859375
8136		13.671875
8137		5.859375
8138		13.671875
8139		5.859375
8140		13.671875
8141		5.859375
8142		11.718750
8143		3.906250
8144		11.718750
8145		5.859375
8146		9.765625
8147		3.906250
8148		9.765625
8149		3.906250
8150		9.765625
8151		3.906250
8152		9.765625
8153		1.953125
8154		9.765625
8155		1.953125
8156		9.765625
8157		1.953125
8158		7.812500
8159		1.953125
8160		7.812500
8161		3.906250
8162		5.859375
8163		1.953125
8164		5.859375
8165		0.000000
8166		7.812500
8167		0.000000
8168		7.812500
8169		0.000000
8170		5.859375
8171		-1.953125
8172		5.859375
8173		0.000000
8174		5.859375
8175		-1.953125
8176		5.859375
8177		0.000000
8178		3.906250
8179		0.000000
8180		1.953125
8181		-1.953125
8182		3.906250
8183		-3.906250
8184		3.906250
8185		-3.906250
8186		1.953125
8187		-3.906250
8188		1.953125
8189		-5.859375
8190		1.953125
8191		-5.859375
8192		1.953125
8193		-5.859375
8194		1.953125
8195		-3.906250
8196		-1.953125
8197		-3.906250
8198		-1.953125
8199		-5.859375
8200		0.000000
8201		-7.812500
8202		0.000000
8203		-7.812500
8204		0.000000
8205		-7.812500
8206		0.000000
8207		-7.812500
8208		-1.953125
8209		-9.765625
8210		-1.953125
8211		-7.812500
8212		-3.906250
8213		-7.812500
8214		-3.906250
8215		-9.765625
8216		-3.906250
8217		-9.765625
8218		-3.906250
8219		-11.718750
8220		-3.906250
8221		-11.718750
8222		-3.906250
8223		-11.718750
8224		-3.906250
8225		-11.718750
8226		-5.859375
8227		-11.718750
8228		-5.859375
8229		-9.765625
8230		-7.812500
8231		-11.718750
8232		-7.812500
8233		-13.671875
8234		-7.812500
8235		-13.671875
8236		-7.812500
8237		-13.671875
8238		-7.812500
8239		-11.718750
8240		-7.812500
8241		-11.718750
8242		-9.765625
8243		-13.671875
8244		-7.812500
8245		-13.671875
8246		-9.765625
8247		-13.671875
8248		-9.765625
8249		-15.625000
8250		-9.765625
8251		-15.625000
8252		-9.765625
8253		-15.625000
8254		-9.765625
8255		-13.671875
8256		-11.718750
8257		-13.671875
8258		-9.765625
8259		-17.578125
8260		-9.765625
8261		-15.625000
8262		-11.718750
8263		-13.671875
8264		-11.718750
8265		-15.625000
8266		-11.718750
8267		-15.625000
8268		-11.718750
8269		-15.625000
8270		-11.718750
8271		-15.625000
8272		-11.718750
8273		-15.625000
8274		-11.718750
8275		-15.625000
8276		-11.718750
8277		-17.578125
8278		-11.718750
8279		-15.625000
8280		-11.718750
8281		-15.625000
8282		-13.671875
8283		-15.625000
8284		-11.718750
8285		-15.625000
8286		-13.671875
8287		-15.625000
8288		-13.671875
8289		-15.625000
8290		-11.718750
8291		-15.625000
8292		-13.671875
8293		-17.578125
8294		-11.718750
8295		-17.578125
8296		-11.718750
8297		-15.625000
8298		-13.671875
8299		-15.625000
8300		-11.718750
8301		-15.625000
8302		-11.718750
8303		-15.625000
8304		-11.718750
8305		-15.625000
8306		-11.718750
8307		-15.625000
8308		-11.718750
8309		-15.625000
8310		-11.718750
8311		-15.625000
8312		-11.718750
8313		-15.625000
8314		-11.718750
8315		-15.625000
8316		-11.718750
8317		-15.625000
8318		-11.718750
8319		-13.671875
8320		-11.718750
8321		-13.671875
8322		-11.718750
8323		-13.671875
8324		-11.718750
8325		-13.671875
8326		-11.718750
8327		-13.671875
8328		-9.765625
8329		-13.671875
8330		-9.765625
8331		-13.671875
8332		-9.765625
8333		-13.671875
8334		-9.765625
8335		-13.671875
8336		-9.765625
8337		-13.671875
8338		-9.765625
8339		-11.718750
8340		-7.812500
8341		-11.718750
8342		-7.812500
8343		-11.718750
8344		-7.812500
8345		-11.718750
8346		-7.812500
8347		-11.718750
8348		-7.812500
8349		-11.718750
8350		-7.812500
8351		-11.718750
8352		-7.812500
8353		-9.765625
8354		-5.859375
8355		-9.765625
8356		-5.859375
8357		-9.765625
8358		-5.859375
8359		-9.765625
8360		-5.859375
8361		-7.812500
8362		-5.859375
8363		-7.812500
8364		-5.859375
8365		-7.812500
8366		-3.906250
8367		-7.812500
8368		-3.906250
8369		-7.812500
8370		-3.906250
8371		-7.812500
8372		-3.906250
8373		-7.812500
8374		-1.953125
8375		-5.859375
8376		-1.953125
8377		-5.859375
8378		-1.953125
8379		-5.859375
8380		0.000000
8381		-3.906250
8382		-1.953125
8383		-5.859375
8384		0.000000
8385		-3.906250
8386		0.000000
8387		-3.906250
8388		0.000000
8389		-3.906250
8390		0.000000
8391		-3.906250
8392		1.953125
8393		-1.953125
8394		1.953125
8395		-1.953125
8396		1.953125
8397		-1.953125
8398		1.953125
8399		-1.953125
8400		3.906250
8401		-1.953125
8402		3.906250
8403		0.000000
8404		3.906250
8405		0.000000
8406		3.906250
8407		1.953125
8408		3.906250
8409		1.953125
8410		3.906250
8411		1.953125
8412		3.906250
8413		1.953125
8414		5.859375
8415		1.953125
8416		5.859375
8417		1.953125
8418		7.812500
8419		3.906250
8420		5.859375
8421		3.906250
8422		7.812500
8423		3.906250
8424		7.812500
8425		3.906250
8426		7.812500
8427		5.859375
8428		7.812500
8429		3.906250
8430		9.765625
8431		5.859375
8432		9.765625
8433		5.859375
8434		9.765625
8435		5.859375
8436		9.765625
8437		7.812500
8438		9.765625
8439		7.812500
8440		11.718750
8441		7.812500
8442		11.718750
8443		7.812500
8444		11.718750
8445		7.812500
8446		11.718750
8447		7.812500
8448		11.718750
8449		9.765625
8450		13.671875
8451		7.812500
8452		13.671875
8453		9.765625
8454		13.671875
8455		9.765625
8456		13.671875
8457		9.765625
8458		13.671875
8459		11.718750
8460		13.671875
8461		11.718750
8462		13.671875
8463		11.718750
8464		15.625000
8465		11.718750
8466		15.625000
8467		9.765625
8468		15.625000
8469		11.718750
8470		15.625000
8471		11.718750
8472		15.625000
8473		13.671875
8474		15.625000
8475		13.671875
8476		15.625000
8477		13.671875
8478		17.578125
8479		13.671875
8480		17.578125
8481		13.671875
8482		17.578125
8483		13.671875
8484		19.531250
8485		13.671875
8486		17.578125
8487		13.671875
8488		17.578125
8489		13.671875
8490		17.578125
8491		13.671875
8492		17.578125
8493		15.625000
8494		17.578125
8495		15.625000
8496		17.578125
8497		15.625000
8498		17.578125
8499		15.625000
8500		19.531250
8501		13.671875
8502		19.531250
8503		15.625000
8504		17.578125
8505		15.625000
8506		19.531250
8507		15.625000
8508		19.531250
8509		15.625000
8510		19.531250
8511		15.625000
8512		19.531250
8513		15.625000
8514		19.531250
8515		15.625000
8516		19.531250
8517		15.625000
8518		21.484375
8519		15.625000
8520		19.531250
8521		15.625000
8522		19.531250
8523		15.625000
8524		19.531250
8525		15.625000
8526		19.531250
8527		15.625000
8528		19.531250
8529		15.625000
8530		19.531250
8531		15.625000
8532		19.531250
8533		15.625000
8534		19.531250
8535		15.625000
8536		19.531250
8537		15.625000
8538		19.531250
8539		15.625000
8540		19.531250
8541		15.625000
8542		19.531250
8543		15.625000
8544		19.531250
8545		15.625000
8546		19.531250
8547		15.625000
8548		19.531250
8549		15.625000
8550		17.578125
8551		13.671875
8552		19.531250
8553		15.625000
8554		17.578125
8555		15.625000
8556		17.578125
8557		15.625000
8558		17.578125
8559		13.671875
8560		17.578125
8561		13.671875
8562		17.578125
8563		13.671875
8564		17.578125
8565		13.671875
8566		17.578125
8567		11.718750
8568		17.578125
8569		13.671875
8570		17.578125
8571		13.671875
8572		17.578125
8573		13.671875
8574		15.625000
8575		13.671875
8576		15.625000
8577		11.718750
8578		15.625000
8579		11.718750
8580		17.578125
8581		11.718750
8582		15.625000
8583		11.718750
8584		15.625000
8585		9.765625
8586		15.625000
8587		11.718750
8588		13.671875
8589		11.718750
8590		13.671875
8591		9.765625
8592		13.671875
8593		9.765625
8594		13.671875
8595		9.765625
8596		13.671875
8597		9.765625
8598		13.671875
8599		9.765625
8600		11.718750
8601		7.812500
8602		13.671875
8603		7.812500
8604		11.718750
8605		7.812500
8606		11.718750
8607		7.812500
8608		11.718750
8609		7.812500
8610		9.765625
8611		5.859375
8612		9.765625
8613		5.859375
8614		9.765625
8615		5.859375
8616		9.765625
8617		5.859375
8618		9.765625
8619		5.859375
8620		9.765625
8621		3.906250
8622		9.765625
8623		3.906250
8624		7.812500
8625		3.906250
8626		7.812500
8627		3.906250
8628		7.812500
8629		3.906250
8630		7.812500
8631		1.953125
8632		5.859375
8633		1.953125
8634		5.859375
8635		1.953125
8636		5.859375
8637		1.953125
8638		5.859375
8639		1.953125
8640		3.906250
8641		0.000000
8642		3.906250
8643		0.000000
8644		3.906250
8645		0.000000
8646		3.906250
8647		-1.953125
8648		3.906250
8649		0.000000
8650		1.953125
8651		-1.953125
8652		1.953125
8653		-1.953125
8654		1.953125
8655		-1.953125
8656		1.953125
8657		-1.953125
8658		1.953125
8659		-3.906250
8660		0.000000
8661		-3.906250
8662		0.000000
8663		-3.906250
8664		0.000000
8665		-3.906250
8666		0.000000
8667		-3.906250
8668		-1.953125
8669		-5.859375
8670		-1.953125
8671		-5.859375
8672		-1.953125
8673		-5.859375
8674		-1.953125
8675		-5.859375
8676		-3.906250
8677		-5.859375
8678		-1.953125
8679		-7.812500
8680		-3.906250
8681		-7.812500
8682		-3.906250
8683		-7.812500
8684		-3.906250
8685		-9.765625
8686		-3.906250
8687		-7.812500
8688		-5.859375
8689		-7.812500
8690		-5.859375
8691		-9.765625
8692		-5.859375
8693		-9.765625
8694		-5.859375
8695		-9.765625
8696		-7.812500
8697		-11.718750
8698		-5.859375
8699		-9.765625
8700		-7.812500
8701		-11.718750
8702		-7.812500
8703		-11.718750
8704		-7.812500
8705		-11.718750
8706		-7.812500
8707		-11.718750
8708		-7.812500
8709		-11.718750
8710		-7.812500
8711		-11.718750
8712		-9.765625
8713		-13.671875
8714		-9.765625
8715		-13.671875
8716		-9.765625
8717		-13.671875
8718		-9.765625
8719		-13.671875
8720		-9.765625
8721		-13.671875
8722		-9.765625
8723		-13.671875
8724		-9.765625
8725		-13.671875
8726		-11.718750
8727		-13.671875
8728		-11.718750
8729		-13.671875
8730		-11.718750
8731		-15.625000
8732		-11.718750
8733		-15.625000
8734		-11.718750
8735		-15.625000
8736		-11.718750
8737		-15.625000
8738		-11.718750
8739		-15.625000
8740		-11.718750
8741		-15.625000
8742		-11.718750
8743		-15.625000
8744		-11.718750
8745		-15.625000
8746		-11.718750
8747		-15.625000
8748		-11.718750
8749		-15.625000
8750		-13.671875
8751		-15.625000
8752		-13.671875
8753		-15.625000
8754		-11.718750
8755		-15.625000
8756		-11.718750
8757		-15.625000
8758		-13.671875
8759		-15.625000
8760		-11.718750
8761		-15.625000
8762		-11.718750
8763		-15.625000
8764		-11.718750
8765		-15.625000
8766		-11.718750
8767		-15.625000
8768		-13.671875
8769		-15.625000
8770		-13.671875
8771		-15.625000
8772		-13.671875
8773		-15.625000
8774		-13.671875
8775		-15.625000
8776		-11.718750
8777		-15.625000
8778		-11.718750
8779		-15.625000
8780		-11.718750
8781		-15.625000
8782		-11.718750
8783		-15.625000
8784		-11.718750
8785		-15.625000
8786		-11.718750
8787		-15.625000
8788		-11.718750
8789		-15.625000
8790		-11.718750
8791		-15.625000
8792		-11.718750
8793		-13.671875
8794		-11.718750
8795		-13.671875
8796		-9.765625
8797		-13.671875
8798		-9.765625
8799		-15.625000
8800		-9.765625
8801		-13.671875
8802		-9.765625
8803		-13.671875
8804		-9.765625
8805		-13.671875
8806		-9.765625
8807		-13.671875
8808		-9.765625
8809		-13.671875
8810		-9.765625
8811		-13.671875
8812		-9.765625
8813		-11.718750
8814		-7.812500
8815		-11.718750
8816		-7.812500
8817		-11.718750
8818		-7.812500
8819		-11.718750
8820		-7.812500
8821		-11.718750
8822		-7.812500
8823		-9.765625
8824		-7.812500
8825		-9.765625
8826		-5.859375
8827		-9.765625
8828		-5.859375
8829		-9.765625
8830		-5.859375
8831		-9.765625
8832		-5.859375
8833		-9.765625
8834		-5.859375
8835		-7.812500
8836		-5.859375
8837		-7.812500
8838		-3.906250
8839		-7.812500
8840		-3.906250
8841		-7.812500
8842		-3.906250
8843		-7.812500
8844		-3.906250
8845		-5.859375
8846		-1.953125
8847		-5.859375
8848		-1.953125
8849		-5.859375
8850		-1.953125
8851		-5.859375
8852		-1.953125
8853		-3.906250
8854		-1.953125
8855		-3.906250
8856		-1.953125
8857		-3.906250
8858		0.000000
8859		-3.906250
8860		0.000000
8861		-3.906250
8862		0.000000
8863		-1.953125
8864		1.953125
8865		-1.953125
8866		1.953125
8867		-1.953125
8868		1.953125
8869		-1.953125
8870		1.953125
8871		-1.953125
8872		1.953125
8873		-1.953125
8874		3.906250
8875		0.000000
8876		3.906250
8877		0.000000
8878		3.906250
8879		0.000000
8880		3.906250
8881		1.953125
8882		5.859375
8883		1.953125
8884		5.859375
8885		1.953125
8886		5.859375
8887		1.953125
8888		5.859375
8889		3.906250
8890		5.859375
8891		1.953125
8892		7.812500
8893		3.906250
8894		7.812500
8895		3.906250
8896		7.812500
8897		3.906250
8898		7.812500
8899		3.906250
8900		7.812500
8901		5.859375
8902		7.812500
8903		5.859375
8904		9.765625
8905		5.859375
8906		9.765625
8907		5.859375
8908		9.765625
8909		5.859375
8910		9.765625
8911		7.812500
8912		9.765625
8913		7.812500
8914		11.718750
8915		7.812500
8916		11.718750
8917		7.812500
8918		11.718750
8919		7.812500
8920		11.718750
8921		9.765625
8922		11.718750
8923		9.765625
8924		13.671875
8925		9.765625
8926		13.671875
8927		9.765625
8928		13.671875
8929		9.765625
8930		13.671875
8931		9.765625
8932		13.671875
8933		9.765625
8934		15.625000
8935		11.718750
8936		13.671875
8937		9.765625
8938		15.625000
8939		11.718750
8940		15.625000
8941		11.718750
8942		15.625000
8943		11.718750
8944		15.625000
8945		11.718750
8946		15.625000
8947		11.718750
8948		15.625000
8949		13.671875
8950		17.578125
8951		13.671875
8952		17.578125
8953		13.671875
8954		17.578125
8955		13.671875
8956		17.578125
8957		13.671875
8958		17.578125
8959		13.671875
8960		17.578125
8961		15.625000
8962		17.578125
8963		13.671875
8964		17.578125
8965		15.625000
8966		17.578125
8967		15.625000
8968		17.578125
8969		15.625000
8970		17.578125
8971		13.671875
8972		19.531250
8973		15.625000
8974		19.531250
8975		15.625000
8976		19.531250
8977		15.625000
8978		19.531250
8979		15.625000
8980		19.531250
8981		15.625000
8982		19.531250
8983		15.625000
8984		19.531250
8985		15.625000
8986		19.531250
8987		15.625000
8988		19.531250
8989		15.625000
8990		19.531250
8991		15.625000
8992		19.531250
8993		15.625000
8994		19.531250
8995		15.625000
8996		19.531250
8997		15.625000
8998		19.531250
8999		15.625000
9000		19.531250
9001		15.625000
9002		19.531250
9003		15.625000
9004		19.531250
9005		15.625000
9006		19.531250
9007		15.625000
9008		19.531250
9009		15.625000
9010		19.531250
9011		15.625000
9012		19.531250
9013		15.625000
9014		19.531250
9015		15.625000
9016		19.531250
9017		15.625000
9018		19.531250
9019		15.625000
9020		19.531250
9021		13.671875
9022		19.531250
9023		15.625000
9024		17.578125
9025		15.625000
9026		17.578125
9027		13.671875
9028		17.578125
9029		13.671875
9030		17.578125
9031		13.671875
9032		17.578125
9033		13.671875
9034		17.578125
9035		13.671875
9036		17.578125
9037		13.671875
9038		17.578125
9039		13.671875
9040		17.578125
9041		13.671875
9042		17.578125
9043		13.671875
9044		17.578125
9045		11.718750
9046		15.625000
9047		13.671875
9048		15.625000
9049		11.718750
9050		15.625000
9051		11.718750
9052		15.625000
9053		11.718750
9054		15.625000
9055		11.718750
9056		15.625000
9057		11.718750
9058		13.671875
9059		11.718750
9060		13.671875
9061		11.718750
9062		13.671875
9063		9.765625
9064		13.671875
9065		9.765625
9066		13.671875
9067		9.765625
9068		13.671875
9069		9.765625
9070		11.718750
9071		9.765625
9072		11.718750
9073		7.812500
9074		11.718750
9075		7.812500
9076		11.718750
9077		7.812500
9078		11.718750
9079		7.812500
9080		11.718750
9081		5.859375
9082		11.718750
9083		5.859375
9084		9.765625
9085		5.859375
9086		9.765625
9087		5.859375
9088		9.765625
9089		5.859375
9090		9.765625
9091		5.859375
9092		9.765625
9093		3.906250
9094		9.765625
9095		3.906250
9096		9.765625
9097		3.906250
9098		7.812500
9099		3.906250
9100		7.812500
9101		1.953125
9102		5.859375
9103		1.953125
9104		5.859375
9105		1.953125
9106		5.859375
9107		1.953125
9108		5.859375
9109		1.953125
9110		3.906250
9111		0.000000
9112		3.906250
9113		0.000000
9114		3.906250
9115		0.000000
9116		3.906250
9117		0.000000
9118		3.906250
9119		0.000000
9120		1.953125
9121		0.000000
9122		1.953125
9123		-1.953125
9124		3.906250
9125		-1.953125
9126		1.953125
9127		-1.953125
9128		1.953125
9129		-1.953125
9130		0.000000
9131		-3.906250
9132		0.000000
9133		-3.906250
9134		0.000000
9135		-3.906250
9136		0.000000
9137		-3.906250
9138		-1.953125
9139		-5.859375
9140		-1.953125
9141		-5.859375
9142		-1.953125
9143		-5.859375
9144		-1.953125
9145		-5.859375
9146		-1.953125
9147		-5.859375
9148		-1.953125
9149		-7.812500
9150		-3.906250
9151		-7.812500
9152		-3.906250
9153		-7.812500
9154		-3.906250
9155		-7.812500
9156		-3.906250
9157		-7.812500
9158		-3.906250
9159		-7.812500
9160		-5.859375
9161		-9.765625
9162		-5.859375
9163		-9.765625
9164		-5.859375
9165		-9.765625
9166		-5.859375
9167		-11.718750
9168		-7.812500
9169		-9.765625
9170		-5.859375
9171		-9.765625
9172		-7.812500
9173		-11.718750
9174		-7.812500
9175		-11.718750
9176		-7.812500
9177		-11.718750
9178		-7.812500
9179		-13.671875
9180		-7.812500
9181		-11.718750
9182		-9.765625
9183		-11.718750
9184		-9.765625
9185		-13.671875
9186		-9.765625
9187		-13.671875
9188		-9.765625
9189		-13.671875
9190		-9.765625
9191		-13.671875
9192		-9.765625
9193		-13.671875
9194		-11.718750
9195		-13.671875
9196		-9.765625
9197		-13.671875
9198		-11.718750
9199		-15.625000
9200		-11.718750
9201		-15.625000
9202		-11.718750
9203		-13.671875
9204		-11.718750
9205		-15.625000
9206		-11.718750
9207		-15.625000
9208		-11.718750
9209		-15.625000
9210		-11.718750
9211		-15.625000
9212		-11.718750
9213		-15.625000
9214		-11.718750
9215		-15.625000
9216		-11.718750
9217		-15.625000
9218		-11.718750
9219		-15.625000
9220		-11.718750
9221		-15.625000
9222		-11.718750
9223		-17.578125
9224		-13.671875
9225		-15.625000
9226		-11.718750
9227		-15.625000
9228		-13.671875
9229		-15.625000
9230		-13.671875
9231		-15.625000
9232		-13.671875
9233		-15.625000
9234		-13.671875
9235		-15.625000
9236		-11.718750
9237		-15.625000
9238		-13.671875
9239		-15.625000
9240		-11.718750
9241		-17.578125
9242		-11.718750
9243		-15.625000
9244		-11.718750
9245		-15.625000
9246		-11.718750
9247		-15.625000
9248		-11.718750
9249		-15.625000
9250		-11.718750
9251		-15.625000
9252		-11.718750
9253		-15.625000
9254		-11.718750
9255		-15.625000
9256		-11.718750
9257		-15.625000
9258		-11.718750
9259		-15.625000
9260		-11.718750
9261		-15.625000
9262		-11.718750
9263		-15.625000
9264		-11.718750
9265		-13.671875
9266		-11.718750
9267		-13.671875
9268		-9.765625
9269		-13.671875
9270		-9.765625
9271		-13.671875
9272		-9.765625
9273		-13.671875
9274		-9.765625
9275		-13.671875
9276		-7.812500
9277		-13.671875
9278		-9.765625
9279		-11.718750
9280		-9.765625
9281		-11.718750
9282		-9.765625
9283		-11.718750
9284		-7.812500
9285		-11.718750
9286		-7.812500
9287		-11.718750
9288		-7.812500
9289		-11.718750
9290		-7.812500
9291		-11.718750
9292		-7.812500
9293		-11.718750
9294		-7.812500
9295		-9.765625
9296		-7.812500
9297		-9.765625
9298		-5.859375
9299		-9.765625
9300		-5.859375
9301		-9.765625
9302		-5.859375
9303		-9.765625
9304		-5.859375
9305		-7.812500
9306		-5.859375
9307		-7.812500
9308		-3.906250
9309		-7.812500
9310		-3.906250
9311		-7.812500
9312		-3.906250
9313		-7.812500
9314		-3.906250
9315		-5.859375
9316		-3.906250
9317		-5.859375
9318		-1.953125
9319		-5.859375
9320		-1.953125
9321		-5.859375
9322		-1.953125
9323		-3.906250
9324		-1.953125
9325		-3.906250
9326		-1.953125
9327		-3.906250
9328		0.000000
9329		-3.906250
9330		0.000000
9331		-3.906250
9332		0.000000
9333		-1.953125
9334		0.000000
9335		-1.953125
9336		0.000000
9337		-3.906250
9338		1.953125
9339		-1.953125
9340		1.953125
9341		-1.953125
9342		1.953125
9343		0.000000
9344		1.953125
9345		0.000000
9346		3.906250
9347		0.000000
9348		3.906250
9349		0.000000
9350		3.906250
9351		1.953125
9352		5.859375
9353		1.953125
9354		5.859375
9355		1.953125
9356		5.859375
9357		1.953125
9358		5.859375
9359		1.953125
9360		5.859375
9361		1.953125
9362		5.859375
9363		3.906250
9364		7.812500
9365		3.906250
9366		7.812500
9367		3.906250
9368		7.812500
9369		3.906250
9370		7.812500
9371		5.859375
9372		7.812500
9373		5.859375
9374		7.812500
9375		5.859375
9376		9.765625
9377		5.859375
9378		9.765625
9379		5.859375
9380		9.765625
9381		7.812500
9382		9.765625
9383		7.812500
9384		11.718750
9385		7.812500
9386		11.718750
9387		7.812500
9388		11.718750
9389		7.812500
9390		11.718750
9391		7.812500
9392		11.718750
9393		9.765625
9394		13.671875
9395		9.765625
9396		11.718750
9397		9.765625
9398		13.671875
9399		9.765625
9400		13.671875
9401		9.765625
9402		13.671875
9403		9.765625
9404		13.671875
9405		11.718750
9406		13.671875
9407		11.718750
9408		13.671875
9409		11.718750
9410		15.625000
9411		11.718750
9412		15.625000
9413		11.718750
9414		15.625000
9415		11.718750
9416		15.625000
9417		13.671875
9418		15.625000
9419		13.671875
9420		15.625000
9421		11.718750
9422		17.578125
9423		13.671875
9424		17.578125
9425		13.671875
9426		17.578125
9427		13.671875
9428		17.578125
9429		13.671875
9430		17.578125
9431		13.671875
9432		17.578125
9433		13.671875
9434		19.531250
9435		13.671875
9436		17.578125
9437		15.625000
9438		17.578125
9439		15.625000
9440		17.578125
9441		15.625000
9442		17.578125
9443		13.671875
9444		19.531250
9445		15.625000
9446		17.578125
9447		15.625000
9448		19.531250
9449		13.671875
9450		19.531250
9451		15.625000
9452		19.531250
9453		15.625000
9454		19.531250
9455		15.625000
9456		19.531250
9457		15.625000
9458		19.531250
9459		15.625000
9460		19.531250
9461		15.625000
9462		19.531250
9463		15.625000
9464		19.531250
9465		15.625000
9466		19.531250
9467		15.625000
9468		19.531250
9469		15.625000
9470		19.531250
9471		15.625000
9472		19.531250
9473		15.625000
9474		19.531250
9475		15.625000
9476		19.531250
9477		15.625000
9478		19.531250
9479		15.625000
9480		19.531250
9481		15.625000
9482		19.531250
9483		15.625000
9484		17.578125
9485		15.625000
9486		19.531250
9487		15.625000
9488		19.531250
9489		15.625000
9490		17.578125
9491		15.625000
9492		19.531250
9493		15.625000
9494		17.578125
9495		15.625000
9496		17.578125
9497		13.671875
9498		17.578125
9499		15.625000
9500		17.578125
9501		13.671875
9502		17.578125
9503		13.671875
9504		17.578125
9505		13.671875
9506		17.578125
9507		13.671875
9508		17.578125
9509		13.671875
9510		17.578125
9511		13.671875
9512		17.578125
9513		13.671875
9514		17.578125
9515		13.671875
9516		15.625000
9517		11.718750
9518		15.625000
9519		11.718750
9520		15.625000
9521		11.718750
9522		15.625000
9523		11.718750
9524		15.625000
9525		11.718750
9526		15.625000
9527		9.765625
9528		15.625000
9529		11.718750
9530		13.671875
9531		9.765625
9532		13.671875
9533		9.765625
9534		13.671875
9535		9.765625
9536		13.671875
9537		9.765625
9538		13.671875
9539		9.765625
9540		11.718750
9541		9.765625
9542		11.718750
9543		7.812500
9544		11.718750
9545		7.812500
9546		11.718750
9547		7.812500
9548		11.718750
9549		7.812500
9550		11.718750
9551		7.812500
9552		11.718750
9553		7.812500
9554		9.765625
9555		5.859375
9556		9.765625
9557		5.859375
9558		9.765625
9559		5.859375
9560		9.765625
9561		5.859375
9562		9.765625
9563		5.859375
9564		7.812500
9565		3.906250
9566		7.812500
9567		3.906250
9568		7.812500
9569		3.906250
9570		7.812500
9571		3.906250
9572		7.812500
9573		3.906250
9574		5.859375
9575		1.953125
9576		5.859375
9577		1.953125
9578		5.859375
9579		1.953125
9580		5.859375
9581		0.000000
9582		5.859375
9583		1.953125
9584		3.906250
9585		0.000000
9586		3.906250
9587		0.000000
9588		3.906250
9589		0.000000
9590		3.906250
9591		0.000000
9592		1.953125
9593		-1.953125
9594		1.953125
9595		-1.953125
9596		1.953125
9597		-1.953125
9598		1.953125
9599		-1.953125
9600		0.000000
9601		-3.906250
9602		0.000000
9603		-3.906250
9604		0.000000
9605		-3.906250
9606		0.000000
9607		-3.906250
9608		0.000000
9609		-3.906250
9610		-1.953125
9611		-5.859375
9612		0.000000
9613		-5.859375
9614		-1.953125
9615		-5.859375
9616		-1.953125
9617		-5.859375
9618		-1.953125
9619		-5.859375
9620		-3.906250
9621		-5.859375
9622		-3.906250
9623		-7.812500
9624		-3.906250
9625		-7.812500
9626		-3.906250
9627		-7.812500
9628		-3.906250
9629		-7.812500
9630		-5.859375
9631		-9.765625
9632		-5.859375
9633		-9.765625
9634		-5.859375
9635		-9.765625
9636		-5.859375
9637		-9.765625
9638		-5.859375
9639		-11.718750
9640		-7.812500
9641		-9.765625
9642		-7.812500
9643		-11.718750
9644		-7.812500
9645		-11.718750
9646		-7.812500
9647		-11.718750
9648		-7.812500
9649		-11.718750
9650		-9.765625
9651		-11.718750
9652		-9.765625
9653		-11.718750
9654		-9.765625
9655		-13.671875
9656		-9.765625
9657		-13.671875
9658		-9.765625
9659		-13.671875
9660		-9.765625
9661		-13.671875
9662		-9.765625
9663		-13.671875
9664		-9.765625
9665		-13.671875
9666		-11.718750
9667		-13.671875
9668		-11.718750
9669		-13.671875
9670		-9.765625
9671		-13.671875
9672		-11.718750
9673		-15.625000
9674		-11.718750
9675		-13.671875
9676		-11.718750
9677		-15.625000
9678		-11.718750
9679		-15.625000
9680		-11.718750
9681		-15.625000
9682		-11.718750
9683		-15.625000
9684		-11.718750
9685		-15.625000
9686		-11.718750
9687		-15.625000
9688		-11.718750
9689		-17.578125
9690		-11.718750
9691		-15.625000
9692		-13.671875
9693		-15.625000
9694		-13.671875
9695		-15.625000
9696		-11.718750
9697		-15.625000
9698		-13.671875
9699		-15.625000
9700		-11.718750
9701		-15.625000
9702		-13.671875
9703		-15.625000
9704		-13.671875
9705		-17.578125
9706		-13.671875
9707		-15.625000
9708		-11.718750
9709		-15.625000
9710		-13.671875
9711		-15.625000
9712		-13.671875
9713		-15.625000
9714		-11.718750
9715		-15.625000
9716		-13.671875
9717		-15.625000
9718		-11.718750
9719		-15.625000
9720		-11.718750
9721		-15.625000
9722		-11.718750
9723		-15.625000
9724		-11.718750
9725		-15.625000
9726		-11.718750
9727		-15.625000
9728		-11.718750
9729		-15.625000
9730		-11.718750
9731		-15.625000
9732		-11.718750
9733		-15.625000
9734		-11.718750
9735		-13.671875
9736		-11.718750
9737		-15.625000
9738		-11.718750
9739		-13.671875
9740		-9.765625
9741		-13.671875
9742		-11.718750
9743		-13.671875
9744		-9.765625
9745		-13.671875
9746		-9.765625
9747		-13.671875
9748		-9.765625
9749		-13.671875
9750		-9.765625
9751		-13.671875
9752		-9.765625
9753		-11.718750
9754		-9.765625
9755		-11.718750
9756		-9.765625
9757		-11.718750
9758		-7.812500
9759		-11.718750
9760		-7.812500
9761		-11.718750
9762		-7.812500
9763		-11.718750
9764		-7.812500
9765		-11.718750
9766		-7.812500
9767		-9.765625
9768		-7.812500
9769		-9.765625
9770		-7.812500
9771		-9.765625
9772		-5.859375
9773		-9.765625
9774		-5.859375
9775		-7.812500
9776		-5.859375
9777		-7.812500
9778		-5.859375
9779		-9.765625
9780		-3.906250
9781		-7.812500
9782		-3.906250
9783		-7.812500
9784		-3.906250
9785		-7.812500
9786		-3.906250
9787		-7.812500
9788		-3.906250
9789		-5.859375
9790		-1.953125
9791		-5.859375
9792		-1.953125
9793		-5.859375
9794		-1.953125
9795		-5.859375
9796		0.000000
9797		-3.906250
9798		0.000000
9799		-3.906250
9800		0.000000
9801		-3.906250
9802		0.000000
9803		-3.906250
9804		0.000000
9805		-1.953125
9806		0.000000
9807		-1.953125
9808		1.953125
9809		-1.953125
9810		1.953125
9811		-1.953125
9812		1.953125
9813		-1.953125
9814		1.953125
9815		0.000000
9816		1.953125
9817		0.000000
9818		1.953125
9819		0.000000
9820		3.906250
9821		0.000000
9822		3.906250
9823		0.000000
9824		3.906250
9825		1.953125
9826		3.906250
9827		1.953125
9828		3.906250
9829		1.953125
9830		5.859375
9831		1.953125
9832		5.859375
9833		3.906250
9834		5.859375
9835		3.906250
9836		7.812500
9837		3.906250
9838		7.812500
9839		3.906250
9840		7.812500
9841		3.906250
9842		7.812500
9843		5.859375
9844		7.812500
9845		5.859375
9846		7.812500
9847		5.859375
9848		9.765625
9849		5.859375
9850		9.765625
9851		5.859375
9852		9.765625
9853		5.859375
9854		11.718750
9855		7.812500
9856		11.718750
9857		7.812500
9858		11.718750
9859		7.812500
9860		11.718750
9861		7.812500
9862		11.718750
9863		7.812500
9864		11.718750
9865		7.812500
9866		13.671875
9867		9.765625
9868		13.671875
9869		9.765625
9870		13.671875
9871		9.765625
9872		13.671875
9873		9.765625
9874		13.671875
9875		9.765625
9876		13.671875
9877		11.718750
9878		13.671875
9879		11.718750
9880		15.625000
9881		11.718750
9882		15.625000
9883		11.718750
9884		15.625000
9885		11.718750
9886		15.625000
9887		11.718750
9888		15.625000
9889		11.718750
9890		15.625000
9891		11.718750
9892		15.625000
9893		13.671875
9894		15.625000
9895		13.671875
9896		17.578125
9897		13.671875
9898		17.578125
9899		13.671875
9900		17.578125
9901		13.671875
9902		17.578125
9903		13.671875
9904		17.578125
9905		13.671875
9906		17.578125
9907		13.671875
9908		17.578125
9909		13.671875
9910		17.578125
9911		15.625000
9912		17.578125
9913		15.625000
9914		17.578125
9915		15.625000
9916		17.578125
9917		15.625000
9918		17.578125
9919		15.625000
9920		17.578125
9921		13.671875
9922		19.531250
9923		15.625000
9924		19.531250
9925		15.625000
9926		17.578125
9927		15.625000
9928		19.531250
9929		15.625000
9930		19.531250
9931		15.625000
9932		19.531250
9933		15.625000
9934		19.531250
9935		15.625000
9936		19.531250
9937		15.625000
9938		19.531250
9939		15.625000
9940		19.531250
9941		15.625000
9942		19.531250
9943		15.625000
9944		19.531250
9945		15.625000
9946		19.531250
9947		15.625000
9948		19.531250
9949		15.625000
9950		19.531250
9951		15.625000
9952		17.578125
9953		15.625000
9954		19.531250
9955		13.671875
9956		19.531250
9957		15.625000
9958		17.578125
9959		13.671875
9960		19.531250
9961		15.625000
9962		17.578125
9963		15.625000
9964		17.578125
9965		15.625000
9966		17.578125
9967		13.671875
9968		17.578125
9969		13.671875
9970		17.578125
9971		13.671875
9972		17.578125
9973		13.671875
9974		17.578125
9975		11.718750
9976		17.578125
9977		13.671875
9978		17.578125
9979		13.671875
9980		17.578125
9981		13.671875
9982		17.578125
9983		13.671875
9984		17.578125
9985		11.718750
9986		15.625000
9987		11.718750
9988		15.625000
9989		11.718750
9990		15.625000
9991		11.718750
9992		15.625000
9993		11.718750
9994		15.625000
9995		11.718750
9996		13.671875
9997		9.765625
9998		13.671875
9999		9.765625
10000		13.671875
