Channel              :		CH1
Frequency            :		1.061kHz
Period               :		0.943ms
PK-PK                :		48.83mV
Probe attenuation    :		1X
Voltage per ADC value:		0.122070mV
Time interval        :		2.00000us

index		CH1_Voltage(mV)
1		-3.906250
2		-3.906250
3		-7.812500
4		-3.906250
5		-9.765625
6		-5.859375
7		-9.765625
8		-5.859375
9		-9.765625
10		-5.859375
11		-9.765625
12		-5.859375
13		-9.765625
14		-7.812500
15		-11.718750
16		-7.812500
17		-11.718750
18		-7.812500
19		-11.718750
20		-7.812500
21		-11.718750
22		-9.765625
23		-11.718750
24		-9.765625
25		-13.671875
26		-9.765625
27		-13.671875
28		-9.765625
29		-13.671875
30		-9.765625
31		-13.671875
32		-11.718750
33		-15.625000
34		-9.765625
35		-13.671875
36		-11.718750
37		-13.671875
38		-11.718750
39		-15.625000
40		-11.718750
41		-15.625000
42		-11.718750
43		-15.625000
44		-11.718750
45		-15.625000
46		-11.718750
47		-15.625000
48		-13.671875
49		-17.578125
50		-11.718750
51		-15.625000
52		-13.671875
53		-17.578125
54		-13.671875
55		-17.578125
56		-13.671875
57		-17.578125
58		-13.671875
59		-17.578125
60		-13.671875
61		-17.578125
62		-13.671875
63		-17.578125
64		-15.625000
65		-17.578125
66		-13.671875
67		-17.578125
68		-13.671875
69		-17.578125
70		-15.625000
71		-17.578125
72		-15.625000
73		-17.578125
74		-15.625000
75		-17.578125
76		-13.671875
77		-19.531250
78		-13.671875
79		-17.578125
80		-15.625000
81		-17.578125
82		-15.625000
83		-19.531250
84		-15.625000
85		-17.578125
86		-13.671875
87		-17.578125
88		-13.671875
89		-17.578125
90		-13.671875
91		-19.531250
92		-13.671875
93		-17.578125
94		-13.671875
95		-17.578125
96		-13.671875
97		-17.578125
98		-15.625000
99		-19.531250
100		-13.671875
101		-17.578125
102		-13.671875
103		-17.578125
104		-13.671875
105		-17.578125
106		-13.671875
107		-17.578125
108		-13.671875
109		-17.578125
110		-13.671875
111		-17.578125
112		-13.671875
113		-15.625000
114		-13.671875
115		-15.625000
116		-13.671875
117		-17.578125
118		-11.718750
119		-15.625000
120		-11.718750
121		-17.578125
122		-11.718750
123		-15.625000
124		-11.718750
125		-15.625000
126		-11.718750
127		-15.625000
128		-11.718750
129		-15.625000
130		-11.718750
131		-13.671875
132		-11.718750
133		-13.671875
134		-9.765625
135		-13.671875
136		-9.765625
137		-13.671875
138		-9.765625
139		-13.671875
140		-9.765625
141		-11.718750
142		-9.765625
143		-13.671875
144		-7.812500
145		-11.718750
146		-7.812500
147		-11.718750
148		-7.812500
149		-11.718750
150		-7.812500
151		-11.718750
152		-7.812500
153		-9.765625
154		-7.812500
155		-9.765625
156		-5.859375
157		-9.765625
158		-5.859375
159		-9.765625
160		-3.906250
161		-7.812500
162		-3.906250
163		-7.812500
164		-5.859375
165		-7.812500
166		-3.906250
167		-7.812500
168		-3.906250
169		-5.859375
170		-3.906250
171		-5.859375
172		-1.953125
173		-5.859375
174		-1.953125
175		-5.859375
176		-1.953125
177		-5.859375
178		-1.953125
179		-3.906250
180		-1.953125
181		-3.906250
182		0.000000
183		-3.906250
184		0.000000
185		-1.953125
186		1.953125
187		-1.953125
188		1.953125
189		-1.953125
190		1.953125
191		-1.953125
192		1.953125
193		-1.953125
194		1.953125
195		-1.953125
196		3.906250
197		0.000000
198		3.906250
199		0.000000
200		3.906250
201		0.000000
202		5.859375
203		1.953125
204		5.859375
205		1.953125
206		5.859375
207		3.906250
208		5.859375
209		3.906250
210		7.812500
211		3.906250
212		7.812500
213		3.906250
214		7.812500
215		5.859375
216		7.812500
217		5.859375
218		7.812500
219		5.859375
220		9.765625
221		5.859375
222		9.765625
223		5.859375
224		11.718750
225		7.812500
226		11.718750
227		7.812500
228		11.718750
229		7.812500
230		11.718750
231		9.765625
232		11.718750
233		7.812500
234		13.671875
235		9.765625
236		13.671875
237		9.765625
238		13.671875
239		9.765625
240		13.671875
241		11.718750
242		13.671875
243		11.718750
244		15.625000
245		11.718750
246		15.625000
247		13.671875
248		15.625000
249		13.671875
250		15.625000
251		11.718750
252		17.578125
253		13.671875
254		17.578125
255		13.671875
256		17.578125
257		13.671875
258		17.578125
259		15.625000
260		17.578125
261		15.625000
262		19.531250
263		13.671875
264		19.531250
265		15.625000
266		17.578125
267		15.625000
268		19.531250
269		15.625000
270		19.531250
271		15.625000
272		19.531250
273		17.578125
274		21.484375
275		17.578125
276		21.484375
277		17.578125
278		21.484375
279		17.578125
280		21.484375
281		19.531250
282		21.484375
283		19.531250
284		21.484375
285		17.578125
286		21.484375
287		19.531250
288		21.484375
289		19.531250
290		23.437500
291		19.531250
292		23.437500
293		19.531250
294		23.437500
295		19.531250
296		23.437500
297		19.531250
298		23.437500
299		19.531250
300		23.437500
301		19.531250
302		23.437500
303		19.531250
304		23.437500
305		19.531250
306		25.390625
307		19.531250
308		23.437500
309		19.531250
310		23.437500
311		21.484375
312		23.437500
313		19.531250
314		23.437500
315		21.484375
316		23.437500
317		21.484375
318		25.390625
319		19.531250
320		23.437500
321		21.484375
322		23.437500
323		21.484375
324		23.437500
325		21.484375
326		23.437500
327		21.484375
328		23.437500
329		19.531250
330		25.390625
331		21.484375
332		23.437500
333		21.484375
334		23.437500
335		19.531250
336		23.437500
337		19.531250
338		23.437500
339		19.531250
340		23.437500
341		19.531250
342		23.437500
343		19.531250
344		23.437500
345		19.531250
346		23.437500
347		19.531250
348		23.437500
349		19.531250
350		23.437500
351		19.531250
352		21.484375
353		19.531250
354		21.484375
355		19.531250
356		21.484375
357		19.531250
358		21.484375
359		17.578125
360		21.484375
361		17.578125
362		21.484375
363		17.578125
364		21.484375
365		17.578125
366		19.531250
367		17.578125
368		19.531250
369		15.625000
370		21.484375
371		15.625000
372		19.531250
373		15.625000
374		19.531250
375		15.625000
376		19.531250
377		15.625000
378		19.531250
379		15.625000
380		17.578125
381		15.625000
382		17.578125
383		15.625000
384		17.578125
385		13.671875
386		17.578125
387		13.671875
388		17.578125
389		13.671875
390		17.578125
391		11.718750
392		17.578125
393		11.718750
394		15.625000
395		11.718750
396		15.625000
397		9.765625
398		15.625000
399		11.718750
400		13.671875
401		11.718750
402		13.671875
403		9.765625
404		13.671875
405		9.765625
406		13.671875
407		7.812500
408		11.718750
409		7.812500
410		11.718750
411		7.812500
412		11.718750
413		5.859375
414		11.718750
415		7.812500
416		9.765625
417		7.812500
418		9.765625
419		5.859375
420		9.765625
421		5.859375
422		9.765625
423		5.859375
424		9.765625
425		3.906250
426		7.812500
427		3.906250
428		7.812500
429		3.906250
430		7.812500
431		1.953125
432		7.812500
433		3.906250
434		5.859375
435		1.953125
436		5.859375
437		1.953125
438		3.906250
439		1.953125
440		3.906250
441		0.000000
442		3.906250
443		0.000000
444		3.906250
445		0.000000
446		3.906250
447		0.000000
448		1.953125
449		-1.953125
450		1.953125
451		-1.953125
452		0.000000
453		-3.906250
454		1.953125
455		-3.906250
456		0.000000
457		-3.906250
458		0.000000
459		-3.906250
460		0.000000
461		-5.859375
462		0.000000
463		-5.859375
464		-1.953125
465		-5.859375
466		-1.953125
467		-5.859375
468		-3.906250
469		-7.812500
470		-1.953125
471		-7.812500
472		-3.906250
473		-7.812500
474		-3.906250
475		-7.812500
476		-5.859375
477		-9.765625
478		-5.859375
479		-9.765625
480		-5.859375
481		-9.765625
482		-5.859375
483		-9.765625
484		-7.812500
485		-9.765625
486		-7.812500
487		-11.718750
488		-5.859375
489		-11.718750
490		-7.812500
491		-11.718750
492		-7.812500
493		-11.718750
494		-7.812500
495		-13.671875
496		-7.812500
497		-13.671875
498		-9.765625
499		-13.671875
500		-9.765625
501		-13.671875
502		-9.765625
503		-13.671875
504		-9.765625
505		-13.671875
506		-9.765625
507		-13.671875
508		-11.718750
509		-13.671875
510		-11.718750
511		-15.625000
512		-11.718750
513		-15.625000
514		-11.718750
515		-15.625000
516		-11.718750
517		-15.625000
518		-13.671875
519		-17.578125
520		-11.718750
521		-15.625000
522		-11.718750
523		-15.625000
524		-13.671875
525		-17.578125
526		-13.671875
527		-17.578125
528		-13.671875
529		-17.578125
530		-13.671875
531		-17.578125
532		-13.671875
533		-17.578125
534		-15.625000
535		-17.578125
536		-15.625000
537		-17.578125
538		-13.671875
539		-17.578125
540		-13.671875
541		-17.578125
542		-13.671875
543		-17.578125
544		-13.671875
545		-17.578125
546		-13.671875
547		-19.531250
548		-13.671875
549		-19.531250
550		-13.671875
551		-17.578125
552		-15.625000
553		-17.578125
554		-13.671875
555		-17.578125
556		-15.625000
557		-17.578125
558		-13.671875
559		-17.578125
560		-15.625000
561		-17.578125
562		-13.671875
563		-17.578125
564		-13.671875
565		-17.578125
566		-13.671875
567		-17.578125
568		-15.625000
569		-17.578125
570		-15.625000
571		-17.578125
572		-13.671875
573		-17.578125
574		-13.671875
575		-17.578125
576		-13.671875
577		-17.578125
578		-13.671875
579		-17.578125
580		-13.671875
581		-17.578125
582		-13.671875
583		-15.625000
584		-13.671875
585		-15.625000
586		-13.671875
587		-17.578125
588		-11.718750
589		-15.625000
590		-11.718750
591		-15.625000
592		-11.718750
593		-15.625000
594		-11.718750
595		-15.625000
596		-11.718750
597		-15.625000
598		-11.718750
599		-15.625000
600		-11.718750
601		-13.671875
602		-11.718750
603		-15.625000
604		-9.765625
605		-13.671875
606		-9.765625
607		-13.671875
608		-9.765625
609		-13.671875
610		-9.765625
611		-11.718750
612		-9.765625
613		-11.718750
614		-7.812500
615		-11.718750
616		-7.812500
617		-11.718750
618		-9.765625
619		-11.718750
620		-7.812500
621		-11.718750
622		-7.812500
623		-9.765625
624		-7.812500
625		-9.765625
626		-7.812500
627		-9.765625
628		-5.859375
629		-9.765625
630		-5.859375
631		-9.765625
632		-5.859375
633		-9.765625
634		-3.906250
635		-7.812500
636		-5.859375
637		-7.812500
638		-3.906250
639		-7.812500
640		-3.906250
641		-5.859375
642		-3.906250
643		-5.859375
644		-3.906250
645		-5.859375
646		-1.953125
647		-5.859375
648		-1.953125
649		-5.859375
650		0.000000
651		-3.906250
652		-1.953125
653		-5.859375
654		1.953125
655		-3.906250
656		1.953125
657		-3.906250
658		1.953125
659		-1.953125
660		1.953125
661		-1.953125
662		1.953125
663		-1.953125
664		1.953125
665		0.000000
666		1.953125
667		-1.953125
668		3.906250
669		0.000000
670		3.906250
671		0.000000
672		5.859375
673		1.953125
674		5.859375
675		1.953125
676		5.859375
677		1.953125
678		5.859375
679		1.953125
680		5.859375
681		3.906250
682		7.812500
683		3.906250
684		7.812500
685		5.859375
686		7.812500
687		3.906250
688		9.765625
689		5.859375
690		9.765625
691		5.859375
692		9.765625
693		5.859375
694		9.765625
695		5.859375
696		11.718750
697		5.859375
698		13.671875
699		5.859375
700		13.671875
701		7.812500
702		11.718750
703		7.812500
704		11.718750
705		7.812500
706		11.718750
707		9.765625
708		13.671875
709		9.765625
710		13.671875
711		11.718750
712		13.671875
713		9.765625
714		15.625000
715		9.765625
716		17.578125
717		11.718750
718		15.625000
719		13.671875
720		15.625000
721		11.718750
722		17.578125
723		13.671875
724		17.578125
725		13.671875
726		17.578125
727		11.718750
728		19.531250
729		11.718750
730		19.531250
731		13.671875
732		21.484375
733		13.671875
734		21.484375
735		15.625000
736		17.578125
737		15.625000
738		19.531250
739		15.625000
740		19.531250
741		15.625000
742		19.531250
743		17.578125
744		19.531250
745		13.671875
746		21.484375
747		15.625000
748		23.437500
749		15.625000
750		23.437500
751		15.625000
752		23.437500
753		19.531250
754		21.484375
755		17.578125
756		23.437500
757		17.578125
758		23.437500
759		15.625000
760		25.390625
761		17.578125
762		25.390625
763		17.578125
764		25.390625
765		17.578125
766		25.390625
767		17.578125
768		25.390625
769		21.484375
770		23.437500
771		19.531250
772		25.390625
773		19.531250
774		25.390625
775		17.578125
776		25.390625
777		19.531250
778		25.390625
779		19.531250
780		25.390625
781		17.578125
782		25.390625
783		17.578125
784		27.343750
785		19.531250
786		25.390625
787		21.484375
788		23.437500
789		19.531250
790		25.390625
791		19.531250
792		25.390625
793		19.531250
794		25.390625
795		17.578125
796		27.343750
797		19.531250
798		27.343750
799		17.578125
800		27.343750
801		17.578125
802		25.390625
803		21.484375
804		23.437500
805		19.531250
806		25.390625
807		17.578125
808		25.390625
809		17.578125
810		25.390625
811		17.578125
812		25.390625
813		17.578125
814		25.390625
815		17.578125
816		25.390625
817		17.578125
818		25.390625
819		19.531250
820		21.484375
821		19.531250
822		21.484375
823		17.578125
824		23.437500
825		17.578125
826		23.437500
827		15.625000
828		23.437500
829		15.625000
830		23.437500
831		15.625000
832		23.437500
833		15.625000
834		23.437500
835		15.625000
836		23.437500
837		17.578125
838		19.531250
839		15.625000
840		21.484375
841		15.625000
842		21.484375
843		13.671875
844		21.484375
845		13.671875
846		21.484375
847		13.671875
848		21.484375
849		13.671875
850		21.484375
851		13.671875
852		21.484375
853		15.625000
854		17.578125
855		11.718750
856		19.531250
857		11.718750
858		19.531250
859		11.718750
860		19.531250
861		9.765625
862		19.531250
863		11.718750
864		17.578125
865		9.765625
866		17.578125
867		9.765625
868		17.578125
869		11.718750
870		13.671875
871		9.765625
872		13.671875
873		7.812500
874		15.625000
875		7.812500
876		15.625000
877		7.812500
878		15.625000
879		7.812500
880		15.625000
881		5.859375
882		15.625000
883		5.859375
884		13.671875
885		5.859375
886		13.671875
887		7.812500
888		9.765625
889		3.906250
890		11.718750
891		3.906250
892		11.718750
893		3.906250
894		11.718750
895		3.906250
896		9.765625
897		1.953125
898		9.765625
899		1.953125
900		9.765625
901		1.953125
902		9.765625
903		3.906250
904		5.859375
905		1.953125
906		5.859375
907		0.000000
908		7.812500
909		0.000000
910		7.812500
911		0.000000
912		7.812500
913		-1.953125
914		5.859375
915		-1.953125
916		5.859375
917		-1.953125
918		5.859375
919		-1.953125
920		3.906250
921		-1.953125
922		1.953125
923		-3.906250
924		3.906250
925		-5.859375
926		3.906250
927		-5.859375
928		1.953125
929		-5.859375
930		1.953125
931		-5.859375
932		1.953125
933		-7.812500
934		1.953125
935		-7.812500
936		0.000000
937		-5.859375
938		-1.953125
939		-5.859375
940		-1.953125
941		-7.812500
942		-1.953125
943		-9.765625
944		-1.953125
945		-9.765625
946		-1.953125
947		-9.765625
948		-1.953125
949		-11.718750
950		-3.906250
951		-11.718750
952		-3.906250
953		-9.765625
954		-5.859375
955		-9.765625
956		-7.812500
957		-13.671875
958		-3.906250
959		-13.671875
960		-3.906250
961		-13.671875
962		-5.859375
963		-13.671875
964		-5.859375
965		-13.671875
966		-5.859375
967		-13.671875
968		-5.859375
969		-15.625000
970		-7.812500
971		-11.718750
972		-9.765625
973		-15.625000
974		-7.812500
975		-15.625000
976		-7.812500
977		-15.625000
978		-7.812500
979		-15.625000
980		-7.812500
981		-17.578125
982		-9.765625
983		-17.578125
984		-9.765625
985		-17.578125
986		-9.765625
987		-13.671875
988		-11.718750
989		-15.625000
990		-11.718750
991		-17.578125
992		-9.765625
993		-17.578125
994		-9.765625
995		-19.531250
996		-9.765625
997		-19.531250
998		-9.765625
999		-19.531250
1000		-11.718750
1001		-19.531250
1002		-11.718750
1003		-19.531250
1004		-11.718750
1005		-15.625000
1006		-13.671875
1007		-19.531250
1008		-11.718750
1009		-19.531250
1010		-11.718750
1011		-19.531250
1012		-11.718750
1013		-19.531250
1014		-11.718750
1015		-19.531250
1016		-11.718750
1017		-21.484375
1018		-11.718750
1019		-19.531250
1020		-11.718750
1021		-17.578125
1022		-15.625000
1023		-17.578125
1024		-15.625000
1025		-19.531250
1026		-11.718750
1027		-19.531250
1028		-11.718750
1029		-19.531250
1030		-11.718750
1031		-19.531250
1032		-11.718750
1033		-19.531250
1034		-11.718750
1035		-19.531250
1036		-11.718750
1037		-17.578125
1038		-13.671875
1039		-17.578125
1040		-13.671875
1041		-19.531250
1042		-11.718750
1043		-19.531250
1044		-11.718750
1045		-19.531250
1046		-11.718750
1047		-19.531250
1048		-11.718750
1049		-19.531250
1050		-9.765625
1051		-17.578125
1052		-9.765625
1053		-17.578125
1054		-11.718750
1055		-15.625000
1056		-13.671875
1057		-17.578125
1058		-11.718750
1059		-17.578125
1060		-9.765625
1061		-17.578125
1062		-9.765625
1063		-17.578125
1064		-9.765625
1065		-17.578125
1066		-9.765625
1067		-17.578125
1068		-9.765625
1069		-17.578125
1070		-9.765625
1071		-13.671875
1072		-11.718750
1073		-13.671875
1074		-9.765625
1075		-15.625000
1076		-7.812500
1077		-15.625000
1078		-7.812500
1079		-15.625000
1080		-7.812500
1081		-15.625000
1082		-7.812500
1083		-15.625000
1084		-5.859375
1085		-13.671875
1086		-5.859375
1087		-11.718750
1088		-5.859375
1089		-9.765625
1090		-7.812500
1091		-11.718750
1092		-5.859375
1093		-11.718750
1094		-3.906250
1095		-11.718750
1096		-3.906250
1097		-11.718750
1098		-3.906250
1099		-11.718750
1100		-3.906250
1101		-9.765625
1102		-3.906250
1103		-11.718750
1104		-1.953125
1105		-7.812500
1106		-3.906250
1107		-5.859375
1108		-3.906250
1109		-9.765625
1110		-1.953125
1111		-7.812500
1112		-1.953125
1113		-7.812500
1114		0.000000
1115		-7.812500
1116		0.000000
1117		-7.812500
1118		0.000000
1119		-7.812500
1120		1.953125
1121		-3.906250
1122		0.000000
1123		-3.906250
1124		0.000000
1125		-3.906250
1126		1.953125
1127		-3.906250
1128		3.906250
1129		-3.906250
1130		3.906250
1131		-3.906250
1132		3.906250
1133		-3.906250
1134		3.906250
1135		-1.953125
1136		5.859375
1137		-1.953125
1138		5.859375
1139		0.000000
1140		3.906250
1141		0.000000
1142		5.859375
1143		0.000000
1144		7.812500
1145		0.000000
1146		7.812500
1147		0.000000
1148		7.812500
1149		0.000000
1150		7.812500
1151		1.953125
1152		9.765625
1153		1.953125
1154		9.765625
1155		5.859375
1156		7.812500
1157		5.859375
1158		7.812500
1159		1.953125
1160		11.718750
1161		3.906250
1162		11.718750
1163		3.906250
1164		11.718750
1165		5.859375
1166		11.718750
1167		5.859375
1168		13.671875
1169		5.859375
1170		13.671875
1171		7.812500
1172		13.671875
1173		9.765625
1174		11.718750
1175		7.812500
1176		15.625000
1177		7.812500
1178		15.625000
1179		7.812500
1180		15.625000
1181		7.812500
1182		15.625000
1183		9.765625
1184		17.578125
1185		9.765625
1186		17.578125
1187		9.765625
1188		17.578125
1189		13.671875
1190		15.625000
1191		13.671875
1192		15.625000
1193		11.718750
1194		19.531250
1195		11.718750
1196		19.531250
1197		11.718750
1198		19.531250
1199		11.718750
1200		19.531250
1201		13.671875
1202		21.484375
1203		11.718750
1204		21.484375
1205		15.625000
1206		19.531250
1207		17.578125
1208		19.531250
1209		15.625000
1210		21.484375
1211		13.671875
1212		23.437500
1213		15.625000
1214		23.437500
1215		15.625000
1216		23.437500
1217		15.625000
1218		23.437500
1219		15.625000
1220		23.437500
1221		15.625000
1222		23.437500
1223		19.531250
1224		21.484375
1225		17.578125
1226		23.437500
1227		17.578125
1228		25.390625
1229		17.578125
1230		25.390625
1231		17.578125
1232		25.390625
1233		17.578125
1234		25.390625
1235		17.578125
1236		25.390625
1237		17.578125
1238		25.390625
1239		21.484375
1240		23.437500
1241		21.484375
1242		23.437500
1243		17.578125
1244		25.390625
1245		17.578125
1246		27.343750
1247		17.578125
1248		25.390625
1249		17.578125
1250		25.390625
1251		19.531250
1252		25.390625
1253		19.531250
1254		27.343750
1255		19.531250
1256		25.390625
1257		21.484375
1258		23.437500
1259		19.531250
1260		25.390625
1261		19.531250
1262		27.343750
1263		19.531250
1264		27.343750
1265		17.578125
1266		27.343750
1267		19.531250
1268		27.343750
1269		19.531250
1270		27.343750
1271		19.531250
1272		27.343750
1273		21.484375
1274		23.437500
1275		21.484375
1276		23.437500
1277		19.531250
1278		27.343750
1279		19.531250
1280		25.390625
1281		19.531250
1282		25.390625
1283		17.578125
1284		25.390625
1285		19.531250
1286		25.390625
1287		17.578125
1288		25.390625
1289		19.531250
1290		23.437500
1291		21.484375
1292		23.437500
1293		17.578125
1294		25.390625
1295		17.578125
1296		25.390625
1297		17.578125
1298		25.390625
1299		17.578125
1300		25.390625
1301		15.625000
1302		25.390625
1303		15.625000
1304		23.437500
1305		15.625000
1306		23.437500
1307		19.531250
1308		21.484375
1309		17.578125
1310		21.484375
1311		15.625000
1312		23.437500
1313		15.625000
1314		23.437500
1315		13.671875
1316		21.484375
1317		13.671875
1318		21.484375
1319		13.671875
1320		21.484375
1321		13.671875
1322		21.484375
1323		15.625000
1324		17.578125
1325		15.625000
1326		17.578125
1327		11.718750
1328		21.484375
1329		11.718750
1330		19.531250
1331		11.718750
1332		19.531250
1333		11.718750
1334		19.531250
1335		9.765625
1336		19.531250
1337		9.765625
1338		17.578125
1339		11.718750
1340		17.578125
1341		11.718750
1342		13.671875
1343		9.765625
1344		15.625000
1345		7.812500
1346		15.625000
1347		7.812500
1348		15.625000
1349		7.812500
1350		15.625000
1351		7.812500
1352		15.625000
1353		7.812500
1354		15.625000
1355		5.859375
1356		13.671875
1357		7.812500
1358		11.718750
1359		7.812500
1360		11.718750
1361		5.859375
1362		13.671875
1363		3.906250
1364		11.718750
1365		3.906250
1366		11.718750
1367		3.906250
1368		11.718750
1369		1.953125
1370		11.718750
1371		1.953125
1372		9.765625
1373		3.906250
1374		7.812500
1375		3.906250
1376		5.859375
1377		1.953125
1378		7.812500
1379		-1.953125
1380		7.812500
1381		0.000000
1382		7.812500
1383		-1.953125
1384		7.812500
1385		-1.953125
1386		5.859375
1387		-1.953125
1388		5.859375
1389		-1.953125
1390		5.859375
1391		0.000000
1392		1.953125
1393		-1.953125
1394		1.953125
1395		-3.906250
1396		3.906250
1397		-3.906250
1398		3.906250
1399		-5.859375
1400		3.906250
1401		-5.859375
1402		1.953125
1403		-5.859375
1404		1.953125
1405		-5.859375
1406		1.953125
1407		-3.906250
1408		-1.953125
1409		-3.906250
1410		-1.953125
1411		-7.812500
1412		0.000000
1413		-7.812500
1414		0.000000
1415		-9.765625
1416		0.000000
1417		-9.765625
1418		-1.953125
1419		-9.765625
1420		-1.953125
1421		-9.765625
1422		-1.953125
1423		-9.765625
1424		-3.906250
1425		-7.812500
1426		-5.859375
1427		-9.765625
1428		-3.906250
1429		-11.718750
1430		-3.906250
1431		-11.718750
1432		-3.906250
1433		-13.671875
1434		-5.859375
1435		-11.718750
1436		-5.859375
1437		-13.671875
1438		-5.859375
1439		-13.671875
1440		-5.859375
1441		-11.718750
1442		-9.765625
1443		-11.718750
1444		-9.765625
1445		-15.625000
1446		-5.859375
1447		-15.625000
1448		-7.812500
1449		-15.625000
1450		-7.812500
1451		-15.625000
1452		-7.812500
1453		-17.578125
1454		-7.812500
1455		-15.625000
1456		-9.765625
1457		-15.625000
1458		-9.765625
1459		-13.671875
1460		-11.718750
1461		-15.625000
1462		-9.765625
1463		-17.578125
1464		-9.765625
1465		-17.578125
1466		-11.718750
1467		-17.578125
1468		-11.718750
1469		-15.625000
1470		-11.718750
1471		-15.625000
1472		-11.718750
1473		-17.578125
1474		-11.718750
1475		-15.625000
1476		-13.671875
1477		-17.578125
1478		-13.671875
1479		-19.531250
1480		-11.718750
1481		-19.531250
1482		-11.718750
1483		-19.531250
1484		-11.718750
1485		-19.531250
1486		-11.718750
1487		-17.578125
1488		-13.671875
1489		-17.578125
1490		-13.671875
1491		-15.625000
1492		-13.671875
1493		-17.578125
1494		-13.671875
1495		-19.531250
1496		-11.718750
1497		-19.531250
1498		-11.718750
1499		-19.531250
1500		-11.718750
1501		-17.578125
1502		-13.671875
1503		-17.578125
1504		-13.671875
1505		-17.578125
1506		-13.671875
1507		-17.578125
1508		-13.671875
1509		-15.625000
1510		-13.671875
1511		-17.578125
1512		-11.718750
1513		-19.531250
1514		-11.718750
1515		-19.531250
1516		-11.718750
1517		-19.531250
1518		-11.718750
1519		-15.625000
1520		-13.671875
1521		-15.625000
1522		-13.671875
1523		-17.578125
1524		-11.718750
1525		-15.625000
1526		-13.671875
1527		-15.625000
1528		-13.671875
1529		-15.625000
1530		-11.718750
1531		-15.625000
1532		-11.718750
1533		-17.578125
1534		-9.765625
1535		-15.625000
1536		-11.718750
1537		-15.625000
1538		-11.718750
1539		-13.671875
1540		-9.765625
1541		-15.625000
1542		-9.765625
1543		-13.671875
1544		-9.765625
1545		-13.671875
1546		-9.765625
1547		-13.671875
1548		-9.765625
1549		-13.671875
1550		-9.765625
1551		-15.625000
1552		-7.812500
1553		-11.718750
1554		-7.812500
1555		-11.718750
1556		-7.812500
1557		-11.718750
1558		-7.812500
1559		-9.765625
1560		-7.812500
1561		-9.765625
1562		-7.812500
1563		-11.718750
1564		-5.859375
1565		-9.765625
1566		-5.859375
1567		-9.765625
1568		-5.859375
1569		-9.765625
1570		-5.859375
1571		-7.812500
1572		-5.859375
1573		-7.812500
1574		-3.906250
1575		-7.812500
1576		-3.906250
1577		-5.859375
1578		-3.906250
1579		-7.812500
1580		-3.906250
1581		-5.859375
1582		-1.953125
1583		-5.859375
1584		-1.953125
1585		-5.859375
1586		-1.953125
1587		-5.859375
1588		-1.953125
1589		-3.906250
1590		-1.953125
1591		-5.859375
1592		0.000000
1593		-3.906250
1594		0.000000
1595		-3.906250
1596		1.953125
1597		-3.906250
1598		1.953125
1599		-1.953125
1600		1.953125
1601		-1.953125
1602		1.953125
1603		-1.953125
1604		1.953125
1605		0.000000
1606		3.906250
1607		0.000000
1608		3.906250
1609		0.000000
1610		3.906250
1611		1.953125
1612		3.906250
1613		1.953125
1614		5.859375
1615		1.953125
1616		5.859375
1617		1.953125
1618		5.859375
1619		3.906250
1620		5.859375
1621		3.906250
1622		7.812500
1623		3.906250
1624		7.812500
1625		3.906250
1626		9.765625
1627		5.859375
1628		7.812500
1629		5.859375
1630		9.765625
1631		5.859375
1632		9.765625
1633		5.859375
1634		9.765625
1635		7.812500
1636		11.718750
1637		7.812500
1638		11.718750
1639		7.812500
1640		11.718750
1641		7.812500
1642		11.718750
1643		9.765625
1644		11.718750
1645		9.765625
1646		13.671875
1647		9.765625
1648		13.671875
1649		9.765625
1650		13.671875
1651		11.718750
1652		15.625000
1653		11.718750
1654		15.625000
1655		11.718750
1656		15.625000
1657		11.718750
1658		15.625000
1659		11.718750
1660		15.625000
1661		13.671875
1662		15.625000
1663		11.718750
1664		17.578125
1665		13.671875
1666		17.578125
1667		13.671875
1668		17.578125
1669		15.625000
1670		19.531250
1671		15.625000
1672		19.531250
1673		13.671875
1674		19.531250
1675		15.625000
1676		19.531250
1677		17.578125
1678		19.531250
1679		15.625000
1680		21.484375
1681		17.578125
1682		19.531250
1683		17.578125
1684		21.484375
1685		17.578125
1686		21.484375
1687		17.578125
1688		21.484375
1689		17.578125
1690		21.484375
1691		17.578125
1692		23.437500
1693		19.531250
1694		21.484375
1695		19.531250
1696		21.484375
1697		17.578125
1698		23.437500
1699		19.531250
1700		23.437500
1701		19.531250
1702		23.437500
1703		21.484375
1704		23.437500
1705		19.531250
1706		23.437500
1707		21.484375
1708		23.437500
1709		21.484375
1710		23.437500
1711		21.484375
1712		23.437500
1713		19.531250
1714		25.390625
1715		21.484375
1716		23.437500
1717		21.484375
1718		25.390625
1719		21.484375
1720		25.390625
1721		21.484375
1722		25.390625
1723		21.484375
1724		25.390625
1725		21.484375
1726		25.390625
1727		21.484375
1728		25.390625
1729		21.484375
1730		25.390625
1731		21.484375
1732		25.390625
1733		21.484375
1734		25.390625
1735		21.484375
1736		25.390625
1737		21.484375
1738		25.390625
1739		21.484375
1740		25.390625
1741		21.484375
1742		25.390625
1743		21.484375
1744		25.390625
1745		21.484375
1746		25.390625
1747		21.484375
1748		25.390625
1749		21.484375
1750		25.390625
1751		21.484375
1752		25.390625
1753		21.484375
1754		25.390625
1755		21.484375
1756		23.437500
1757		21.484375
1758		25.390625
1759		19.531250
1760		25.390625
1761		21.484375
1762		23.437500
1763		19.531250
1764		25.390625
1765		19.531250
1766		23.437500
1767		19.531250
1768		23.437500
1769		19.531250
1770		23.437500
1771		19.531250
1772		23.437500
1773		19.531250
1774		23.437500
1775		19.531250
1776		23.437500
1777		19.531250
1778		21.484375
1779		19.531250
1780		21.484375
1781		15.625000
1782		23.437500
1783		17.578125
1784		21.484375
1785		17.578125
1786		21.484375
1787		17.578125
1788		19.531250
1789		17.578125
1790		21.484375
1791		15.625000
1792		21.484375
1793		15.625000
1794		19.531250
1795		17.578125
1796		19.531250
1797		13.671875
1798		21.484375
1799		15.625000
1800		19.531250
1801		15.625000
1802		17.578125
1803		15.625000
1804		17.578125
1805		13.671875
1806		17.578125
1807		13.671875
1808		17.578125
1809		11.718750
1810		17.578125
1811		13.671875
1812		15.625000
1813		11.718750
1814		15.625000
1815		9.765625
1816		17.578125
1817		11.718750
1818		15.625000
1819		11.718750
1820		13.671875
1821		9.765625
1822		13.671875
1823		9.765625
1824		13.671875
1825		9.765625
1826		13.671875
1827		7.812500
1828		13.671875
1829		9.765625
1830		11.718750
1831		5.859375
1832		13.671875
1833		7.812500
1834		11.718750
1835		7.812500
1836		9.765625
1837		5.859375
1838		9.765625
1839		5.859375
1840		9.765625
1841		5.859375
1842		9.765625
1843		5.859375
1844		9.765625
1845		3.906250
1846		7.812500
1847		1.953125
1848		7.812500
1849		3.906250
1850		7.812500
1851		1.953125
1852		5.859375
1853		1.953125
1854		5.859375
1855		1.953125
1856		5.859375
1857		1.953125
1858		5.859375
1859		0.000000
1860		3.906250
1861		0.000000
1862		3.906250
1863		0.000000
1864		1.953125
1865		-1.953125
1866		3.906250
1867		-1.953125
1868		1.953125
1869		-1.953125
1870		1.953125
1871		-1.953125
1872		0.000000
1873		-1.953125
1874		0.000000
1875		-3.906250
1876		0.000000
1877		-3.906250
1878		0.000000
1879		-3.906250
1880		-1.953125
1881		-3.906250
1882		0.000000
1883		-5.859375
1884		-1.953125
1885		-5.859375
1886		-1.953125
1887		-5.859375
1888		-1.953125
1889		-5.859375
1890		-1.953125
1891		-7.812500
1892		-3.906250
1893		-7.812500
1894		-3.906250
1895		-7.812500
1896		-5.859375
1897		-7.812500
1898		-5.859375
1899		-7.812500
1900		-5.859375
1901		-9.765625
1902		-5.859375
1903		-9.765625
1904		-5.859375
1905		-9.765625
1906		-5.859375
1907		-9.765625
1908		-7.812500
1909		-11.718750
1910		-7.812500
1911		-9.765625
1912		-7.812500
1913		-11.718750
1914		-7.812500
1915		-11.718750
1916		-7.812500
1917		-11.718750
1918		-9.765625
1919		-11.718750
1920		-9.765625
1921		-11.718750
1922		-9.765625
1923		-13.671875
1924		-9.765625
1925		-13.671875
1926		-9.765625
1927		-13.671875
1928		-11.718750
1929		-13.671875
1930		-9.765625
1931		-15.625000
1932		-9.765625
1933		-15.625000
1934		-11.718750
1935		-15.625000
1936		-11.718750
1937		-15.625000
1938		-11.718750
1939		-15.625000
1940		-11.718750
1941		-15.625000
1942		-11.718750
1943		-15.625000
1944		-11.718750
1945		-15.625000
1946		-13.671875
1947		-15.625000
1948		-13.671875
1949		-15.625000
1950		-11.718750
1951		-15.625000
1952		-13.671875
1953		-15.625000
1954		-13.671875
1955		-17.578125
1956		-13.671875
1957		-17.578125
1958		-13.671875
1959		-17.578125
1960		-13.671875
1961		-17.578125
1962		-13.671875
1963		-15.625000
1964		-13.671875
1965		-17.578125
1966		-13.671875
1967		-17.578125
1968		-13.671875
1969		-17.578125
1970		-13.671875
1971		-17.578125
1972		-13.671875
1973		-17.578125
1974		-13.671875
1975		-17.578125
1976		-13.671875
1977		-17.578125
1978		-11.718750
1979		-15.625000
1980		-13.671875
1981		-15.625000
1982		-13.671875
1983		-17.578125
1984		-13.671875
1985		-17.578125
1986		-11.718750
1987		-15.625000
1988		-11.718750
1989		-15.625000
1990		-11.718750
1991		-15.625000
1992		-13.671875
1993		-15.625000
1994		-11.718750
1995		-15.625000
1996		-11.718750
1997		-15.625000
1998		-13.671875
1999		-15.625000
2000		-11.718750
2001		-13.671875
2002		-11.718750
2003		-13.671875
2004		-11.718750
2005		-13.671875
2006		-11.718750
2007		-13.671875
2008		-11.718750
2009		-13.671875
2010		-11.718750
2011		-15.625000
2012		-9.765625
2013		-13.671875
2014		-9.765625
2015		-13.671875
2016		-9.765625
2017		-13.671875
2018		-9.765625
2019		-13.671875
2020		-9.765625
2021		-11.718750
2022		-9.765625
2023		-11.718750
2024		-7.812500
2025		-11.718750
2026		-7.812500
2027		-11.718750
2028		-7.812500
2029		-9.765625
2030		-7.812500
2031		-9.765625
2032		-7.812500
2033		-9.765625
2034		-7.812500
2035		-9.765625
2036		-5.859375
2037		-9.765625
2038		-5.859375
2039		-7.812500
2040		-5.859375
2041		-9.765625
2042		-5.859375
2043		-7.812500
2044		-3.906250
2045		-7.812500
2046		-3.906250
2047		-5.859375
2048		-3.906250
2049		-5.859375
2050		-3.906250
2051		-5.859375
2052		-3.906250
2053		-5.859375
2054		-1.953125
2055		-5.859375
2056		-1.953125
2057		-5.859375
2058		-1.953125
2059		-3.906250
2060		0.000000
2061		-3.906250
2062		0.000000
2063		-3.906250
2064		0.000000
2065		-1.953125
2066		0.000000
2067		-3.906250
2068		0.000000
2069		-1.953125
2070		1.953125
2071		-1.953125
2072		1.953125
2073		0.000000
2074		1.953125
2075		-1.953125
2076		1.953125
2077		0.000000
2078		3.906250
2079		0.000000
2080		3.906250
2081		1.953125
2082		3.906250
2083		0.000000
2084		5.859375
2085		1.953125
2086		5.859375
2087		1.953125
2088		5.859375
2089		1.953125
2090		5.859375
2091		3.906250
2092		7.812500
2093		3.906250
2094		7.812500
2095		3.906250
2096		9.765625
2097		5.859375
2098		7.812500
2099		5.859375
2100		7.812500
2101		5.859375
2102		9.765625
2103		5.859375
2104		9.765625
2105		5.859375
2106		9.765625
2107		7.812500
2108		11.718750
2109		7.812500
2110		11.718750
2111		7.812500
2112		13.671875
2113		9.765625
2114		11.718750
2115		9.765625
2116		11.718750
2117		7.812500
2118		13.671875
2119		9.765625
2120		13.671875
2121		11.718750
2122		15.625000
2123		11.718750
2124		13.671875
2125		11.718750
2126		15.625000
2127		11.718750
2128		15.625000
2129		13.671875
2130		15.625000
2131		13.671875
2132		15.625000
2133		13.671875
2134		17.578125
2135		13.671875
2136		17.578125
2137		13.671875
2138		17.578125
2139		15.625000
2140		17.578125
2141		15.625000
2142		19.531250
2143		15.625000
2144		19.531250
2145		15.625000
2146		19.531250
2147		17.578125
2148		19.531250
2149		17.578125
2150		19.531250
2151		15.625000
2152		21.484375
2153		17.578125
2154		21.484375
2155		17.578125
2156		21.484375
2157		17.578125
2158		21.484375
2159		17.578125
2160		21.484375
2161		19.531250
2162		21.484375
2163		17.578125
2164		23.437500
2165		19.531250
2166		21.484375
2167		19.531250
2168		23.437500
2169		19.531250
2170		23.437500
2171		19.531250
2172		23.437500
2173		19.531250
2174		23.437500
2175		19.531250
2176		23.437500
2177		21.484375
2178		23.437500
2179		19.531250
2180		23.437500
2181		21.484375
2182		23.437500
2183		21.484375
2184		23.437500
2185		21.484375
2186		25.390625
2187		21.484375
2188		25.390625
2189		21.484375
2190		25.390625
2191		21.484375
2192		25.390625
2193		21.484375
2194		25.390625
2195		21.484375
2196		25.390625
2197		21.484375
2198		25.390625
2199		21.484375
2200		25.390625
2201		21.484375
2202		25.390625
2203		21.484375
2204		25.390625
2205		21.484375
2206		25.390625
2207		21.484375
2208		25.390625
2209		21.484375
2210		25.390625
2211		21.484375
2212		25.390625
2213		21.484375
2214		25.390625
2215		21.484375
2216		25.390625
2217		21.484375
2218		25.390625
2219		21.484375
2220		25.390625
2221		21.484375
2222		25.390625
2223		21.484375
2224		25.390625
2225		21.484375
2226		25.390625
2227		21.484375
2228		23.437500
2229		19.531250
2230		25.390625
2231		21.484375
2232		23.437500
2233		21.484375
2234		23.437500
2235		21.484375
2236		23.437500
2237		21.484375
2238		23.437500
2239		19.531250
2240		23.437500
2241		19.531250
2242		23.437500
2243		19.531250
2244		23.437500
2245		19.531250
2246		23.437500
2247		19.531250
2248		23.437500
2249		19.531250
2250		21.484375
2251		17.578125
2252		21.484375
2253		17.578125
2254		21.484375
2255		17.578125
2256		21.484375
2257		17.578125
2258		21.484375
2259		17.578125
2260		21.484375
2261		17.578125
2262		21.484375
2263		17.578125
2264		19.531250
2265		17.578125
2266		19.531250
2267		17.578125
2268		19.531250
2269		15.625000
2270		19.531250
2271		15.625000
2272		19.531250
2273		15.625000
2274		17.578125
2275		13.671875
2276		17.578125
2277		13.671875
2278		17.578125
2279		13.671875
2280		17.578125
2281		13.671875
2282		15.625000
2283		13.671875
2284		15.625000
2285		11.718750
2286		15.625000
2287		11.718750
2288		15.625000
2289		11.718750
2290		13.671875
2291		11.718750
2292		13.671875
2293		9.765625
2294		13.671875
2295		9.765625
2296		13.671875
2297		7.812500
2298		13.671875
2299		9.765625
2300		11.718750
2301		7.812500
2302		11.718750
2303		7.812500
2304		11.718750
2305		7.812500
2306		11.718750
2307		7.812500
2308		9.765625
2309		5.859375
2310		9.765625
2311		5.859375
2312		9.765625
2313		3.906250
2314		9.765625
2315		5.859375
2316		7.812500
2317		3.906250
2318		7.812500
2319		3.906250
2320		7.812500
2321		3.906250
2322		7.812500
2323		1.953125
2324		5.859375
2325		1.953125
2326		5.859375
2327		1.953125
2328		5.859375
2329		0.000000
2330		3.906250
2331		0.000000
2332		5.859375
2333		0.000000
2334		3.906250
2335		0.000000
2336		3.906250
2337		0.000000
2338		1.953125
2339		-1.953125
2340		1.953125
2341		-1.953125
2342		1.953125
2343		-1.953125
2344		1.953125
2345		-3.906250
2346		0.000000
2347		-3.906250
2348		0.000000
2349		-3.906250
2350		0.000000
2351		-3.906250
2352		-1.953125
2353		-5.859375
2354		0.000000
2355		-5.859375
2356		-1.953125
2357		-5.859375
2358		-1.953125
2359		-5.859375
2360		-3.906250
2361		-5.859375
2362		-3.906250
2363		-7.812500
2364		-1.953125
2365		-7.812500
2366		-3.906250
2367		-7.812500
2368		-5.859375
2369		-9.765625
2370		-3.906250
2371		-9.765625
2372		-5.859375
2373		-9.765625
2374		-5.859375
2375		-9.765625
2376		-5.859375
2377		-9.765625
2378		-7.812500
2379		-9.765625
2380		-7.812500
2381		-11.718750
2382		-5.859375
2383		-11.718750
2384		-7.812500
2385		-11.718750
2386		-7.812500
2387		-11.718750
2388		-7.812500
2389		-13.671875
2390		-9.765625
2391		-13.671875
2392		-9.765625
2393		-13.671875
2394		-9.765625
2395		-13.671875
2396		-9.765625
2397		-13.671875
2398		-9.765625
2399		-13.671875
2400		-11.718750
2401		-13.671875
2402		-11.718750
2403		-13.671875
2404		-11.718750
2405		-15.625000
2406		-11.718750
2407		-13.671875
2408		-11.718750
2409		-13.671875
2410		-11.718750
2411		-15.625000
2412		-11.718750
2413		-15.625000
2414		-11.718750
2415		-15.625000
2416		-11.718750
2417		-15.625000
2418		-13.671875
2419		-17.578125
2420		-11.718750
2421		-15.625000
2422		-13.671875
2423		-15.625000
2424		-11.718750
2425		-15.625000
2426		-13.671875
2427		-17.578125
2428		-13.671875
2429		-15.625000
2430		-13.671875
2431		-17.578125
2432		-13.671875
2433		-15.625000
2434		-13.671875
2435		-15.625000
2436		-13.671875
2437		-17.578125
2438		-11.718750
2439		-15.625000
2440		-13.671875
2441		-15.625000
2442		-13.671875
2443		-15.625000
2444		-13.671875
2445		-17.578125
2446		-13.671875
2447		-17.578125
2448		-13.671875
2449		-17.578125
2450		-13.671875
2451		-15.625000
2452		-13.671875
2453		-15.625000
2454		-13.671875
2455		-15.625000
2456		-13.671875
2457		-15.625000
2458		-11.718750
2459		-15.625000
2460		-13.671875
2461		-15.625000
2462		-13.671875
2463		-15.625000
2464		-11.718750
2465		-15.625000
2466		-11.718750
2467		-15.625000
2468		-11.718750
2469		-15.625000
2470		-11.718750
2471		-15.625000
2472		-11.718750
2473		-15.625000
2474		-11.718750
2475		-13.671875
2476		-11.718750
2477		-13.671875
2478		-9.765625
2479		-13.671875
2480		-9.765625
2481		-13.671875
2482		-9.765625
2483		-13.671875
2484		-11.718750
2485		-13.671875
2486		-9.765625
2487		-13.671875
2488		-7.812500
2489		-13.671875
2490		-9.765625
2491		-13.671875
2492		-9.765625
2493		-11.718750
2494		-7.812500
2495		-11.718750
2496		-7.812500
2497		-11.718750
2498		-7.812500
2499		-11.718750
2500		-7.812500
2501		-9.765625
2502		-7.812500
2503		-11.718750
2504		-5.859375
2505		-9.765625
2506		-5.859375
2507		-9.765625
2508		-5.859375
2509		-9.765625
2510		-3.906250
2511		-9.765625
2512		-3.906250
2513		-7.812500
2514		-3.906250
2515		-7.812500
2516		-3.906250
2517		-7.812500
2518		-3.906250
2519		-5.859375
2520		-3.906250
2521		-5.859375
2522		-3.906250
2523		-5.859375
2524		-1.953125
2525		-5.859375
2526		-1.953125
2527		-3.906250
2528		-1.953125
2529		-3.906250
2530		-1.953125
2531		-3.906250
2532		0.000000
2533		-3.906250
2534		0.000000
2535		-3.906250
2536		0.000000
2537		-3.906250
2538		0.000000
2539		-1.953125
2540		1.953125
2541		-1.953125
2542		1.953125
2543		-1.953125
2544		1.953125
2545		-1.953125
2546		1.953125
2547		0.000000
2548		3.906250
2549		0.000000
2550		3.906250
2551		1.953125
2552		3.906250
2553		1.953125
2554		5.859375
2555		1.953125
2556		5.859375
2557		1.953125
2558		5.859375
2559		3.906250
2560		5.859375
2561		3.906250
2562		5.859375
2563		3.906250
2564		7.812500
2565		3.906250
2566		7.812500
2567		5.859375
2568		7.812500
2569		5.859375
2570		7.812500
2571		3.906250
2572		9.765625
2573		5.859375
2574		9.765625
2575		5.859375
2576		9.765625
2577		7.812500
2578		9.765625
2579		7.812500
2580		11.718750
2581		7.812500
2582		11.718750
2583		7.812500
2584		11.718750
2585		9.765625
2586		11.718750
2587		9.765625
2588		13.671875
2589		9.765625
2590		13.671875
2591		9.765625
2592		13.671875
2593		11.718750
2594		13.671875
2595		11.718750
2596		13.671875
2597		11.718750
2598		15.625000
2599		11.718750
2600		17.578125
2601		13.671875
2602		15.625000
2603		13.671875
2604		15.625000
2605		13.671875
2606		17.578125
2607		13.671875
2608		17.578125
2609		13.671875
2610		17.578125
2611		15.625000
2612		17.578125
2613		15.625000
2614		19.531250
2615		15.625000
2616		19.531250
2617		15.625000
2618		19.531250
2619		17.578125
2620		19.531250
2621		15.625000
2622		21.484375
2623		17.578125
2624		19.531250
2625		17.578125
2626		21.484375
2627		17.578125
2628		21.484375
2629		17.578125
2630		21.484375
2631		17.578125
2632		21.484375
2633		19.531250
2634		21.484375
2635		19.531250
2636		21.484375
2637		19.531250
2638		23.437500
2639		19.531250
2640		23.437500
2641		19.531250
2642		23.437500
2643		19.531250
2644		23.437500
2645		19.531250
2646		23.437500
2647		19.531250
2648		23.437500
2649		19.531250
2650		25.390625
2651		21.484375
2652		23.437500
2653		21.484375
2654		23.437500
2655		21.484375
2656		25.390625
2657		21.484375
2658		23.437500
2659		21.484375
2660		25.390625
2661		21.484375
2662		25.390625
2663		21.484375
2664		25.390625
2665		21.484375
2666		25.390625
2667		21.484375
2668		25.390625
2669		21.484375
2670		25.390625
2671		21.484375
2672		25.390625
2673		21.484375
2674		25.390625
2675		21.484375
2676		25.390625
2677		21.484375
2678		25.390625
2679		21.484375
2680		25.390625
2681		21.484375
2682		25.390625
2683		21.484375
2684		25.390625
2685		21.484375
2686		25.390625
2687		21.484375
2688		25.390625
2689		19.531250
2690		25.390625
2691		21.484375
2692		25.390625
2693		21.484375
2694		25.390625
2695		21.484375
2696		25.390625
2697		21.484375
2698		25.390625
2699		21.484375
2700		25.390625
2701		21.484375
2702		23.437500
2703		21.484375
2704		23.437500
2705		19.531250
2706		25.390625
2707		21.484375
2708		23.437500
2709		19.531250
2710		23.437500
2711		19.531250
2712		23.437500
2713		19.531250
2714		23.437500
2715		19.531250
2716		23.437500
2717		19.531250
2718		23.437500
2719		19.531250
2720		23.437500
2721		19.531250
2722		23.437500
2723		19.531250
2724		21.484375
2725		17.578125
2726		21.484375
2727		17.578125
2728		21.484375
2729		17.578125
2730		21.484375
2731		15.625000
2732		21.484375
2733		15.625000
2734		21.484375
2735		17.578125
2736		19.531250
2737		17.578125
2738		19.531250
2739		15.625000
2740		19.531250
2741		15.625000
2742		19.531250
2743		15.625000
2744		19.531250
2745		15.625000
2746		17.578125
2747		13.671875
2748		17.578125
2749		13.671875
2750		17.578125
2751		13.671875
2752		17.578125
2753		13.671875
2754		15.625000
2755		11.718750
2756		17.578125
2757		11.718750
2758		15.625000
2759		11.718750
2760		15.625000
2761		11.718750
2762		15.625000
2763		9.765625
2764		13.671875
2765		9.765625
2766		15.625000
2767		9.765625
2768		13.671875
2769		9.765625
2770		11.718750
2771		9.765625
2772		11.718750
2773		7.812500
2774		11.718750
2775		7.812500
2776		11.718750
2777		7.812500
2778		9.765625
2779		7.812500
2780		9.765625
2781		5.859375
2782		9.765625
2783		5.859375
2784		9.765625
2785		3.906250
2786		9.765625
2787		5.859375
2788		7.812500
2789		3.906250
2790		9.765625
2791		3.906250
2792		7.812500
2793		1.953125
2794		5.859375
2795		1.953125
2796		5.859375
2797		1.953125
2798		5.859375
2799		1.953125
2800		5.859375
2801		0.000000
2802		5.859375
2803		1.953125
2804		3.906250
2805		0.000000
2806		3.906250
2807		0.000000
2808		3.906250
2809		0.000000
2810		3.906250
2811		-1.953125
2812		1.953125
2813		-1.953125
2814		1.953125
2815		-3.906250
2816		1.953125
2817		-3.906250
2818		0.000000
2819		-3.906250
2820		0.000000
2821		-3.906250
2822		0.000000
2823		-5.859375
2824		0.000000
2825		-5.859375
2826		-1.953125
2827		-5.859375
2828		-1.953125
2829		-5.859375
2830		-1.953125
2831		-5.859375
2832		-1.953125
2833		-5.859375
2834		-3.906250
2835		-5.859375
2836		-1.953125
2837		-7.812500
2838		-3.906250
2839		-9.765625
2840		-3.906250
2841		-7.812500
2842		-5.859375
2843		-7.812500
2844		-5.859375
2845		-9.765625
2846		-5.859375
2847		-9.765625
2848		-7.812500
2849		-9.765625
2850		-7.812500
2851		-11.718750
2852		-7.812500
2853		-9.765625
2854		-7.812500
2855		-9.765625
2856		-7.812500
2857		-11.718750
2858		-7.812500
2859		-11.718750
2860		-7.812500
2861		-13.671875
2862		-9.765625
2863		-13.671875
2864		-9.765625
2865		-13.671875
2866		-9.765625
2867		-13.671875
2868		-9.765625
2869		-13.671875
2870		-9.765625
2871		-13.671875
2872		-11.718750
2873		-13.671875
2874		-9.765625
2875		-13.671875
2876		-11.718750
2877		-15.625000
2878		-11.718750
2879		-15.625000
2880		-11.718750
2881		-15.625000
2882		-11.718750
2883		-15.625000
2884		-11.718750
2885		-15.625000
2886		-11.718750
2887		-15.625000
2888		-13.671875
2889		-15.625000
2890		-13.671875
2891		-17.578125
2892		-11.718750
2893		-15.625000
2894		-11.718750
2895		-17.578125
2896		-13.671875
2897		-17.578125
2898		-13.671875
2899		-17.578125
2900		-13.671875
2901		-17.578125
2902		-13.671875
2903		-15.625000
2904		-13.671875
2905		-15.625000
2906		-13.671875
2907		-17.578125
2908		-13.671875
2909		-17.578125
2910		-13.671875
2911		-17.578125
2912		-13.671875
2913		-17.578125
2914		-13.671875
2915		-17.578125
2916		-13.671875
2917		-17.578125
2918		-13.671875
2919		-17.578125
2920		-13.671875
2921		-15.625000
2922		-13.671875
2923		-17.578125
2924		-11.718750
2925		-17.578125
2926		-13.671875
2927		-17.578125
2928		-13.671875
2929		-15.625000
2930		-13.671875
2931		-15.625000
2932		-11.718750
2933		-15.625000
2934		-11.718750
2935		-17.578125
2936		-11.718750
2937		-15.625000
2938		-13.671875
2939		-15.625000
2940		-11.718750
2941		-15.625000
2942		-11.718750
2943		-15.625000
2944		-11.718750
2945		-15.625000
2946		-11.718750
2947		-13.671875
2948		-11.718750
2949		-15.625000
2950		-9.765625
2951		-13.671875
2952		-9.765625
2953		-15.625000
2954		-9.765625
2955		-13.671875
2956		-11.718750
2957		-13.671875
2958		-9.765625
2959		-13.671875
2960		-9.765625
2961		-13.671875
2962		-9.765625
2963		-11.718750
2964		-9.765625
2965		-11.718750
2966		-7.812500
2967		-11.718750
2968		-7.812500
2969		-11.718750
2970		-7.812500
2971		-11.718750
2972		-7.812500
2973		-9.765625
2974		-7.812500
2975		-11.718750
2976		-5.859375
2977		-9.765625
2978		-7.812500
2979		-9.765625
2980		-5.859375
2981		-9.765625
2982		-5.859375
2983		-9.765625
2984		-5.859375
2985		-9.765625
2986		-3.906250
2987		-7.812500
2988		-5.859375
2989		-7.812500
2990		-5.859375
2991		-7.812500
2992		-3.906250
2993		-7.812500
2994		-3.906250
2995		-5.859375
2996		-3.906250
2997		-5.859375
2998		-1.953125
2999		-5.859375
3000		-1.953125
3001		-5.859375
3002		-1.953125
3003		-5.859375
3004		0.000000
3005		-3.906250
3006		-1.953125
3007		-5.859375
3008		0.000000
3009		-3.906250
3010		0.000000
3011		-1.953125
3012		0.000000
3013		-1.953125
3014		1.953125
3015		-1.953125
3016		1.953125
3017		-1.953125
3018		1.953125
3019		-1.953125
3020		3.906250
3021		0.000000
3022		1.953125
3023		0.000000
3024		3.906250
3025		0.000000
3026		3.906250
3027		1.953125
3028		3.906250
3029		1.953125
3030		5.859375
3031		1.953125
3032		5.859375
3033		1.953125
3034		5.859375
3035		3.906250
3036		5.859375
3037		3.906250
3038		7.812500
3039		3.906250
3040		7.812500
3041		3.906250
3042		7.812500
3043		5.859375
3044		9.765625
3045		5.859375
3046		9.765625
3047		5.859375
3048		9.765625
3049		5.859375
3050		9.765625
3051		7.812500
3052		11.718750
3053		7.812500
3054		11.718750
3055		9.765625
3056		11.718750
3057		9.765625
3058		11.718750
3059		7.812500
3060		13.671875
3061		9.765625
3062		13.671875
3063		9.765625
3064		13.671875
3065		9.765625
3066		13.671875
3067		11.718750
3068		13.671875
3069		11.718750
3070		15.625000
3071		11.718750
3072		15.625000
3073		13.671875
3074		15.625000
3075		13.671875
3076		17.578125
3077		13.671875
3078		15.625000
3079		13.671875
3080		17.578125
3081		13.671875
3082		17.578125
3083		15.625000
3084		17.578125
3085		15.625000
3086		19.531250
3087		15.625000
3088		19.531250
3089		15.625000
3090		19.531250
3091		15.625000
3092		19.531250
3093		15.625000
3094		19.531250
3095		17.578125
3096		19.531250
3097		15.625000
3098		21.484375
3099		17.578125
3100		21.484375
3101		17.578125
3102		21.484375
3103		17.578125
3104		23.437500
3105		19.531250
3106		21.484375
3107		19.531250
3108		21.484375
3109		17.578125
3110		23.437500
3111		19.531250
3112		23.437500
3113		19.531250
3114		23.437500
3115		19.531250
3116		23.437500
3117		19.531250
3118		23.437500
3119		19.531250
3120		23.437500
3121		19.531250
3122		23.437500
3123		21.484375
3124		23.437500
3125		19.531250
3126		25.390625
3127		21.484375
3128		23.437500
3129		21.484375
3130		23.437500
3131		21.484375
3132		23.437500
3133		21.484375
3134		25.390625
3135		21.484375
3136		25.390625
3137		19.531250
3138		25.390625
3139		21.484375
3140		23.437500
3141		21.484375
3142		23.437500
3143		21.484375
3144		25.390625
3145		21.484375
3146		25.390625
3147		21.484375
3148		25.390625
3149		21.484375
3150		25.390625
3151		21.484375
3152		25.390625
3153		21.484375
3154		25.390625
3155		21.484375
3156		25.390625
3157		21.484375
3158		23.437500
3159		21.484375
3160		25.390625
3161		21.484375
3162		25.390625
3163		21.484375
3164		25.390625
3165		21.484375
3166		25.390625
3167		21.484375
3168		25.390625
3169		21.484375
3170		25.390625
3171		21.484375
3172		25.390625
3173		21.484375
3174		23.437500
3175		19.531250
3176		25.390625
3177		19.531250
3178		25.390625
3179		19.531250
3180		23.437500
3181		19.531250
3182		23.437500
3183		19.531250
3184		23.437500
3185		19.531250
3186		23.437500
3187		19.531250
3188		23.437500
3189		19.531250
3190		21.484375
3191		19.531250
3192		23.437500
3193		17.578125
3194		23.437500
3195		19.531250
3196		21.484375
3197		17.578125
3198		21.484375
3199		17.578125
3200		21.484375
3201		17.578125
3202		21.484375
3203		17.578125
3204		21.484375
3205		15.625000
3206		21.484375
3207		17.578125
3208		19.531250
3209		15.625000
3210		19.531250
3211		15.625000
3212		19.531250
3213		15.625000
3214		19.531250
3215		15.625000
3216		17.578125
3217		13.671875
3218		17.578125
3219		13.671875
3220		17.578125
3221		11.718750
3222		17.578125
3223		13.671875
3224		15.625000
3225		13.671875
3226		15.625000
3227		11.718750
3228		15.625000
3229		11.718750
3230		15.625000
3231		11.718750
3232		15.625000
3233		11.718750
3234		13.671875
3235		11.718750
3236		13.671875
3237		9.765625
3238		13.671875
3239		9.765625
3240		13.671875
3241		9.765625
3242		11.718750
3243		7.812500
3244		13.671875
3245		7.812500
3246		11.718750
3247		7.812500
3248		11.718750
3249		7.812500
3250		9.765625
3251		5.859375
3252		9.765625
3253		5.859375
3254		9.765625
3255		5.859375
3256		9.765625
3257		5.859375
3258		7.812500
3259		3.906250
3260		7.812500
3261		3.906250
3262		7.812500
3263		3.906250
3264		7.812500
3265		3.906250
3266		5.859375
3267		1.953125
3268		5.859375
3269		1.953125
3270		5.859375
3271		0.000000
3272		5.859375
3273		0.000000
3274		3.906250
3275		1.953125
3276		3.906250
3277		0.000000
3278		3.906250
3279		0.000000
3280		3.906250
3281		-1.953125
3282		1.953125
3283		-1.953125
3284		1.953125
3285		-1.953125
3286		1.953125
3287		-1.953125
3288		0.000000
3289		-3.906250
3290		0.000000
3291		-3.906250
3292		0.000000
3293		-3.906250
3294		0.000000
3295		-3.906250
3296		-1.953125
3297		-5.859375
3298		-1.953125
3299		-5.859375
3300		-1.953125
3301		-5.859375
3302		-1.953125
3303		-7.812500
3304		-1.953125
3305		-7.812500
3306		-3.906250
3307		-5.859375
3308		-3.906250
3309		-7.812500
3310		-3.906250
3311		-9.765625
3312		-5.859375
3313		-7.812500
3314		-5.859375
3315		-9.765625
3316		-5.859375
3317		-9.765625
3318		-5.859375
3319		-9.765625
3320		-5.859375
3321		-9.765625
3322		-5.859375
3323		-9.765625
3324		-5.859375
3325		-9.765625
3326		-7.812500
3327		-11.718750
3328		-7.812500
3329		-11.718750
3330		-7.812500
3331		-11.718750
3332		-7.812500
3333		-11.718750
3334		-7.812500
3335		-13.671875
3336		-9.765625
3337		-13.671875
3338		-9.765625
3339		-13.671875
3340		-9.765625
3341		-13.671875
3342		-9.765625
3343		-13.671875
3344		-9.765625
3345		-15.625000
3346		-9.765625
3347		-15.625000
3348		-11.718750
3349		-15.625000
3350		-11.718750
3351		-15.625000
3352		-11.718750
3353		-15.625000
3354		-11.718750
3355		-17.578125
3356		-11.718750
3357		-15.625000
3358		-11.718750
3359		-15.625000
3360		-13.671875
3361		-15.625000
3362		-11.718750
3363		-15.625000
3364		-11.718750
3365		-15.625000
3366		-13.671875
3367		-15.625000
3368		-11.718750
3369		-15.625000
3370		-11.718750
3371		-15.625000
3372		-13.671875
3373		-17.578125
3374		-11.718750
3375		-15.625000
3376		-13.671875
3377		-17.578125
3378		-13.671875
3379		-17.578125
3380		-13.671875
3381		-17.578125
3382		-13.671875
3383		-17.578125
3384		-13.671875
3385		-17.578125
3386		-13.671875
3387		-15.625000
3388		-13.671875
3389		-17.578125
3390		-13.671875
3391		-15.625000
3392		-13.671875
3393		-15.625000
3394		-13.671875
3395		-17.578125
3396		-11.718750
3397		-17.578125
3398		-11.718750
3399		-17.578125
3400		-13.671875
3401		-15.625000
3402		-13.671875
3403		-15.625000
3404		-13.671875
3405		-17.578125
3406		-11.718750
3407		-17.578125
3408		-11.718750
3409		-15.625000
3410		-13.671875
3411		-15.625000
3412		-11.718750
3413		-15.625000
3414		-11.718750
3415		-15.625000
3416		-11.718750
3417		-15.625000
3418		-11.718750
3419		-13.671875
3420		-11.718750
3421		-13.671875
3422		-11.718750
3423		-15.625000
3424		-9.765625
3425		-13.671875
3426		-11.718750
3427		-13.671875
3428		-11.718750
3429		-13.671875
3430		-9.765625
3431		-13.671875
3432		-9.765625
3433		-13.671875
3434		-9.765625
3435		-13.671875
3436		-9.765625
3437		-11.718750
3438		-7.812500
3439		-13.671875
3440		-7.812500
3441		-11.718750
3442		-7.812500
3443		-9.765625
3444		-7.812500
3445		-11.718750
3446		-7.812500
3447		-9.765625
3448		-7.812500
3449		-9.765625
3450		-7.812500
3451		-9.765625
3452		-5.859375
3453		-9.765625
3454		-5.859375
3455		-9.765625
3456		-5.859375
3457		-9.765625
3458		-3.906250
3459		-7.812500
3460		-5.859375
3461		-7.812500
3462		-3.906250
3463		-7.812500
3464		-3.906250
3465		-7.812500
3466		-3.906250
3467		-5.859375
3468		-1.953125
3469		-5.859375
3470		-1.953125
3471		-5.859375
3472		-1.953125
3473		-5.859375
3474		-1.953125
3475		-3.906250
3476		-1.953125
3477		-3.906250
3478		-1.953125
3479		-3.906250
3480		0.000000
3481		-1.953125
3482		0.000000
3483		-1.953125
3484		0.000000
3485		-1.953125
3486		1.953125
3487		-1.953125
3488		1.953125
3489		0.000000
3490		3.906250
3491		-1.953125
3492		1.953125
3493		0.000000
3494		1.953125
3495		0.000000
3496		3.906250
3497		1.953125
3498		3.906250
3499		1.953125
3500		5.859375
3501		1.953125
3502		3.906250
3503		1.953125
3504		5.859375
3505		1.953125
3506		5.859375
3507		1.953125
3508		5.859375
3509		3.906250
3510		7.812500
3511		3.906250
3512		7.812500
3513		3.906250
3514		9.765625
3515		5.859375
3516		7.812500
3517		5.859375
3518		9.765625
3519		5.859375
3520		9.765625
3521		7.812500
3522		9.765625
3523		5.859375
3524		11.718750
3525		7.812500
3526		11.718750
3527		9.765625
3528		11.718750
3529		7.812500
3530		13.671875
3531		9.765625
3532		13.671875
3533		9.765625
3534		13.671875
3535		9.765625
3536		13.671875
3537		11.718750
3538		13.671875
3539		11.718750
3540		15.625000
3541		11.718750
3542		15.625000
3543		13.671875
3544		15.625000
3545		11.718750
3546		17.578125
3547		13.671875
3548		15.625000
3549		13.671875
3550		17.578125
3551		13.671875
3552		17.578125
3553		13.671875
3554		17.578125
3555		13.671875
3556		17.578125
3557		13.671875
3558		19.531250
3559		15.625000
3560		17.578125
3561		15.625000
3562		19.531250
3563		15.625000
3564		19.531250
3565		17.578125
3566		19.531250
3567		17.578125
3568		21.484375
3569		17.578125
3570		21.484375
3571		17.578125
3572		21.484375
3573		17.578125
3574		21.484375
3575		17.578125
3576		21.484375
3577		19.531250
3578		21.484375
3579		19.531250
3580		21.484375
3581		19.531250
3582		23.437500
3583		19.531250
3584		23.437500
3585		19.531250
3586		23.437500
3587		19.531250
3588		23.437500
3589		19.531250
3590		23.437500
3591		19.531250
3592		23.437500
3593		21.484375
3594		23.437500
3595		21.484375
3596		23.437500
3597		19.531250
3598		25.390625
3599		21.484375
3600		23.437500
3601		21.484375
3602		25.390625
3603		21.484375
3604		25.390625
3605		21.484375
3606		25.390625
3607		21.484375
3608		25.390625
3609		21.484375
3610		25.390625
3611		21.484375
3612		25.390625
3613		21.484375
3614		25.390625
3615		21.484375
3616		25.390625
3617		21.484375
3618		25.390625
3619		21.484375
3620		25.390625
3621		21.484375
3622		25.390625
3623		21.484375
3624		25.390625
3625		21.484375
3626		25.390625
3627		21.484375
3628		25.390625
3629		21.484375
3630		25.390625
3631		21.484375
3632		25.390625
3633		21.484375
3634		25.390625
3635		21.484375
3636		25.390625
3637		21.484375
3638		25.390625
3639		21.484375
3640		25.390625
3641		19.531250
3642		25.390625
3643		21.484375
3644		23.437500
3645		21.484375
3646		23.437500
3647		21.484375
3648		25.390625
3649		19.531250
3650		23.437500
3651		21.484375
3652		23.437500
3653		19.531250
3654		23.437500
3655		19.531250
3656		23.437500
3657		19.531250
3658		23.437500
3659		19.531250
3660		23.437500
3661		19.531250
3662		21.484375
3663		17.578125
3664		21.484375
3665		19.531250
3666		21.484375
3667		17.578125
3668		21.484375
3669		17.578125
3670		21.484375
3671		17.578125
3672		21.484375
3673		17.578125
3674		21.484375
3675		17.578125
3676		21.484375
3677		17.578125
3678		19.531250
3679		17.578125
3680		19.531250
3681		15.625000
3682		21.484375
3683		15.625000
3684		17.578125
3685		15.625000
3686		17.578125
3687		15.625000
3688		17.578125
3689		15.625000
3690		17.578125
3691		13.671875
3692		17.578125
3693		13.671875
3694		17.578125
3695		13.671875
3696		15.625000
3697		11.718750
3698		15.625000
3699		13.671875
3700		15.625000
3701		11.718750
3702		15.625000
3703		11.718750
3704		15.625000
3705		11.718750
3706		13.671875
3707		9.765625
3708		13.671875
3709		9.765625
3710		13.671875
3711		9.765625
3712		11.718750
3713		7.812500
3714		11.718750
3715		7.812500
3716		11.718750
3717		7.812500
3718		11.718750
3719		7.812500
3720		11.718750
3721		5.859375
3722		9.765625
3723		5.859375
3724		9.765625
3725		5.859375
3726		9.765625
3727		5.859375
3728		7.812500
3729		5.859375
3730		7.812500
3731		3.906250
3732		7.812500
3733		3.906250
3734		7.812500
3735		3.906250
3736		5.859375
3737		3.906250
3738		5.859375
3739		1.953125
3740		5.859375
3741		1.953125
3742		5.859375
3743		1.953125
3744		5.859375
3745		1.953125
3746		3.906250
3747		-1.953125
3748		3.906250
3749		0.000000
3750		3.906250
3751		-1.953125
3752		3.906250
3753		-1.953125
3754		1.953125
3755		-1.953125
3756		1.953125
3757		-1.953125
3758		1.953125
3759		-3.906250
3760		1.953125
3761		-1.953125
3762		0.000000
3763		-3.906250
3764		-1.953125
3765		-5.859375
3766		0.000000
3767		-5.859375
3768		-1.953125
3769		-5.859375
3770		-1.953125
3771		-5.859375
3772		-1.953125
3773		-5.859375
3774		-3.906250
3775		-5.859375
3776		-3.906250
3777		-7.812500
3778		-1.953125
3779		-7.812500
3780		-3.906250
3781		-7.812500
3782		-3.906250
3783		-7.812500
3784		-3.906250
3785		-9.765625
3786		-5.859375
3787		-9.765625
3788		-5.859375
3789		-9.765625
3790		-5.859375
3791		-9.765625
3792		-7.812500
3793		-11.718750
3794		-5.859375
3795		-9.765625
3796		-7.812500
3797		-11.718750
3798		-7.812500
3799		-11.718750
3800		-7.812500
3801		-11.718750
3802		-9.765625
3803		-13.671875
3804		-7.812500
3805		-11.718750
3806		-9.765625
3807		-13.671875
3808		-9.765625
3809		-13.671875
3810		-9.765625
3811		-13.671875
3812		-9.765625
3813		-13.671875
3814		-11.718750
3815		-15.625000
3816		-9.765625
3817		-13.671875
3818		-11.718750
3819		-15.625000
3820		-11.718750
3821		-13.671875
3822		-11.718750
3823		-15.625000
3824		-11.718750
3825		-15.625000
3826		-11.718750
3827		-15.625000
3828		-11.718750
3829		-15.625000
3830		-13.671875
3831		-17.578125
3832		-11.718750
3833		-15.625000
3834		-13.671875
3835		-15.625000
3836		-13.671875
3837		-15.625000
3838		-13.671875
3839		-17.578125
3840		-13.671875
3841		-17.578125
3842		-13.671875
3843		-17.578125
3844		-13.671875
3845		-17.578125
3846		-13.671875
3847		-15.625000
3848		-13.671875
3849		-17.578125
3850		-13.671875
3851		-17.578125
3852		-13.671875
3853		-17.578125
3854		-13.671875
3855		-17.578125
3856		-13.671875
3857		-15.625000
3858		-13.671875
3859		-17.578125
3860		-13.671875
3861		-17.578125
3862		-13.671875
3863		-15.625000
3864		-13.671875
3865		-17.578125
3866		-13.671875
3867		-17.578125
3868		-13.671875
3869		-15.625000
3870		-13.671875
3871		-15.625000
3872		-13.671875
3873		-15.625000
3874		-13.671875
3875		-17.578125
3876		-11.718750
3877		-15.625000
3878		-11.718750
3879		-15.625000
3880		-13.671875
3881		-17.578125
3882		-11.718750
3883		-15.625000
3884		-11.718750
3885		-15.625000
3886		-11.718750
3887		-15.625000
3888		-11.718750
3889		-15.625000
3890		-11.718750
3891		-15.625000
3892		-11.718750
3893		-15.625000
3894		-11.718750
3895		-13.671875
3896		-11.718750
3897		-13.671875
3898		-11.718750
3899		-13.671875
3900		-9.765625
3901		-13.671875
3902		-9.765625
3903		-13.671875
3904		-9.765625
3905		-13.671875
3906		-9.765625
3907		-13.671875
3908		-9.765625
3909		-11.718750
3910		-7.812500
3911		-11.718750
3912		-7.812500
3913		-11.718750
3914		-7.812500
3915		-11.718750
3916		-7.812500
3917		-11.718750
3918		-7.812500
3919		-9.765625
3920		-5.859375
3921		-9.765625
3922		-7.812500
3923		-9.765625
3924		-5.859375
3925		-9.765625
3926		-5.859375
3927		-9.765625
3928		-5.859375
3929		-7.812500
3930		-5.859375
3931		-7.812500
3932		-5.859375
3933		-7.812500
3934		-3.906250
3935		-7.812500
3936		-3.906250
3937		-7.812500
3938		-3.906250
3939		-5.859375
3940		-3.906250
3941		-5.859375
3942		-1.953125
3943		-5.859375
3944		-1.953125
3945		-5.859375
3946		0.000000
3947		-3.906250
3948		-1.953125
3949		-5.859375
3950		0.000000
3951		-3.906250
3952		0.000000
3953		-3.906250
3954		0.000000
3955		-1.953125
3956		0.000000
3957		-1.953125
3958		1.953125
3959		-1.953125
3960		1.953125
3961		-1.953125
3962		1.953125
3963		0.000000
3964		1.953125
3965		0.000000
3966		3.906250
3967		0.000000
3968		3.906250
3969		0.000000
3970		3.906250
3971		1.953125
3972		3.906250
3973		1.953125
3974		5.859375
3975		1.953125
3976		5.859375
3977		1.953125
3978		5.859375
3979		3.906250
3980		5.859375
3981		3.906250
3982		7.812500
3983		3.906250
3984		7.812500
3985		5.859375
3986		7.812500
3987		5.859375
3988		7.812500
3989		5.859375
3990		9.765625
3991		5.859375
3992		9.765625
3993		5.859375
3994		9.765625
3995		7.812500
3996		11.718750
3997		7.812500
3998		9.765625
3999		7.812500
4000		11.718750
4001		7.812500
4002		11.718750
4003		9.765625
4004		11.718750
4005		9.765625
4006		13.671875
4007		9.765625
4008		13.671875
4009		9.765625
4010		13.671875
4011		11.718750
4012		15.625000
4013		11.718750
4014		15.625000
4015		11.718750
4016		15.625000
4017		11.718750
4018		15.625000
4019		11.718750
4020		15.625000
4021		13.671875
4022		17.578125
4023		13.671875
4024		17.578125
4025		13.671875
4026		17.578125
4027		13.671875
4028		17.578125
4029		13.671875
4030		19.531250
4031		15.625000
4032		17.578125
4033		15.625000
4034		21.484375
4035		15.625000
4036		19.531250
4037		15.625000
4038		19.531250
4039		17.578125
4040		19.531250
4041		17.578125
4042		21.484375
4043		17.578125
4044		21.484375
4045		17.578125
4046		21.484375
4047		17.578125
4048		21.484375
4049		19.531250
4050		21.484375
4051		17.578125
4052		21.484375
4053		19.531250
4054		21.484375
4055		17.578125
4056		21.484375
4057		19.531250
4058		21.484375
4059		19.531250
4060		23.437500
4061		19.531250
4062		23.437500
4063		19.531250
4064		23.437500
4065		21.484375
4066		23.437500
4067		21.484375
4068		23.437500
4069		19.531250
4070		23.437500
4071		21.484375
4072		23.437500
4073		21.484375
4074		23.437500
4075		21.484375
4076		25.390625
4077		21.484375
4078		25.390625
4079		19.531250
4080		25.390625
4081		21.484375
4082		23.437500
4083		19.531250
4084		25.390625
4085		21.484375
4086		25.390625
4087		21.484375
4088		25.390625
4089		21.484375
4090		25.390625
4091		21.484375
4092		25.390625
4093		21.484375
4094		25.390625
4095		21.484375
4096		25.390625
4097		21.484375
4098		23.437500
4099		21.484375
4100		23.437500
4101		21.484375
4102		25.390625
4103		21.484375
4104		25.390625
4105		21.484375
4106		25.390625
4107		21.484375
4108		23.437500
4109		21.484375
4110		25.390625
4111		19.531250
4112		23.437500
4113		19.531250
4114		23.437500
4115		21.484375
4116		23.437500
4117		19.531250
4118		25.390625
4119		19.531250
4120		23.437500
4121		19.531250
4122		23.437500
4123		21.484375
4124		23.437500
4125		19.531250
4126		23.437500
4127		19.531250
4128		23.437500
4129		19.531250
4130		23.437500
4131		19.531250
4132		21.484375
4133		19.531250
4134		21.484375
4135		19.531250
4136		21.484375
4137		17.578125
4138		21.484375
4139		17.578125
4140		21.484375
4141		17.578125
4142		21.484375
4143		17.578125
4144		21.484375
4145		17.578125
4146		19.531250
4147		15.625000
4148		21.484375
4149		17.578125
4150		19.531250
4151		15.625000
4152		19.531250
4153		15.625000
4154		19.531250
4155		15.625000
4156		19.531250
4157		15.625000
4158		19.531250
4159		13.671875
4160		17.578125
4161		13.671875
4162		17.578125
4163		13.671875
4164		17.578125
4165		13.671875
4166		15.625000
4167		11.718750
4168		17.578125
4169		11.718750
4170		15.625000
4171		11.718750
4172		15.625000
4173		11.718750
4174		15.625000
4175		11.718750
4176		15.625000
4177		9.765625
4178		15.625000
4179		9.765625
4180		13.671875
4181		9.765625
4182		13.671875
4183		9.765625
4184		11.718750
4185		7.812500
4186		13.671875
4187		7.812500
4188		11.718750
4189		7.812500
4190		11.718750
4191		5.859375
4192		11.718750
4193		5.859375
4194		11.718750
4195		5.859375
4196		9.765625
4197		5.859375
4198		9.765625
4199		5.859375
4200		7.812500
4201		5.859375
4202		7.812500
4203		3.906250
4204		7.812500
4205		3.906250
4206		7.812500
4207		1.953125
4208		5.859375
4209		1.953125
4210		5.859375
4211		1.953125
4212		5.859375
4213		1.953125
4214		5.859375
4215		1.953125
4216		3.906250
4217		1.953125
4218		3.906250
4219		0.000000
4220		3.906250
4221		0.000000
4222		3.906250
4223		-1.953125
4224		1.953125
4225		-1.953125
4226		1.953125
4227		-1.953125
4228		1.953125
4229		-1.953125
4230		1.953125
4231		-1.953125
4232		0.000000
4233		-3.906250
4234		0.000000
4235		-5.859375
4236		0.000000
4237		-3.906250
4238		-1.953125
4239		-5.859375
4240		-1.953125
4241		-5.859375
4242		-1.953125
4243		-5.859375
4244		-1.953125
4245		-5.859375
4246		-3.906250
4247		-7.812500
4248		-3.906250
4249		-7.812500
4250		-3.906250
4251		-9.765625
4252		-3.906250
4253		-7.812500
4254		-3.906250
4255		-7.812500
4256		-5.859375
4257		-7.812500
4258		-5.859375
4259		-9.765625
4260		-5.859375
4261		-9.765625
4262		-5.859375
4263		-11.718750
4264		-7.812500
4265		-9.765625
4266		-7.812500
4267		-9.765625
4268		-7.812500
4269		-11.718750
4270		-7.812500
4271		-11.718750
4272		-9.765625
4273		-11.718750
4274		-9.765625
4275		-13.671875
4276		-9.765625
4277		-13.671875
4278		-9.765625
4279		-13.671875
4280		-9.765625
4281		-13.671875
4282		-9.765625
4283		-13.671875
4284		-11.718750
4285		-15.625000
4286		-11.718750
4287		-13.671875
4288		-11.718750
4289		-15.625000
4290		-11.718750
4291		-15.625000
4292		-11.718750
4293		-15.625000
4294		-11.718750
4295		-15.625000
4296		-11.718750
4297		-15.625000
4298		-11.718750
4299		-15.625000
4300		-13.671875
4301		-15.625000
4302		-13.671875
4303		-17.578125
4304		-11.718750
4305		-17.578125
4306		-11.718750
4307		-15.625000
4308		-13.671875
4309		-15.625000
4310		-13.671875
4311		-17.578125
4312		-13.671875
4313		-17.578125
4314		-13.671875
4315		-17.578125
4316		-13.671875
4317		-15.625000
4318		-13.671875
4319		-17.578125
4320		-11.718750
4321		-17.578125
4322		-13.671875
4323		-17.578125
4324		-13.671875
4325		-17.578125
4326		-13.671875
4327		-17.578125
4328		-13.671875
4329		-17.578125
4330		-13.671875
4331		-17.578125
4332		-13.671875
4333		-17.578125
4334		-13.671875
4335		-17.578125
4336		-13.671875
4337		-17.578125
4338		-13.671875
4339		-17.578125
4340		-13.671875
4341		-17.578125
4342		-13.671875
4343		-17.578125
4344		-13.671875
4345		-17.578125
4346		-13.671875
4347		-17.578125
4348		-11.718750
4349		-15.625000
4350		-13.671875
4351		-15.625000
4352		-13.671875
4353		-17.578125
4354		-11.718750
4355		-15.625000
4356		-11.718750
4357		-15.625000
4358		-11.718750
4359		-15.625000
4360		-11.718750
4361		-15.625000
4362		-11.718750
4363		-15.625000
4364		-11.718750
4365		-15.625000
4366		-11.718750
4367		-13.671875
4368		-11.718750
4369		-15.625000
4370		-9.765625
4371		-13.671875
4372		-9.765625
4373		-13.671875
4374		-9.765625
4375		-13.671875
4376		-9.765625
4377		-13.671875
4378		-9.765625
4379		-11.718750
4380		-9.765625
4381		-13.671875
4382		-9.765625
4383		-11.718750
4384		-9.765625
4385		-11.718750
4386		-9.765625
4387		-13.671875
4388		-7.812500
4389		-11.718750
4390		-7.812500
4391		-9.765625
4392		-7.812500
4393		-9.765625
4394		-5.859375
4395		-9.765625
4396		-5.859375
4397		-9.765625
4398		-5.859375
4399		-9.765625
4400		-5.859375
4401		-7.812500
4402		-5.859375
4403		-9.765625
4404		-3.906250
4405		-9.765625
4406		-3.906250
4407		-7.812500
4408		-3.906250
4409		-7.812500
4410		-1.953125
4411		-7.812500
4412		-1.953125
4413		-7.812500
4414		-1.953125
4415		-5.859375
4416		-1.953125
4417		-3.906250
4418		-1.953125
4419		-5.859375
4420		-1.953125
4421		-3.906250
4422		0.000000
4423		-3.906250
4424		0.000000
4425		-3.906250
4426		0.000000
4427		-3.906250
4428		1.953125
4429		-1.953125
4430		1.953125
4431		-1.953125
4432		1.953125
4433		-1.953125
4434		1.953125
4435		0.000000
4436		1.953125
4437		-1.953125
4438		3.906250
4439		0.000000
4440		3.906250
4441		0.000000
4442		5.859375
4443		1.953125
4444		3.906250
4445		1.953125
4446		5.859375
4447		1.953125
4448		5.859375
4449		1.953125
4450		5.859375
4451		3.906250
4452		5.859375
4453		1.953125
4454		7.812500
4455		3.906250
4456		9.765625
4457		3.906250
4458		9.765625
4459		3.906250
4460		9.765625
4461		3.906250
4462		9.765625
4463		5.859375
4464		11.718750
4465		5.859375
4466		11.718750
4467		7.812500
4468		9.765625
4469		7.812500
4470		9.765625
4471		7.812500
4472		13.671875
4473		7.812500
4474		13.671875
4475		7.812500
4476		13.671875
4477		7.812500
4478		13.671875
4479		9.765625
4480		15.625000
4481		9.765625
4482		15.625000
4483		9.765625
4484		15.625000
4485		11.718750
4486		13.671875
4487		11.718750
4488		15.625000
4489		11.718750
4490		17.578125
4491		11.718750
4492		17.578125
4493		11.718750
4494		17.578125
4495		11.718750
4496		17.578125
4497		13.671875
4498		19.531250
4499		13.671875
4500		17.578125
4501		15.625000
4502		17.578125
4503		13.671875
4504		19.531250
4505		13.671875
4506		19.531250
4507		15.625000
4508		21.484375
4509		15.625000
4510		21.484375
4511		15.625000
4512		21.484375
4513		15.625000
4514		21.484375
4515		15.625000
4516		21.484375
4517		17.578125
4518		21.484375
4519		17.578125
4520		19.531250
4521		17.578125
4522		21.484375
4523		19.531250
4524		21.484375
4525		19.531250
4526		21.484375
4527		19.531250
4528		21.484375
4529		19.531250
4530		21.484375
4531		19.531250
4532		21.484375
4533		19.531250
4534		23.437500
4535		19.531250
4536		21.484375
4537		19.531250
4538		23.437500
4539		19.531250
4540		23.437500
4541		21.484375
4542		23.437500
4543		21.484375
4544		23.437500
4545		21.484375
4546		23.437500
4547		21.484375
4548		23.437500
4549		19.531250
4550		25.390625
4551		21.484375
4552		23.437500
4553		21.484375
4554		23.437500
4555		21.484375
4556		23.437500
4557		21.484375
4558		23.437500
4559		21.484375
4560		23.437500
4561		21.484375
4562		23.437500
4563		21.484375
4564		23.437500
4565		21.484375
4566		23.437500
4567		21.484375
4568		23.437500
4569		21.484375
4570		23.437500
4571		21.484375
4572		23.437500
4573		21.484375
4574		23.437500
4575		21.484375
4576		23.437500
4577		21.484375
4578		23.437500
4579		21.484375
4580		23.437500
4581		21.484375
4582		23.437500
4583		21.484375
4584		23.437500
4585		21.484375
4586		23.437500
4587		21.484375
4588		23.437500
4589		21.484375
4590		23.437500
4591		21.484375
4592		23.437500
4593		19.531250
4594		23.437500
4595		19.531250
4596		23.437500
4597		19.531250
4598		21.484375
4599		19.531250
4600		21.484375
4601		19.531250
4602		21.484375
4603		19.531250
4604		21.484375
4605		19.531250
4606		21.484375
4607		19.531250
4608		21.484375
4609		19.531250
4610		21.484375
4611		17.578125
4612		19.531250
4613		17.578125
4614		19.531250
4615		17.578125
4616		19.531250
4617		17.578125
4618		19.531250
4619		17.578125
4620		19.531250
4621		13.671875
4622		21.484375
4623		13.671875
4624		21.484375
4625		13.671875
4626		21.484375
4627		13.671875
4628		21.484375
4629		15.625000
4630		17.578125
4631		13.671875
4632		17.578125
4633		13.671875
4634		15.625000
4635		13.671875
4636		15.625000
4637		13.671875
4638		15.625000
4639		9.765625
4640		19.531250
4641		9.765625
4642		19.531250
4643		7.812500
4644		17.578125
4645		11.718750
4646		13.671875
4647		11.718750
4648		13.671875
4649		11.718750
4650		13.671875
4651		9.765625
4652		13.671875
4653		9.765625
4654		11.718750
4655		5.859375
4656		15.625000
4657		5.859375
4658		15.625000
4659		3.906250
4660		13.671875
4661		7.812500
4662		11.718750
4663		7.812500
4664		9.765625
4665		5.859375
4666		9.765625
4667		5.859375
4668		7.812500
4669		5.859375
4670		7.812500
4671		5.859375
4672		7.812500
4673		1.953125
4674		11.718750
4675		1.953125
4676		9.765625
4677		0.000000
4678		9.765625
4679		3.906250
4680		5.859375
4681		1.953125
4682		5.859375
4683		1.953125
4684		3.906250
4685		1.953125
4686		3.906250
4687		1.953125
4688		3.906250
4689		-3.906250
4690		7.812500
4691		-3.906250
4692		5.859375
4693		-3.906250
4694		5.859375
4695		-1.953125
4696		1.953125
4697		-1.953125
4698		0.000000
4699		-1.953125
4700		0.000000
4701		-1.953125
4702		0.000000
4703		-3.906250
4704		0.000000
4705		-7.812500
4706		1.953125
4707		-7.812500
4708		1.953125
4709		-7.812500
4710		1.953125
4711		-7.812500
4712		1.953125
4713		-5.859375
4714		-3.906250
4715		-5.859375
4716		-3.906250
4717		-5.859375
4718		-3.906250
4719		-7.812500
4720		-3.906250
4721		-7.812500
4722		-5.859375
4723		-11.718750
4724		-1.953125
4725		-11.718750
4726		-1.953125
4727		-11.718750
4728		-1.953125
4729		-9.765625
4730		-7.812500
4731		-9.765625
4732		-7.812500
4733		-9.765625
4734		-7.812500
4735		-9.765625
4736		-7.812500
4737		-9.765625
4738		-7.812500
4739		-15.625000
4740		-5.859375
4741		-15.625000
4742		-5.859375
4743		-15.625000
4744		-5.859375
4745		-15.625000
4746		-5.859375
4747		-11.718750
4748		-9.765625
4749		-13.671875
4750		-11.718750
4751		-13.671875
4752		-11.718750
4753		-13.671875
4754		-11.718750
4755		-13.671875
4756		-11.718750
4757		-17.578125
4758		-7.812500
4759		-17.578125
4760		-7.812500
4761		-17.578125
4762		-7.812500
4763		-15.625000
4764		-11.718750
4765		-15.625000
4766		-13.671875
4767		-15.625000
4768		-13.671875
4769		-15.625000
4770		-13.671875
4771		-15.625000
4772		-13.671875
4773		-19.531250
4774		-9.765625
4775		-19.531250
4776		-9.765625
4777		-19.531250
4778		-9.765625
4779		-15.625000
4780		-13.671875
4781		-15.625000
4782		-13.671875
4783		-17.578125
4784		-15.625000
4785		-17.578125
4786		-15.625000
4787		-17.578125
4788		-15.625000
4789		-19.531250
4790		-11.718750
4791		-21.484375
4792		-11.718750
4793		-21.484375
4794		-11.718750
4795		-21.484375
4796		-11.718750
4797		-17.578125
4798		-15.625000
4799		-17.578125
4800		-15.625000
4801		-17.578125
4802		-15.625000
4803		-17.578125
4804		-15.625000
4805		-17.578125
4806		-15.625000
4807		-17.578125
4808		-15.625000
4809		-19.531250
4810		-11.718750
4811		-19.531250
4812		-11.718750
4813		-17.578125
4814		-15.625000
4815		-17.578125
4816		-13.671875
4817		-15.625000
4818		-13.671875
4819		-15.625000
4820		-13.671875
4821		-15.625000
4822		-13.671875
4823		-15.625000
4824		-13.671875
4825		-19.531250
4826		-11.718750
4827		-19.531250
4828		-9.765625
4829		-15.625000
4830		-13.671875
4831		-15.625000
4832		-13.671875
4833		-15.625000
4834		-11.718750
4835		-15.625000
4836		-13.671875
4837		-15.625000
4838		-11.718750
4839		-15.625000
4840		-11.718750
4841		-13.671875
4842		-11.718750
4843		-15.625000
4844		-9.765625
4845		-15.625000
4846		-9.765625
4847		-13.671875
4848		-11.718750
4849		-13.671875
4850		-11.718750
4851		-13.671875
4852		-11.718750
4853		-11.718750
4854		-9.765625
4855		-11.718750
4856		-9.765625
4857		-11.718750
4858		-9.765625
4859		-11.718750
4860		-9.765625
4861		-11.718750
4862		-9.765625
4863		-9.765625
4864		-7.812500
4865		-9.765625
4866		-7.812500
4867		-9.765625
4868		-7.812500
4869		-9.765625
4870		-7.812500
4871		-9.765625
4872		-7.812500
4873		-9.765625
4874		-5.859375
4875		-7.812500
4876		-5.859375
4877		-7.812500
4878		-5.859375
4879		-7.812500
4880		-5.859375
4881		-7.812500
4882		-5.859375
4883		-5.859375
4884		-3.906250
4885		-5.859375
4886		-3.906250
4887		-5.859375
4888		-3.906250
4889		-5.859375
4890		-3.906250
4891		-5.859375
4892		-1.953125
4893		-3.906250
4894		-1.953125
4895		-3.906250
4896		-1.953125
4897		-3.906250
4898		0.000000
4899		-3.906250
4900		0.000000
4901		-1.953125
4902		0.000000
4903		-1.953125
4904		0.000000
4905		-1.953125
4906		0.000000
4907		-1.953125
4908		1.953125
4909		0.000000
4910		1.953125
4911		0.000000
4912		1.953125
4913		0.000000
4914		3.906250
4915		0.000000
4916		3.906250
4917		1.953125
4918		3.906250
4919		1.953125
4920		3.906250
4921		1.953125
4922		5.859375
4923		1.953125
4924		5.859375
4925		1.953125
4926		7.812500
4927		3.906250
4928		7.812500
4929		3.906250
4930		7.812500
4931		3.906250
4932		7.812500
4933		5.859375
4934		9.765625
4935		5.859375
4936		9.765625
4937		5.859375
4938		9.765625
4939		7.812500
4940		9.765625
4941		5.859375
4942		11.718750
4943		5.859375
4944		11.718750
4945		7.812500
4946		11.718750
4947		7.812500
4948		11.718750
4949		7.812500
4950		13.671875
4951		9.765625
4952		11.718750
4953		9.765625
4954		13.671875
4955		9.765625
4956		13.671875
4957		9.765625
4958		15.625000
4959		11.718750
4960		15.625000
4961		11.718750
4962		15.625000
4963		13.671875
4964		15.625000
4965		11.718750
4966		15.625000
4967		13.671875
4968		15.625000
4969		13.671875
4970		15.625000
4971		13.671875
4972		15.625000
4973		15.625000
4974		17.578125
4975		13.671875
4976		17.578125
4977		13.671875
4978		17.578125
4979		15.625000
4980		17.578125
4981		15.625000
4982		19.531250
4983		15.625000
4984		19.531250
4985		17.578125
4986		19.531250
4987		17.578125
4988		19.531250
4989		17.578125
4990		21.484375
4991		17.578125
4992		21.484375
4993		17.578125
4994		21.484375
4995		17.578125
4996		21.484375
4997		17.578125
4998		21.484375
4999		17.578125
5000		21.484375
5001		19.531250
5002		21.484375
5003		19.531250
5004		21.484375
5005		19.531250
5006		21.484375
5007		19.531250
5008		23.437500
5009		17.578125
5010		25.390625
5011		19.531250
5012		23.437500
5013		19.531250
5014		23.437500
5015		19.531250
5016		23.437500
5017		19.531250
5018		23.437500
5019		21.484375
5020		23.437500
5021		21.484375
5022		23.437500
5023		21.484375
5024		23.437500
5025		19.531250
5026		25.390625
5027		19.531250
5028		23.437500
5029		21.484375
5030		23.437500
5031		21.484375
5032		23.437500
5033		19.531250
5034		23.437500
5035		21.484375
5036		23.437500
5037		21.484375
5038		23.437500
5039		21.484375
5040		23.437500
5041		19.531250
5042		23.437500
5043		19.531250
5044		25.390625
5045		19.531250
5046		23.437500
5047		21.484375
5048		23.437500
5049		19.531250
5050		23.437500
5051		19.531250
5052		23.437500
5053		21.484375
5054		23.437500
5055		21.484375
5056		23.437500
5057		21.484375
5058		23.437500
5059		19.531250
5060		23.437500
5061		19.531250
5062		23.437500
5063		19.531250
5064		21.484375
5065		19.531250
5066		23.437500
5067		19.531250
5068		23.437500
5069		19.531250
5070		21.484375
5071		19.531250
5072		21.484375
5073		19.531250
5074		21.484375
5075		17.578125
5076		23.437500
5077		17.578125
5078		21.484375
5079		17.578125
5080		19.531250
5081		17.578125
5082		21.484375
5083		17.578125
5084		21.484375
5085		17.578125
5086		19.531250
5087		17.578125
5088		19.531250
5089		15.625000
5090		19.531250
5091		15.625000
5092		19.531250
5093		15.625000
5094		19.531250
5095		15.625000
5096		17.578125
5097		15.625000
5098		17.578125
5099		15.625000
5100		17.578125
5101		15.625000
5102		17.578125
5103		13.671875
5104		15.625000
5105		13.671875
5106		15.625000
5107		13.671875
5108		15.625000
5109		13.671875
5110		15.625000
5111		11.718750
5112		15.625000
5113		11.718750
5114		13.671875
5115		11.718750
5116		13.671875
5117		9.765625
5118		13.671875
5119		9.765625
5120		13.671875
5121		9.765625
5122		11.718750
5123		9.765625
5124		11.718750
5125		7.812500
5126		11.718750
5127		7.812500
5128		11.718750
5129		7.812500
5130		9.765625
5131		7.812500
5132		9.765625
5133		7.812500
5134		9.765625
5135		5.859375
5136		9.765625
5137		5.859375
5138		7.812500
5139		5.859375
5140		7.812500
5141		5.859375
5142		7.812500
5143		3.906250
5144		7.812500
5145		3.906250
5146		5.859375
5147		3.906250
5148		5.859375
5149		3.906250
5150		5.859375
5151		1.953125
5152		5.859375
5153		1.953125
5154		3.906250
5155		1.953125
5156		3.906250
5157		1.953125
5158		3.906250
5159		0.000000
5160		1.953125
5161		0.000000
5162		1.953125
5163		0.000000
5164		1.953125
5165		-1.953125
5166		1.953125
5167		-1.953125
5168		0.000000
5169		-1.953125
5170		0.000000
5171		-1.953125
5172		0.000000
5173		-3.906250
5174		0.000000
5175		-3.906250
5176		-1.953125
5177		-3.906250
5178		-1.953125
5179		-3.906250
5180		-1.953125
5181		-5.859375
5182		-1.953125
5183		-5.859375
5184		-3.906250
5185		-5.859375
5186		-3.906250
5187		-5.859375
5188		-3.906250
5189		-7.812500
5190		-3.906250
5191		-7.812500
5192		-5.859375
5193		-7.812500
5194		-5.859375
5195		-7.812500
5196		-5.859375
5197		-9.765625
5198		-5.859375
5199		-9.765625
5200		-7.812500
5201		-9.765625
5202		-7.812500
5203		-9.765625
5204		-7.812500
5205		-9.765625
5206		-7.812500
5207		-11.718750
5208		-9.765625
5209		-11.718750
5210		-7.812500
5211		-11.718750
5212		-9.765625
5213		-11.718750
5214		-9.765625
5215		-11.718750
5216		-9.765625
5217		-11.718750
5218		-9.765625
5219		-13.671875
5220		-11.718750
5221		-13.671875
5222		-11.718750
5223		-13.671875
5224		-11.718750
5225		-13.671875
5226		-11.718750
5227		-15.625000
5228		-11.718750
5229		-13.671875
5230		-11.718750
5231		-15.625000
5232		-13.671875
5233		-15.625000
5234		-13.671875
5235		-15.625000
5236		-13.671875
5237		-15.625000
5238		-13.671875
5239		-15.625000
5240		-13.671875
5241		-15.625000
5242		-13.671875
5243		-17.578125
5244		-13.671875
5245		-17.578125
5246		-11.718750
5247		-17.578125
5248		-13.671875
5249		-17.578125
5250		-15.625000
5251		-17.578125
5252		-15.625000
5253		-17.578125
5254		-15.625000
5255		-17.578125
5256		-15.625000
5257		-17.578125
5258		-15.625000
5259		-17.578125
5260		-15.625000
5261		-21.484375
5262		-13.671875
5263		-19.531250
5264		-13.671875
5265		-17.578125
5266		-15.625000
5267		-17.578125
5268		-15.625000
5269		-17.578125
5270		-15.625000
5271		-17.578125
5272		-15.625000
5273		-17.578125
5274		-15.625000
5275		-17.578125
5276		-15.625000
5277		-19.531250
5278		-13.671875
5279		-19.531250
5280		-13.671875
5281		-17.578125
5282		-15.625000
5283		-17.578125
5284		-15.625000
5285		-17.578125
5286		-15.625000
5287		-17.578125
5288		-15.625000
5289		-17.578125
5290		-15.625000
5291		-17.578125
5292		-13.671875
5293		-19.531250
5294		-11.718750
5295		-19.531250
5296		-11.718750
5297		-17.578125
5298		-11.718750
5299		-15.625000
5300		-13.671875
5301		-15.625000
5302		-13.671875
5303		-15.625000
5304		-13.671875
5305		-15.625000
5306		-13.671875
5307		-15.625000
5308		-13.671875
5309		-15.625000
5310		-13.671875
5311		-15.625000
5312		-11.718750
5313		-15.625000
5314		-9.765625
5315		-13.671875
5316		-11.718750
5317		-13.671875
5318		-11.718750
5319		-13.671875
5320		-11.718750
5321		-13.671875
5322		-11.718750
5323		-13.671875
5324		-11.718750
5325		-13.671875
5326		-9.765625
5327		-13.671875
5328		-7.812500
5329		-13.671875
5330		-7.812500
5331		-11.718750
5332		-9.765625
5333		-11.718750
5334		-7.812500
5335		-11.718750
5336		-9.765625
5337		-11.718750
5338		-7.812500
5339		-9.765625
5340		-7.812500
5341		-9.765625
5342		-7.812500
5343		-9.765625
5344		-7.812500
5345		-11.718750
5346		-3.906250
5347		-9.765625
5348		-3.906250
5349		-7.812500
5350		-5.859375
5351		-7.812500
5352		-5.859375
5353		-7.812500
5354		-5.859375
5355		-7.812500
5356		-3.906250
5357		-5.859375
5358		-3.906250
5359		-5.859375
5360		-3.906250
5361		-7.812500
5362		0.000000
5363		-5.859375
5364		-1.953125
5365		-3.906250
5366		-1.953125
5367		-3.906250
5368		-1.953125
5369		-3.906250
5370		-1.953125
5371		-3.906250
5372		0.000000
5373		-1.953125
5374		0.000000
5375		-1.953125
5376		0.000000
5377		-3.906250
5378		1.953125
5379		-3.906250
5380		3.906250
5381		-1.953125
5382		3.906250
5383		0.000000
5384		1.953125
5385		0.000000
5386		1.953125
5387		1.953125
5388		3.906250
5389		1.953125
5390		3.906250
5391		1.953125
5392		3.906250
5393		1.953125
5394		3.906250
5395		0.000000
5396		7.812500
5397		1.953125
5398		7.812500
5399		3.906250
5400		5.859375
5401		3.906250
5402		7.812500
5403		5.859375
5404		7.812500
5405		5.859375
5406		7.812500
5407		5.859375
5408		7.812500
5409		5.859375
5410		9.765625
5411		5.859375
5412		11.718750
5413		5.859375
5414		11.718750
5415		7.812500
5416		9.765625
5417		7.812500
5418		11.718750
5419		9.765625
5420		11.718750
5421		9.765625
5422		11.718750
5423		9.765625
5424		11.718750
5425		9.765625
5426		11.718750
5427		9.765625
5428		13.671875
5429		9.765625
5430		13.671875
5431		11.718750
5432		13.671875
5433		11.718750
5434		13.671875
5435		11.718750
5436		15.625000
5437		13.671875
5438		15.625000
5439		13.671875
5440		15.625000
5441		13.671875
5442		15.625000
5443		13.671875
5444		15.625000
5445		13.671875
5446		17.578125
5447		13.671875
5448		17.578125
5449		15.625000
5450		17.578125
5451		15.625000
5452		17.578125
5453		15.625000
5454		17.578125
5455		15.625000
5456		19.531250
5457		17.578125
5458		19.531250
5459		17.578125
5460		19.531250
5461		15.625000
5462		21.484375
5463		15.625000
5464		19.531250
5465		17.578125
5466		19.531250
5467		17.578125
5468		19.531250
5469		17.578125
5470		19.531250
5471		19.531250
5472		21.484375
5473		19.531250
5474		21.484375
5475		19.531250
5476		21.484375
5477		19.531250
5478		21.484375
5479		19.531250
5480		21.484375
5481		19.531250
5482		21.484375
5483		19.531250
5484		21.484375
5485		19.531250
5486		21.484375
5487		19.531250
5488		23.437500
5489		19.531250
5490		23.437500
5491		19.531250
5492		23.437500
5493		19.531250
5494		23.437500
5495		21.484375
5496		23.437500
5497		21.484375
5498		23.437500
5499		21.484375
5500		23.437500
5501		21.484375
5502		23.437500
5503		21.484375
5504		23.437500
5505		21.484375
5506		23.437500
5507		21.484375
5508		23.437500
5509		21.484375
5510		23.437500
5511		21.484375
5512		23.437500
5513		21.484375
5514		23.437500
5515		21.484375
5516		23.437500
5517		21.484375
5518		23.437500
5519		21.484375
5520		23.437500
5521		21.484375
5522		23.437500
5523		21.484375
5524		23.437500
5525		21.484375
5526		23.437500
5527		19.531250
5528		23.437500
5529		19.531250
5530		21.484375
5531		19.531250
5532		21.484375
5533		19.531250
5534		23.437500
5535		19.531250
5536		21.484375
5537		19.531250
5538		21.484375
5539		19.531250
5540		21.484375
5541		19.531250
5542		21.484375
5543		19.531250
5544		21.484375
5545		17.578125
5546		21.484375
5547		17.578125
5548		21.484375
5549		17.578125
5550		19.531250
5551		17.578125
5552		19.531250
5553		17.578125
5554		19.531250
5555		15.625000
5556		19.531250
5557		17.578125
5558		19.531250
5559		15.625000
5560		19.531250
5561		15.625000
5562		19.531250
5563		15.625000
5564		17.578125
5565		15.625000
5566		17.578125
5567		13.671875
5568		17.578125
5569		15.625000
5570		17.578125
5571		15.625000
5572		17.578125
5573		13.671875
5574		15.625000
5575		13.671875
5576		15.625000
5577		13.671875
5578		15.625000
5579		13.671875
5580		15.625000
5581		13.671875
5582		15.625000
5583		11.718750
5584		13.671875
5585		11.718750
5586		13.671875
5587		11.718750
5588		13.671875
5589		9.765625
5590		13.671875
5591		9.765625
5592		11.718750
5593		9.765625
5594		11.718750
5595		9.765625
5596		11.718750
5597		9.765625
5598		11.718750
5599		7.812500
5600		11.718750
5601		7.812500
5602		9.765625
5603		7.812500
5604		9.765625
5605		7.812500
5606		9.765625
5607		5.859375
5608		7.812500
5609		5.859375
5610		7.812500
5611		5.859375
5612		7.812500
5613		3.906250
5614		7.812500
5615		3.906250
5616		5.859375
5617		3.906250
5618		5.859375
5619		3.906250
5620		5.859375
5621		1.953125
5622		5.859375
5623		1.953125
5624		3.906250
5625		1.953125
5626		3.906250
5627		1.953125
5628		3.906250
5629		0.000000
5630		3.906250
5631		0.000000
5632		1.953125
5633		0.000000
5634		1.953125
5635		-1.953125
5636		1.953125
5637		-1.953125
5638		0.000000
5639		-1.953125
5640		0.000000
5641		-1.953125
5642		0.000000
5643		-3.906250
5644		0.000000
5645		-3.906250
5646		0.000000
5647		-3.906250
5648		-1.953125
5649		-3.906250
5650		-1.953125
5651		-5.859375
5652		-1.953125
5653		-5.859375
5654		-3.906250
5655		-5.859375
5656		-3.906250
5657		-5.859375
5658		-3.906250
5659		-7.812500
5660		-3.906250
5661		-7.812500
5662		-5.859375
5663		-7.812500
5664		-5.859375
5665		-7.812500
5666		-5.859375
5667		-9.765625
5668		-5.859375
5669		-9.765625
5670		-5.859375
5671		-9.765625
5672		-7.812500
5673		-9.765625
5674		-7.812500
5675		-11.718750
5676		-7.812500
5677		-11.718750
5678		-7.812500
5679		-11.718750
5680		-7.812500
5681		-11.718750
5682		-9.765625
5683		-11.718750
5684		-9.765625
5685		-13.671875
5686		-9.765625
5687		-13.671875
5688		-9.765625
5689		-13.671875
5690		-11.718750
5691		-13.671875
5692		-11.718750
5693		-13.671875
5694		-11.718750
5695		-13.671875
5696		-11.718750
5697		-13.671875
5698		-11.718750
5699		-15.625000
5700		-11.718750
5701		-15.625000
5702		-13.671875
5703		-15.625000
5704		-11.718750
5705		-15.625000
5706		-13.671875
5707		-15.625000
5708		-13.671875
5709		-15.625000
5710		-13.671875
5711		-15.625000
5712		-13.671875
5713		-17.578125
5714		-13.671875
5715		-15.625000
5716		-13.671875
5717		-17.578125
5718		-13.671875
5719		-17.578125
5720		-15.625000
5721		-17.578125
5722		-13.671875
5723		-17.578125
5724		-15.625000
5725		-17.578125
5726		-15.625000
5727		-17.578125
5728		-15.625000
5729		-17.578125
5730		-15.625000
5731		-17.578125
5732		-15.625000
5733		-17.578125
5734		-15.625000
5735		-17.578125
5736		-15.625000
5737		-17.578125
5738		-15.625000
5739		-17.578125
5740		-15.625000
5741		-17.578125
5742		-15.625000
5743		-17.578125
5744		-15.625000
5745		-17.578125
5746		-15.625000
5747		-17.578125
5748		-15.625000
5749		-17.578125
5750		-15.625000
5751		-17.578125
5752		-15.625000
5753		-17.578125
5754		-15.625000
5755		-17.578125
5756		-15.625000
5757		-17.578125
5758		-15.625000
5759		-17.578125
5760		-15.625000
5761		-17.578125
5762		-15.625000
5763		-17.578125
5764		-15.625000
5765		-17.578125
5766		-15.625000
5767		-17.578125
5768		-15.625000
5769		-15.625000
5770		-13.671875
5771		-17.578125
5772		-13.671875
5773		-15.625000
5774		-13.671875
5775		-15.625000
5776		-13.671875
5777		-15.625000
5778		-13.671875
5779		-15.625000
5780		-13.671875
5781		-15.625000
5782		-13.671875
5783		-15.625000
5784		-13.671875
5785		-15.625000
5786		-13.671875
5787		-15.625000
5788		-11.718750
5789		-13.671875
5790		-11.718750
5791		-13.671875
5792		-11.718750
5793		-13.671875
5794		-11.718750
5795		-13.671875
5796		-11.718750
5797		-13.671875
5798		-11.718750
5799		-13.671875
5800		-9.765625
5801		-11.718750
5802		-9.765625
5803		-11.718750
5804		-9.765625
5805		-11.718750
5806		-9.765625
5807		-11.718750
5808		-9.765625
5809		-11.718750
5810		-9.765625
5811		-9.765625
5812		-7.812500
5813		-9.765625
5814		-7.812500
5815		-9.765625
5816		-7.812500
5817		-9.765625
5818		-7.812500
5819		-9.765625
5820		-5.859375
5821		-7.812500
5822		-5.859375
5823		-7.812500
5824		-5.859375
5825		-7.812500
5826		-5.859375
5827		-7.812500
5828		-3.906250
5829		-5.859375
5830		-3.906250
5831		-5.859375
5832		-3.906250
5833		-5.859375
5834		-3.906250
5835		-5.859375
5836		-3.906250
5837		-3.906250
5838		-1.953125
5839		-3.906250
5840		-1.953125
5841		-3.906250
5842		-1.953125
5843		-3.906250
5844		-1.953125
5845		-3.906250
5846		0.000000
5847		-1.953125
5848		0.000000
5849		-1.953125
5850		0.000000
5851		-1.953125
5852		0.000000
5853		0.000000
5854		1.953125
5855		0.000000
5856		1.953125
5857		0.000000
5858		1.953125
5859		0.000000
5860		1.953125
5861		1.953125
5862		3.906250
5863		1.953125
5864		3.906250
5865		1.953125
5866		3.906250
5867		1.953125
5868		3.906250
5869		3.906250
5870		5.859375
5871		3.906250
5872		5.859375
5873		3.906250
5874		7.812500
5875		3.906250
5876		7.812500
5877		5.859375
5878		7.812500
5879		5.859375
5880		7.812500
5881		5.859375
5882		7.812500
5883		5.859375
5884		9.765625
5885		5.859375
5886		9.765625
5887		7.812500
5888		9.765625
5889		7.812500
5890		9.765625
5891		7.812500
5892		9.765625
5893		9.765625
5894		11.718750
5895		9.765625
5896		11.718750
5897		9.765625
5898		11.718750
5899		9.765625
5900		11.718750
5901		11.718750
5902		13.671875
5903		11.718750
5904		13.671875
5905		11.718750
5906		13.671875
5907		11.718750
5908		13.671875
5909		11.718750
5910		15.625000
5911		13.671875
5912		15.625000
5913		13.671875
5914		15.625000
5915		13.671875
5916		15.625000
5917		13.671875
5918		15.625000
5919		13.671875
5920		17.578125
5921		15.625000
5922		17.578125
5923		15.625000
5924		17.578125
5925		15.625000
5926		17.578125
5927		15.625000
5928		17.578125
5929		15.625000
5930		17.578125
5931		15.625000
5932		19.531250
5933		15.625000
5934		19.531250
5935		17.578125
5936		19.531250
5937		17.578125
5938		19.531250
5939		17.578125
5940		19.531250
5941		17.578125
5942		19.531250
5943		17.578125
5944		21.484375
5945		17.578125
5946		21.484375
5947		17.578125
5948		21.484375
5949		19.531250
5950		21.484375
5951		19.531250
5952		21.484375
5953		19.531250
5954		21.484375
5955		19.531250
5956		21.484375
5957		19.531250
5958		21.484375
5959		19.531250
5960		21.484375
5961		19.531250
5962		21.484375
5963		19.531250
5964		21.484375
5965		19.531250
5966		21.484375
5967		19.531250
5968		21.484375
5969		19.531250
5970		23.437500
5971		21.484375
5972		23.437500
5973		21.484375
5974		23.437500
5975		21.484375
5976		23.437500
5977		21.484375
5978		23.437500
5979		19.531250
5980		23.437500
5981		21.484375
5982		23.437500
5983		21.484375
5984		23.437500
5985		21.484375
5986		23.437500
5987		21.484375
5988		23.437500
5989		19.531250
5990		23.437500
5991		19.531250
5992		23.437500
5993		21.484375
5994		23.437500
5995		19.531250
5996		23.437500
5997		19.531250
5998		21.484375
5999		19.531250
6000		21.484375
6001		19.531250
6002		23.437500
6003		19.531250
6004		21.484375
6005		19.531250
6006		21.484375
6007		19.531250
6008		21.484375
6009		19.531250
6010		21.484375
6011		19.531250
6012		21.484375
6013		19.531250
6014		21.484375
6015		19.531250
6016		21.484375
6017		17.578125
6018		21.484375
6019		17.578125
6020		19.531250
6021		17.578125
6022		19.531250
6023		17.578125
6024		19.531250
6025		17.578125
6026		19.531250
6027		17.578125
6028		19.531250
6029		17.578125
6030		19.531250
6031		15.625000
6032		17.578125
6033		15.625000
6034		19.531250
6035		15.625000
6036		17.578125
6037		13.671875
6038		17.578125
6039		15.625000
6040		17.578125
6041		15.625000
6042		17.578125
6043		13.671875
6044		15.625000
6045		13.671875
6046		15.625000
6047		13.671875
6048		15.625000
6049		13.671875
6050		15.625000
6051		13.671875
6052		15.625000
6053		11.718750
6054		13.671875
6055		11.718750
6056		13.671875
6057		11.718750
6058		13.671875
6059		11.718750
6060		13.671875
6061		9.765625
6062		13.671875
6063		9.765625
6064		11.718750
6065		9.765625
6066		11.718750
6067		9.765625
6068		11.718750
6069		7.812500
6070		9.765625
6071		7.812500
6072		9.765625
6073		7.812500
6074		9.765625
6075		7.812500
6076		9.765625
6077		5.859375
6078		9.765625
6079		5.859375
6080		7.812500
6081		5.859375
6082		7.812500
6083		3.906250
6084		7.812500
6085		3.906250
6086		5.859375
6087		3.906250
6088		5.859375
6089		3.906250
6090		5.859375
6091		3.906250
6092		5.859375
6093		1.953125
6094		3.906250
6095		0.000000
6096		3.906250
6097		1.953125
6098		3.906250
6099		0.000000
6100		3.906250
6101		0.000000
6102		1.953125
6103		0.000000
6104		1.953125
6105		-1.953125
6106		1.953125
6107		-1.953125
6108		1.953125
6109		-1.953125
6110		0.000000
6111		-1.953125
6112		0.000000
6113		-1.953125
6114		0.000000
6115		-3.906250
6116		0.000000
6117		-3.906250
6118		-1.953125
6119		-5.859375
6120		-1.953125
6121		-3.906250
6122		-1.953125
6123		-5.859375
6124		-3.906250
6125		-5.859375
6126		-3.906250
6127		-5.859375
6128		-3.906250
6129		-7.812500
6130		-3.906250
6131		-7.812500
6132		-3.906250
6133		-7.812500
6134		-5.859375
6135		-7.812500
6136		-5.859375
6137		-7.812500
6138		-5.859375
6139		-9.765625
6140		-7.812500
6141		-9.765625
6142		-7.812500
6143		-9.765625
6144		-7.812500
6145		-9.765625
6146		-7.812500
6147		-11.718750
6148		-7.812500
6149		-11.718750
6150		-9.765625
6151		-11.718750
6152		-9.765625
6153		-11.718750
6154		-9.765625
6155		-13.671875
6156		-9.765625
6157		-13.671875
6158		-9.765625
6159		-13.671875
6160		-9.765625
6161		-13.671875
6162		-11.718750
6163		-13.671875
6164		-11.718750
6165		-13.671875
6166		-11.718750
6167		-15.625000
6168		-11.718750
6169		-15.625000
6170		-11.718750
6171		-15.625000
6172		-13.671875
6173		-15.625000
6174		-13.671875
6175		-15.625000
6176		-13.671875
6177		-15.625000
6178		-13.671875
6179		-17.578125
6180		-13.671875
6181		-15.625000
6182		-13.671875
6183		-15.625000
6184		-13.671875
6185		-17.578125
6186		-15.625000
6187		-17.578125
6188		-15.625000
6189		-17.578125
6190		-15.625000
6191		-17.578125
6192		-13.671875
6193		-17.578125
6194		-15.625000
6195		-17.578125
6196		-15.625000
6197		-17.578125
6198		-15.625000
6199		-17.578125
6200		-15.625000
6201		-17.578125
6202		-15.625000
6203		-17.578125
6204		-15.625000
6205		-17.578125
6206		-15.625000
6207		-17.578125
6208		-15.625000
6209		-17.578125
6210		-15.625000
6211		-17.578125
6212		-15.625000
6213		-17.578125
6214		-15.625000
6215		-19.531250
6216		-15.625000
6217		-17.578125
6218		-15.625000
6219		-17.578125
6220		-15.625000
6221		-17.578125
6222		-15.625000
6223		-17.578125
6224		-15.625000
6225		-17.578125
6226		-15.625000
6227		-17.578125
6228		-15.625000
6229		-17.578125
6230		-15.625000
6231		-17.578125
6232		-15.625000
6233		-17.578125
6234		-15.625000
6235		-17.578125
6236		-15.625000
6237		-17.578125
6238		-15.625000
6239		-17.578125
6240		-13.671875
6241		-17.578125
6242		-13.671875
6243		-17.578125
6244		-15.625000
6245		-17.578125
6246		-13.671875
6247		-15.625000
6248		-13.671875
6249		-15.625000
6250		-13.671875
6251		-17.578125
6252		-13.671875
6253		-15.625000
6254		-13.671875
6255		-15.625000
6256		-13.671875
6257		-15.625000
6258		-13.671875
6259		-15.625000
6260		-11.718750
6261		-15.625000
6262		-11.718750
6263		-13.671875
6264		-11.718750
6265		-13.671875
6266		-11.718750
6267		-13.671875
6268		-11.718750
6269		-15.625000
6270		-9.765625
6271		-13.671875
6272		-11.718750
6273		-15.625000
6274		-9.765625
6275		-13.671875
6276		-9.765625
6277		-13.671875
6278		-7.812500
6279		-11.718750
6280		-9.765625
6281		-11.718750
6282		-9.765625
6283		-9.765625
6284		-7.812500
6285		-9.765625
6286		-7.812500
6287		-11.718750
6288		-7.812500
6289		-11.718750
6290		-3.906250
6291		-11.718750
6292		-5.859375
6293		-9.765625
6294		-5.859375
6295		-9.765625
6296		-3.906250
6297		-9.765625
6298		-1.953125
6299		-7.812500
6300		-5.859375
6301		-5.859375
6302		-3.906250
6303		-7.812500
6304		-3.906250
6305		-5.859375
6306		-3.906250
6307		-7.812500
6308		0.000000
6309		-5.859375
6310		-1.953125
6311		-5.859375
6312		0.000000
6313		-3.906250
6314		-1.953125
6315		-5.859375
6316		1.953125
6317		-3.906250
6318		0.000000
6319		-3.906250
6320		1.953125
6321		-3.906250
6322		1.953125
6323		-1.953125
6324		1.953125
6325		-1.953125
6326		1.953125
6327		-1.953125
6328		3.906250
6329		0.000000
6330		1.953125
6331		0.000000
6332		3.906250
6333		0.000000
6334		3.906250
6335		1.953125
6336		3.906250
6337		0.000000
6338		5.859375
6339		0.000000
6340		7.812500
6341		0.000000
6342		7.812500
6343		1.953125
6344		5.859375
6345		1.953125
6346		7.812500
6347		1.953125
6348		9.765625
6349		3.906250
6350		7.812500
6351		5.859375
6352		7.812500
6353		3.906250
6354		9.765625
6355		3.906250
6356		11.718750
6357		3.906250
6358		11.718750
6359		5.859375
6360		9.765625
6361		5.859375
6362		13.671875
6363		5.859375
6364		13.671875
6365		3.906250
6366		13.671875
6367		9.765625
6368		11.718750
6369		9.765625
6370		11.718750
6371		7.812500
6372		13.671875
6373		7.812500
6374		15.625000
6375		9.765625
6376		15.625000
6377		11.718750
6378		13.671875
6379		9.765625
6380		17.578125
6381		9.765625
6382		17.578125
6383		13.671875
6384		15.625000
6385		13.671875
6386		15.625000
6387		11.718750
6388		17.578125
6389		9.765625
6390		19.531250
6391		13.671875
6392		17.578125
6393		13.671875
6394		17.578125
6395		11.718750
6396		21.484375
6397		11.718750
6398		21.484375
6399		11.718750
6400		21.484375
6401		15.625000
6402		17.578125
6403		13.671875
6404		21.484375
6405		13.671875
6406		21.484375
6407		15.625000
6408		19.531250
6409		17.578125
6410		19.531250
6411		15.625000
6412		21.484375
6413		13.671875
6414		23.437500
6415		13.671875
6416		23.437500
6417		17.578125
6418		21.484375
6419		17.578125
6420		21.484375
6421		17.578125
6422		23.437500
6423		15.625000
6424		25.390625
6425		17.578125
6426		23.437500
6427		19.531250
6428		21.484375
6429		15.625000
6430		25.390625
6431		17.578125
6432		25.390625
6433		15.625000
6434		25.390625
6435		19.531250
6436		21.484375
6437		19.531250
6438		23.437500
6439		17.578125
6440		25.390625
6441		17.578125
6442		23.437500
6443		19.531250
6444		21.484375
6445		17.578125
6446		25.390625
6447		17.578125
6448		27.343750
6449		17.578125
6450		25.390625
6451		19.531250
6452		23.437500
6453		21.484375
6454		23.437500
6455		17.578125
6456		25.390625
6457		17.578125
6458		25.390625
6459		19.531250
6460		23.437500
6461		19.531250
6462		23.437500
6463		15.625000
6464		25.390625
6465		17.578125
6466		25.390625
6467		19.531250
6468		21.484375
6469		19.531250
6470		21.484375
6471		17.578125
6472		23.437500
6473		15.625000
6474		25.390625
6475		17.578125
6476		23.437500
6477		19.531250
6478		21.484375
6479		15.625000
6480		25.390625
6481		15.625000
6482		25.390625
6483		17.578125
6484		21.484375
6485		17.578125
6486		21.484375
6487		17.578125
6488		21.484375
6489		15.625000
6490		23.437500
6491		15.625000
6492		23.437500
6493		17.578125
6494		19.531250
6495		15.625000
6496		21.484375
6497		13.671875
6498		23.437500
6499		13.671875
6500		21.484375
6501		15.625000
6502		17.578125
6503		15.625000
6504		17.578125
6505		13.671875
6506		19.531250
6507		11.718750
6508		21.484375
6509		11.718750
6510		19.531250
6511		13.671875
6512		17.578125
6513		11.718750
6514		19.531250
6515		13.671875
6516		15.625000
6517		11.718750
6518		19.531250
6519		13.671875
6520		15.625000
6521		11.718750
6522		15.625000
6523		9.765625
6524		17.578125
6525		9.765625
6526		15.625000
6527		11.718750
6528		13.671875
6529		7.812500
6530		15.625000
6531		5.859375
6532		15.625000
6533		7.812500
6534		15.625000
6535		9.765625
6536		11.718750
6537		9.765625
6538		11.718750
6539		5.859375
6540		13.671875
6541		5.859375
6542		13.671875
6543		5.859375
6544		9.765625
6545		5.859375
6546		9.765625
6547		3.906250
6548		9.765625
6549		1.953125
6550		11.718750
6551		5.859375
6552		7.812500
6553		5.859375
6554		7.812500
6555		3.906250
6556		7.812500
6557		0.000000
6558		7.812500
6559		0.000000
6560		7.812500
6561		1.953125
6562		5.859375
6563		0.000000
6564		5.859375
6565		1.953125
6566		3.906250
6567		1.953125
6568		3.906250
6569		0.000000
6570		1.953125
6571		0.000000
6572		1.953125
6573		0.000000
6574		1.953125
6575		-3.906250
6576		3.906250
6577		-1.953125
6578		1.953125
6579		-3.906250
6580		3.906250
6581		-3.906250
6582		0.000000
6583		-3.906250
6584		0.000000
6585		-3.906250
6586		-1.953125
6587		-3.906250
6588		-1.953125
6589		-5.859375
6590		-1.953125
6591		-5.859375
6592		-1.953125
6593		-5.859375
6594		-3.906250
6595		-5.859375
6596		-3.906250
6597		-5.859375
6598		-3.906250
6599		-7.812500
6600		-3.906250
6601		-7.812500
6602		-3.906250
6603		-7.812500
6604		-5.859375
6605		-9.765625
6606		-5.859375
6607		-9.765625
6608		-5.859375
6609		-9.765625
6610		-7.812500
6611		-9.765625
6612		-5.859375
6613		-9.765625
6614		-7.812500
6615		-9.765625
6616		-7.812500
6617		-11.718750
6618		-7.812500
6619		-11.718750
6620		-9.765625
6621		-11.718750
6622		-9.765625
6623		-13.671875
6624		-7.812500
6625		-13.671875
6626		-7.812500
6627		-15.625000
6628		-9.765625
6629		-15.625000
6630		-9.765625
6631		-15.625000
6632		-9.765625
6633		-15.625000
6634		-9.765625
6635		-15.625000
6636		-11.718750
6637		-15.625000
6638		-13.671875
6639		-15.625000
6640		-11.718750
6641		-17.578125
6642		-11.718750
6643		-17.578125
6644		-11.718750
6645		-17.578125
6646		-11.718750
6647		-17.578125
6648		-11.718750
6649		-17.578125
6650		-11.718750
6651		-17.578125
6652		-13.671875
6653		-17.578125
6654		-15.625000
6655		-17.578125
6656		-13.671875
6657		-19.531250
6658		-13.671875
6659		-19.531250
6660		-13.671875
6661		-19.531250
6662		-13.671875
6663		-19.531250
6664		-13.671875
6665		-19.531250
6666		-13.671875
6667		-19.531250
6668		-13.671875
6669		-19.531250
6670		-15.625000
6671		-19.531250
6672		-15.625000
6673		-19.531250
6674		-15.625000
6675		-21.484375
6676		-15.625000
6677		-19.531250
6678		-13.671875
6679		-21.484375
6680		-13.671875
6681		-19.531250
6682		-15.625000
6683		-19.531250
6684		-15.625000
6685		-19.531250
6686		-15.625000
6687		-19.531250
6688		-17.578125
6689		-19.531250
6690		-15.625000
6691		-19.531250
6692		-15.625000
6693		-19.531250
6694		-15.625000
6695		-21.484375
6696		-13.671875
6697		-19.531250
6698		-15.625000
6699		-19.531250
6700		-15.625000
6701		-19.531250
6702		-15.625000
6703		-19.531250
6704		-15.625000
6705		-17.578125
6706		-15.625000
6707		-19.531250
6708		-13.671875
6709		-19.531250
6710		-15.625000
6711		-19.531250
6712		-13.671875
6713		-19.531250
6714		-13.671875
6715		-19.531250
6716		-13.671875
6717		-17.578125
6718		-13.671875
6719		-17.578125
6720		-13.671875
6721		-17.578125
6722		-13.671875
6723		-17.578125
6724		-13.671875
6725		-17.578125
6726		-11.718750
6727		-17.578125
6728		-11.718750
6729		-17.578125
6730		-11.718750
6731		-17.578125
6732		-13.671875
6733		-15.625000
6734		-11.718750
6735		-15.625000
6736		-11.718750
6737		-15.625000
6738		-11.718750
6739		-15.625000
6740		-11.718750
6741		-13.671875
6742		-11.718750
6743		-13.671875
6744		-11.718750
6745		-15.625000
6746		-7.812500
6747		-13.671875
6748		-9.765625
6749		-13.671875
6750		-9.765625
6751		-11.718750
6752		-7.812500
6753		-11.718750
6754		-9.765625
6755		-11.718750
6756		-9.765625
6757		-11.718750
6758		-7.812500
6759		-11.718750
6760		-7.812500
6761		-9.765625
6762		-7.812500
6763		-11.718750
6764		-5.859375
6765		-9.765625
6766		-5.859375
6767		-9.765625
6768		-5.859375
6769		-9.765625
6770		-5.859375
6771		-7.812500
6772		-5.859375
6773		-7.812500
6774		-3.906250
6775		-7.812500
6776		-3.906250
6777		-7.812500
6778		-3.906250
6779		-7.812500
6780		-1.953125
6781		-5.859375
6782		-1.953125
6783		-5.859375
6784		-1.953125
6785		-5.859375
6786		-1.953125
6787		-3.906250
6788		-1.953125
6789		-3.906250
6790		-1.953125
6791		-3.906250
6792		0.000000
6793		-3.906250
6794		0.000000
6795		-3.906250
6796		0.000000
6797		-3.906250
6798		1.953125
6799		-1.953125
6800		1.953125
6801		-1.953125
6802		1.953125
6803		-1.953125
6804		1.953125
6805		0.000000
6806		3.906250
6807		0.000000
6808		3.906250
6809		0.000000
6810		3.906250
6811		1.953125
6812		3.906250
6813		0.000000
6814		5.859375
6815		1.953125
6816		5.859375
6817		1.953125
6818		5.859375
6819		3.906250
6820		5.859375
6821		3.906250
6822		7.812500
6823		3.906250
6824		9.765625
6825		3.906250
6826		7.812500
6827		5.859375
6828		9.765625
6829		3.906250
6830		11.718750
6831		7.812500
6832		9.765625
6833		5.859375
6834		9.765625
6835		7.812500
6836		11.718750
6837		7.812500
6838		9.765625
6839		7.812500
6840		11.718750
6841		7.812500
6842		11.718750
6843		9.765625
6844		11.718750
6845		9.765625
6846		13.671875
6847		9.765625
6848		13.671875
6849		9.765625
6850		13.671875
6851		9.765625
6852		13.671875
6853		9.765625
6854		15.625000
6855		11.718750
6856		13.671875
6857		11.718750
6858		15.625000
6859		11.718750
6860		15.625000
6861		13.671875
6862		17.578125
6863		13.671875
6864		17.578125
6865		13.671875
6866		17.578125
6867		13.671875
6868		17.578125
6869		13.671875
6870		19.531250
6871		15.625000
6872		17.578125
6873		15.625000
6874		17.578125
6875		15.625000
6876		19.531250
6877		15.625000
6878		19.531250
6879		15.625000
6880		19.531250
6881		15.625000
6882		19.531250
6883		15.625000
6884		19.531250
6885		15.625000
6886		19.531250
6887		17.578125
6888		21.484375
6889		17.578125
6890		19.531250
6891		15.625000
6892		21.484375
6893		17.578125
6894		21.484375
6895		17.578125
6896		21.484375
6897		17.578125
6898		21.484375
6899		17.578125
6900		21.484375
6901		17.578125
6902		21.484375
6903		17.578125
6904		21.484375
6905		19.531250
6906		21.484375
6907		17.578125
6908		23.437500
6909		17.578125
6910		23.437500
6911		19.531250
6912		23.437500
6913		19.531250
6914		23.437500
6915		19.531250
6916		21.484375
6917		19.531250
6918		23.437500
6919		17.578125
6920		23.437500
6921		19.531250
6922		21.484375
6923		19.531250
6924		21.484375
6925		19.531250
6926		23.437500
6927		19.531250
6928		23.437500
6929		19.531250
6930		23.437500
6931		19.531250
6932		23.437500
6933		19.531250
6934		23.437500
6935		19.531250
6936		23.437500
6937		17.578125
6938		23.437500
6939		19.531250
6940		21.484375
6941		17.578125
6942		21.484375
6943		17.578125
6944		21.484375
6945		17.578125
6946		21.484375
6947		17.578125
6948		21.484375
6949		17.578125
6950		21.484375
6951		17.578125
6952		21.484375
6953		17.578125
6954		21.484375
6955		17.578125
6956		19.531250
6957		17.578125
6958		19.531250
6959		15.625000
6960		21.484375
6961		15.625000
6962		19.531250
6963		15.625000
6964		19.531250
6965		15.625000
6966		21.484375
6967		15.625000
6968		19.531250
6969		15.625000
6970		19.531250
6971		15.625000
6972		19.531250
6973		15.625000
6974		19.531250
6975		13.671875
6976		19.531250
6977		13.671875
6978		17.578125
6979		13.671875
6980		17.578125
6981		13.671875
6982		17.578125
6983		13.671875
6984		17.578125
6985		11.718750
6986		17.578125
6987		11.718750
6988		15.625000
6989		13.671875
6990		15.625000
6991		11.718750
6992		15.625000
6993		11.718750
6994		15.625000
6995		9.765625
6996		13.671875
6997		11.718750
6998		13.671875
6999		9.765625
7000		13.671875
7001		9.765625
7002		13.671875
7003		7.812500
7004		13.671875
7005		9.765625
7006		11.718750
7007		7.812500
7008		11.718750
7009		7.812500
7010		9.765625
7011		7.812500
7012		9.765625
7013		5.859375
7014		9.765625
7015		5.859375
7016		9.765625
7017		5.859375
7018		9.765625
7019		5.859375
7020		7.812500
7021		5.859375
7022		9.765625
7023		5.859375
7024		7.812500
7025		3.906250
7026		7.812500
7027		3.906250
7028		5.859375
7029		1.953125
7030		5.859375
7031		1.953125
7032		5.859375
7033		1.953125
7034		5.859375
7035		1.953125
7036		3.906250
7037		0.000000
7038		3.906250
7039		0.000000
7040		3.906250
7041		0.000000
7042		3.906250
7043		-1.953125
7044		3.906250
7045		-1.953125
7046		1.953125
7047		-1.953125
7048		1.953125
7049		-1.953125
7050		1.953125
7051		-3.906250
7052		0.000000
7053		-3.906250
7054		0.000000
7055		-3.906250
7056		0.000000
7057		-3.906250
7058		-1.953125
7059		-5.859375
7060		0.000000
7061		-5.859375
7062		-1.953125
7063		-5.859375
7064		-1.953125
7065		-7.812500
7066		-3.906250
7067		-7.812500
7068		-3.906250
7069		-7.812500
7070		-3.906250
7071		-9.765625
7072		-3.906250
7073		-7.812500
7074		-5.859375
7075		-7.812500
7076		-5.859375
7077		-9.765625
7078		-5.859375
7079		-9.765625
7080		-5.859375
7081		-9.765625
7082		-5.859375
7083		-11.718750
7084		-7.812500
7085		-11.718750
7086		-7.812500
7087		-13.671875
7088		-7.812500
7089		-11.718750
7090		-9.765625
7091		-11.718750
7092		-9.765625
7093		-13.671875
7094		-9.765625
7095		-13.671875
7096		-9.765625
7097		-13.671875
7098		-9.765625
7099		-13.671875
7100		-9.765625
7101		-13.671875
7102		-9.765625
7103		-15.625000
7104		-11.718750
7105		-15.625000
7106		-11.718750
7107		-15.625000
7108		-11.718750
7109		-17.578125
7110		-11.718750
7111		-15.625000
7112		-11.718750
7113		-15.625000
7114		-13.671875
7115		-15.625000
7116		-13.671875
7117		-17.578125
7118		-13.671875
7119		-17.578125
7120		-13.671875
7121		-17.578125
7122		-13.671875
7123		-17.578125
7124		-15.625000
7125		-17.578125
7126		-15.625000
7127		-17.578125
7128		-13.671875
7129		-17.578125
7130		-15.625000
7131		-17.578125
7132		-15.625000
7133		-19.531250
7134		-13.671875
7135		-19.531250
7136		-15.625000
7137		-19.531250
7138		-15.625000
7139		-19.531250
7140		-15.625000
7141		-17.578125
7142		-15.625000
7143		-19.531250
7144		-15.625000
7145		-19.531250
7146		-15.625000
7147		-19.531250
7148		-15.625000
7149		-19.531250
7150		-17.578125
7151		-19.531250
7152		-15.625000
7153		-19.531250
7154		-17.578125
7155		-19.531250
7156		-15.625000
7157		-19.531250
7158		-17.578125
7159		-19.531250
7160		-17.578125
7161		-21.484375
7162		-15.625000
7163		-19.531250
7164		-17.578125
7165		-19.531250
7166		-15.625000
7167		-19.531250
7168		-15.625000
7169		-19.531250
7170		-15.625000
7171		-19.531250
7172		-15.625000
7173		-19.531250
7174		-15.625000
7175		-19.531250
7176		-15.625000
7177		-19.531250
7178		-15.625000
7179		-19.531250
7180		-15.625000
7181		-19.531250
7182		-15.625000
7183		-19.531250
7184		-15.625000
7185		-17.578125
7186		-15.625000
7187		-17.578125
7188		-15.625000
7189		-17.578125
7190		-15.625000
7191		-17.578125
7192		-15.625000
7193		-19.531250
7194		-13.671875
7195		-17.578125
7196		-13.671875
7197		-17.578125
7198		-13.671875
7199		-17.578125
7200		-13.671875
7201		-17.578125
7202		-13.671875
7203		-15.625000
7204		-11.718750
7205		-15.625000
7206		-11.718750
7207		-15.625000
7208		-13.671875
7209		-15.625000
7210		-11.718750
7211		-15.625000
7212		-11.718750
7213		-15.625000
7214		-11.718750
7215		-13.671875
7216		-9.765625
7217		-13.671875
7218		-9.765625
7219		-13.671875
7220		-9.765625
7221		-13.671875
7222		-9.765625
7223		-13.671875
7224		-7.812500
7225		-11.718750
7226		-9.765625
7227		-11.718750
7228		-7.812500
7229		-11.718750
7230		-7.812500
7231		-11.718750
7232		-7.812500
7233		-11.718750
7234		-7.812500
7235		-9.765625
7236		-7.812500
7237		-9.765625
7238		-5.859375
7239		-9.765625
7240		-5.859375
7241		-7.812500
7242		-5.859375
7243		-7.812500
7244		-5.859375
7245		-9.765625
7246		-5.859375
7247		-7.812500
7248		-3.906250
7249		-7.812500
7250		-3.906250
7251		-5.859375
7252		-3.906250
7253		-5.859375
7254		-1.953125
7255		-5.859375
7256		-1.953125
7257		-5.859375
7258		-1.953125
7259		-3.906250
7260		-1.953125
7261		-3.906250
7262		0.000000
7263		-3.906250
7264		0.000000
7265		-3.906250
7266		0.000000
7267		-3.906250
7268		0.000000
7269		-1.953125
7270		1.953125
7271		-1.953125
7272		1.953125
7273		-1.953125
7274		1.953125
7275		0.000000
7276		1.953125
7277		0.000000
7278		3.906250
7279		0.000000
7280		3.906250
7281		0.000000
7282		3.906250
7283		0.000000
7284		3.906250
7285		1.953125
7286		3.906250
7287		1.953125
7288		5.859375
7289		1.953125
7290		7.812500
7291		3.906250
7292		5.859375
7293		3.906250
7294		7.812500
7295		3.906250
7296		7.812500
7297		3.906250
7298		7.812500
7299		5.859375
7300		9.765625
7301		5.859375
7302		9.765625
7303		5.859375
7304		9.765625
7305		5.859375
7306		9.765625
7307		5.859375
7308		11.718750
7309		7.812500
7310		9.765625
7311		7.812500
7312		11.718750
7313		7.812500
7314		11.718750
7315		9.765625
7316		11.718750
7317		9.765625
7318		11.718750
7319		9.765625
7320		13.671875
7321		9.765625
7322		13.671875
7323		9.765625
7324		13.671875
7325		11.718750
7326		13.671875
7327		11.718750
7328		13.671875
7329		11.718750
7330		15.625000
7331		11.718750
7332		15.625000
7333		13.671875
7334		15.625000
7335		13.671875
7336		15.625000
7337		13.671875
7338		17.578125
7339		13.671875
7340		17.578125
7341		13.671875
7342		17.578125
7343		15.625000
7344		17.578125
7345		13.671875
7346		19.531250
7347		15.625000
7348		19.531250
7349		15.625000
7350		19.531250
7351		15.625000
7352		19.531250
7353		15.625000
7354		19.531250
7355		15.625000
7356		19.531250
7357		15.625000
7358		21.484375
7359		17.578125
7360		19.531250
7361		17.578125
7362		19.531250
7363		17.578125
7364		21.484375
7365		17.578125
7366		21.484375
7367		17.578125
7368		21.484375
7369		17.578125
7370		21.484375
7371		17.578125
7372		21.484375
7373		17.578125
7374		23.437500
7375		19.531250
7376		21.484375
7377		19.531250
7378		21.484375
7379		17.578125
7380		21.484375
7381		19.531250
7382		21.484375
7383		17.578125
7384		21.484375
7385		19.531250
7386		21.484375
7387		19.531250
7388		21.484375
7389		19.531250
7390		21.484375
7391		19.531250
7392		21.484375
7393		19.531250
7394		21.484375
7395		17.578125
7396		23.437500
7397		19.531250
7398		21.484375
7399		19.531250
7400		21.484375
7401		19.531250
7402		21.484375
7403		19.531250
7404		23.437500
7405		19.531250
7406		21.484375
7407		17.578125
7408		21.484375
7409		19.531250
7410		21.484375
7411		17.578125
7412		21.484375
7413		17.578125
7414		23.437500
7415		17.578125
7416		21.484375
7417		17.578125
7418		21.484375
7419		17.578125
7420		21.484375
7421		17.578125
7422		21.484375
7423		17.578125
7424		21.484375
7425		17.578125
7426		21.484375
7427		17.578125
7428		19.531250
7429		17.578125
7430		19.531250
7431		15.625000
7432		21.484375
7433		15.625000
7434		19.531250
7435		15.625000
7436		19.531250
7437		15.625000
7438		19.531250
7439		15.625000
7440		19.531250
7441		13.671875
7442		19.531250
7443		15.625000
7444		17.578125
7445		13.671875
7446		19.531250
7447		15.625000
7448		17.578125
7449		13.671875
7450		17.578125
7451		13.671875
7452		17.578125
7453		13.671875
7454		17.578125
7455		13.671875
7456		17.578125
7457		13.671875
7458		17.578125
7459		13.671875
7460		15.625000
7461		11.718750
7462		15.625000
7463		11.718750
7464		15.625000
7465		11.718750
7466		13.671875
7467		11.718750
7468		13.671875
7469		11.718750
7470		13.671875
7471		9.765625
7472		13.671875
7473		9.765625
7474		11.718750
7475		7.812500
7476		13.671875
7477		9.765625
7478		11.718750
7479		7.812500
7480		11.718750
7481		7.812500
7482		11.718750
7483		7.812500
7484		9.765625
7485		7.812500
7486		9.765625
7487		5.859375
7488		9.765625
7489		5.859375
7490		9.765625
7491		3.906250
7492		9.765625
7493		5.859375
7494		7.812500
7495		3.906250
7496		7.812500
7497		3.906250
7498		7.812500
7499		3.906250
7500		7.812500
7501		1.953125
7502		5.859375
7503		1.953125
7504		5.859375
7505		1.953125
7506		5.859375
7507		1.953125
7508		3.906250
7509		1.953125
7510		3.906250
7511		0.000000
7512		3.906250
7513		-1.953125
7514		3.906250
7515		-1.953125
7516		1.953125
7517		-1.953125
7518		1.953125
7519		-1.953125
7520		1.953125
7521		-1.953125
7522		1.953125
7523		-3.906250
7524		0.000000
7525		-3.906250
7526		0.000000
7527		-3.906250
7528		-1.953125
7529		-5.859375
7530		0.000000
7531		-5.859375
7532		-1.953125
7533		-5.859375
7534		-1.953125
7535		-5.859375
7536		-3.906250
7537		-5.859375
7538		-3.906250
7539		-7.812500
7540		-3.906250
7541		-7.812500
7542		-3.906250
7543		-7.812500
7544		-5.859375
7545		-7.812500
7546		-5.859375
7547		-9.765625
7548		-3.906250
7549		-9.765625
7550		-5.859375
7551		-9.765625
7552		-5.859375
7553		-11.718750
7554		-7.812500
7555		-11.718750
7556		-7.812500
7557		-11.718750
7558		-7.812500
7559		-11.718750
7560		-7.812500
7561		-11.718750
7562		-9.765625
7563		-13.671875
7564		-7.812500
7565		-13.671875
7566		-9.765625
7567		-13.671875
7568		-9.765625
7569		-13.671875
7570		-11.718750
7571		-13.671875
7572		-9.765625
7573		-15.625000
7574		-11.718750
7575		-15.625000
7576		-11.718750
7577		-15.625000
7578		-11.718750
7579		-15.625000
7580		-13.671875
7581		-15.625000
7582		-11.718750
7583		-17.578125
7584		-11.718750
7585		-17.578125
7586		-13.671875
7587		-17.578125
7588		-13.671875
7589		-17.578125
7590		-13.671875
7591		-17.578125
7592		-13.671875
7593		-17.578125
7594		-13.671875
7595		-17.578125
7596		-15.625000
7597		-19.531250
7598		-13.671875
7599		-17.578125
7600		-15.625000
7601		-19.531250
7602		-13.671875
7603		-19.531250
7604		-15.625000
7605		-19.531250
7606		-15.625000
7607		-19.531250
7608		-15.625000
7609		-19.531250
7610		-15.625000
7611		-17.578125
7612		-17.578125
7613		-19.531250
7614		-15.625000
7615		-19.531250
7616		-15.625000
7617		-19.531250
7618		-15.625000
7619		-19.531250
7620		-17.578125
7621		-19.531250
7622		-15.625000
7623		-19.531250
7624		-15.625000
7625		-21.484375
7626		-15.625000
7627		-19.531250
7628		-17.578125
7629		-19.531250
7630		-17.578125
7631		-21.484375
7632		-15.625000
7633		-19.531250
7634		-15.625000
7635		-19.531250
7636		-15.625000
7637		-19.531250
7638		-15.625000
7639		-19.531250
7640		-15.625000
7641		-19.531250
7642		-15.625000
7643		-19.531250
7644		-15.625000
7645		-19.531250
7646		-17.578125
7647		-19.531250
7648		-15.625000
7649		-19.531250
7650		-15.625000
7651		-19.531250
7652		-15.625000
7653		-19.531250
7654		-15.625000
7655		-19.531250
7656		-15.625000
7657		-17.578125
7658		-15.625000
7659		-17.578125
7660		-13.671875
7661		-17.578125
7662		-15.625000
7663		-17.578125
7664		-15.625000
7665		-17.578125
7666		-13.671875
7667		-17.578125
7668		-13.671875
7669		-17.578125
7670		-13.671875
7671		-17.578125
7672		-13.671875
7673		-17.578125
7674		-13.671875
7675		-15.625000
7676		-13.671875
7677		-17.578125
7678		-11.718750
7679		-15.625000
7680		-11.718750
7681		-15.625000
7682		-11.718750
7683		-15.625000
7684		-11.718750
7685		-15.625000
7686		-11.718750
7687		-13.671875
7688		-11.718750
7689		-13.671875
7690		-9.765625
7691		-13.671875
7692		-9.765625
7693		-15.625000
7694		-9.765625
7695		-11.718750
7696		-9.765625
7697		-11.718750
7698		-9.765625
7699		-11.718750
7700		-7.812500
7701		-11.718750
7702		-7.812500
7703		-11.718750
7704		-7.812500
7705		-11.718750
7706		-7.812500
7707		-11.718750
7708		-7.812500
7709		-9.765625
7710		-5.859375
7711		-9.765625
7712		-5.859375
7713		-7.812500
7714		-5.859375
7715		-9.765625
7716		-3.906250
7717		-7.812500
7718		-3.906250
7719		-7.812500
7720		-3.906250
7721		-7.812500
7722		-3.906250
7723		-7.812500
7724		-1.953125
7725		-7.812500
7726		-3.906250
7727		-5.859375
7728		-1.953125
7729		-5.859375
7730		-1.953125
7731		-5.859375
7732		0.000000
7733		-3.906250
7734		0.000000
7735		-3.906250
7736		0.000000
7737		-3.906250
7738		0.000000
7739		-3.906250
7740		0.000000
7741		-1.953125
7742		1.953125
7743		-1.953125
7744		1.953125
7745		-1.953125
7746		1.953125
7747		0.000000
7748		1.953125
7749		0.000000
7750		3.906250
7751		0.000000
7752		3.906250
7753		0.000000
7754		3.906250
7755		1.953125
7756		5.859375
7757		1.953125
7758		5.859375
7759		1.953125
7760		5.859375
7761		1.953125
7762		5.859375
7763		3.906250
7764		5.859375
7765		3.906250
7766		7.812500
7767		3.906250
7768		7.812500
7769		3.906250
7770		7.812500
7771		5.859375
7772		7.812500
7773		5.859375
7774		9.765625
7775		5.859375
7776		9.765625
7777		5.859375
7778		11.718750
7779		7.812500
7780		9.765625
7781		7.812500
7782		9.765625
7783		7.812500
7784		11.718750
7785		7.812500
7786		11.718750
7787		9.765625
7788		11.718750
7789		9.765625
7790		13.671875
7791		9.765625
7792		13.671875
7793		9.765625
7794		13.671875
7795		11.718750
7796		15.625000
7797		11.718750
7798		13.671875
7799		9.765625
7800		15.625000
7801		11.718750
7802		15.625000
7803		11.718750
7804		15.625000
7805		11.718750
7806		15.625000
7807		11.718750
7808		17.578125
7809		13.671875
7810		17.578125
7811		13.671875
7812		17.578125
7813		15.625000
7814		17.578125
7815		13.671875
7816		17.578125
7817		13.671875
7818		19.531250
7819		13.671875
7820		19.531250
7821		15.625000
7822		19.531250
7823		15.625000
7824		19.531250
7825		15.625000
7826		19.531250
7827		15.625000
7828		19.531250
7829		15.625000
7830		19.531250
7831		17.578125
7832		19.531250
7833		17.578125
7834		21.484375
7835		17.578125
7836		21.484375
7837		17.578125
7838		21.484375
7839		17.578125
7840		21.484375
7841		17.578125
7842		21.484375
7843		17.578125
7844		21.484375
7845		17.578125
7846		21.484375
7847		19.531250
7848		21.484375
7849		17.578125
7850		21.484375
7851		17.578125
7852		21.484375
7853		19.531250
7854		23.437500
7855		17.578125
7856		21.484375
7857		19.531250
7858		21.484375
7859		19.531250
7860		21.484375
7861		19.531250
7862		23.437500
7863		19.531250
7864		21.484375
7865		19.531250
7866		21.484375
7867		17.578125
7868		23.437500
7869		19.531250
7870		23.437500
7871		19.531250
7872		23.437500
7873		19.531250
7874		23.437500
7875		19.531250
7876		21.484375
7877		17.578125
7878		21.484375
7879		19.531250
7880		21.484375
7881		19.531250
7882		21.484375
7883		17.578125
7884		23.437500
7885		19.531250
7886		21.484375
7887		17.578125
7888		21.484375
7889		17.578125
7890		21.484375
7891		17.578125
7892		21.484375
7893		17.578125
7894		21.484375
7895		17.578125
7896		21.484375
7897		17.578125
7898		19.531250
7899		17.578125
7900		21.484375
7901		17.578125
7902		19.531250
7903		17.578125
7904		19.531250
7905		17.578125
7906		19.531250
7907		15.625000
7908		19.531250
7909		15.625000
7910		19.531250
7911		15.625000
7912		19.531250
7913		15.625000
7914		17.578125
7915		15.625000
7916		17.578125
7917		15.625000
7918		19.531250
7919		15.625000
7920		17.578125
7921		13.671875
7922		17.578125
7923		13.671875
7924		17.578125
7925		13.671875
7926		17.578125
7927		13.671875
7928		17.578125
7929		13.671875
7930		17.578125
7931		13.671875
7932		15.625000
7933		11.718750
7934		15.625000
7935		11.718750
7936		15.625000
7937		11.718750
7938		15.625000
7939		9.765625
7940		13.671875
7941		9.765625
7942		13.671875
7943		9.765625
7944		13.671875
7945		9.765625
7946		13.671875
7947		9.765625
7948		11.718750
7949		9.765625
7950		11.718750
7951		7.812500
7952		13.671875
7953		7.812500
7954		11.718750
7955		7.812500
7956		9.765625
7957		7.812500
7958		9.765625
7959		5.859375
7960		9.765625
7961		5.859375
7962		9.765625
7963		3.906250
7964		9.765625
7965		5.859375
7966		7.812500
7967		3.906250
7968		7.812500
7969		3.906250
7970		7.812500
7971		3.906250
7972		5.859375
7973		1.953125
7974		5.859375
7975		1.953125
7976		5.859375
7977		1.953125
7978		5.859375
7979		0.000000
7980		3.906250
7981		0.000000
7982		3.906250
7983		0.000000
7984		3.906250
7985		-1.953125
7986		1.953125
7987		-1.953125
7988		1.953125
7989		-1.953125
7990		1.953125
7991		-1.953125
7992		1.953125
7993		-1.953125
7994		0.000000
7995		-3.906250
7996		0.000000
7997		-3.906250
7998		0.000000
7999		-3.906250
8000		-1.953125
8001		-5.859375
8002		0.000000
8003		-5.859375
8004		-1.953125
8005		-5.859375
8006		-1.953125
8007		-5.859375
8008		-3.906250
8009		-5.859375
8010		-3.906250
8011		-7.812500
8012		-3.906250
8013		-7.812500
8014		-3.906250
8015		-7.812500
8016		-5.859375
8017		-9.765625
8018		-5.859375
8019		-9.765625
8020		-5.859375
8021		-9.765625
8022		-5.859375
8023		-9.765625
8024		-7.812500
8025		-9.765625
8026		-7.812500
8027		-11.718750
8028		-7.812500
8029		-13.671875
8030		-7.812500
8031		-11.718750
8032		-9.765625
8033		-11.718750
8034		-9.765625
8035		-13.671875
8036		-7.812500
8037		-13.671875
8038		-9.765625
8039		-13.671875
8040		-9.765625
8041		-13.671875
8042		-11.718750
8043		-13.671875
8044		-9.765625
8045		-15.625000
8046		-11.718750
8047		-15.625000
8048		-11.718750
8049		-15.625000
8050		-11.718750
8051		-15.625000
8052		-11.718750
8053		-15.625000
8054		-13.671875
8055		-15.625000
8056		-13.671875
8057		-17.578125
8058		-13.671875
8059		-17.578125
8060		-13.671875
8061		-17.578125
8062		-13.671875
8063		-17.578125
8064		-13.671875
8065		-17.578125
8066		-13.671875
8067		-19.531250
8068		-13.671875
8069		-19.531250
8070		-13.671875
8071		-17.578125
8072		-15.625000
8073		-17.578125
8074		-15.625000
8075		-17.578125
8076		-15.625000
8077		-19.531250
8078		-15.625000
8079		-19.531250
8080		-15.625000
8081		-17.578125
8082		-15.625000
8083		-19.531250
8084		-15.625000
8085		-19.531250
8086		-15.625000
8087		-19.531250
8088		-15.625000
8089		-19.531250
8090		-15.625000
8091		-19.531250
8092		-17.578125
8093		-19.531250
8094		-15.625000
8095		-19.531250
8096		-15.625000
8097		-19.531250
8098		-15.625000
8099		-19.531250
8100		-17.578125
8101		-19.531250
8102		-15.625000
8103		-19.531250
8104		-15.625000
8105		-19.531250
8106		-15.625000
8107		-19.531250
8108		-15.625000
8109		-19.531250
8110		-15.625000
8111		-19.531250
8112		-15.625000
8113		-19.531250
8114		-15.625000
8115		-19.531250
8116		-17.578125
8117		-19.531250
8118		-17.578125
8119		-19.531250
8120		-15.625000
8121		-19.531250
8122		-15.625000
8123		-19.531250
8124		-15.625000
8125		-19.531250
8126		-15.625000
8127		-17.578125
8128		-15.625000
8129		-19.531250
8130		-13.671875
8131		-19.531250
8132		-13.671875
8133		-17.578125
8134		-13.671875
8135		-19.531250
8136		-13.671875
8137		-17.578125
8138		-13.671875
8139		-17.578125
8140		-13.671875
8141		-17.578125
8142		-13.671875
8143		-17.578125
8144		-13.671875
8145		-17.578125
8146		-13.671875
8147		-17.578125
8148		-11.718750
8149		-15.625000
8150		-13.671875
8151		-15.625000
8152		-11.718750
8153		-15.625000
8154		-11.718750
8155		-15.625000
8156		-11.718750
8157		-13.671875
8158		-11.718750
8159		-13.671875
8160		-9.765625
8161		-13.671875
8162		-9.765625
8163		-13.671875
8164		-9.765625
8165		-11.718750
8166		-9.765625
8167		-11.718750
8168		-9.765625
8169		-13.671875
8170		-7.812500
8171		-11.718750
8172		-7.812500
8173		-13.671875
8174		-7.812500
8175		-11.718750
8176		-7.812500
8177		-9.765625
8178		-7.812500
8179		-9.765625
8180		-5.859375
8181		-11.718750
8182		-5.859375
8183		-9.765625
8184		-5.859375
8185		-9.765625
8186		-5.859375
8187		-7.812500
8188		-5.859375
8189		-7.812500
8190		-3.906250
8191		-7.812500
8192		-3.906250
8193		-7.812500
8194		-3.906250
8195		-7.812500
8196		-3.906250
8197		-7.812500
8198		-1.953125
8199		-5.859375
8200		-1.953125
8201		-3.906250
8202		-1.953125
8203		-5.859375
8204		0.000000
8205		-3.906250
8206		0.000000
8207		-3.906250
8208		0.000000
8209		-3.906250
8210		0.000000
8211		-1.953125
8212		1.953125
8213		-1.953125
8214		1.953125
8215		-1.953125
8216		1.953125
8217		0.000000
8218		1.953125
8219		-1.953125
8220		3.906250
8221		0.000000
8222		3.906250
8223		0.000000
8224		3.906250
8225		0.000000
8226		3.906250
8227		1.953125
8228		3.906250
8229		1.953125
8230		5.859375
8231		1.953125
8232		5.859375
8233		3.906250
8234		5.859375
8235		3.906250
8236		7.812500
8237		3.906250
8238		7.812500
8239		3.906250
8240		7.812500
8241		5.859375
8242		7.812500
8243		5.859375
8244		7.812500
8245		5.859375
8246		9.765625
8247		5.859375
8248		9.765625
8249		7.812500
8250		9.765625
8251		7.812500
8252		9.765625
8253		7.812500
8254		11.718750
8255		7.812500
8256		11.718750
8257		7.812500
8258		11.718750
8259		9.765625
8260		11.718750
8261		9.765625
8262		13.671875
8263		9.765625
8264		13.671875
8265		9.765625
8266		15.625000
8267		9.765625
8268		13.671875
8269		11.718750
8270		13.671875
8271		11.718750
8272		15.625000
8273		11.718750
8274		15.625000
8275		11.718750
8276		15.625000
8277		11.718750
8278		17.578125
8279		13.671875
8280		17.578125
8281		13.671875
8282		17.578125
8283		13.671875
8284		17.578125
8285		15.625000
8286		17.578125
8287		13.671875
8288		19.531250
8289		15.625000
8290		19.531250
8291		15.625000
8292		19.531250
8293		15.625000
8294		19.531250
8295		15.625000
8296		19.531250
8297		15.625000
8298		19.531250
8299		15.625000
8300		19.531250
8301		17.578125
8302		19.531250
8303		15.625000
8304		21.484375
8305		17.578125
8306		19.531250
8307		17.578125
8308		19.531250
8309		17.578125
8310		19.531250
8311		17.578125
8312		21.484375
8313		17.578125
8314		21.484375
8315		15.625000
8316		21.484375
8317		19.531250
8318		21.484375
8319		19.531250
8320		21.484375
8321		17.578125
8322		23.437500
8323		17.578125
8324		21.484375
8325		17.578125
8326		21.484375
8327		19.531250
8328		21.484375
8329		19.531250
8330		21.484375
8331		17.578125
8332		23.437500
8333		19.531250
8334		21.484375
8335		19.531250
8336		21.484375
8337		19.531250
8338		21.484375
8339		19.531250
8340		21.484375
8341		17.578125
8342		21.484375
8343		17.578125
8344		21.484375
8345		19.531250
8346		21.484375
8347		19.531250
8348		21.484375
8349		17.578125
8350		23.437500
8351		19.531250
8352		21.484375
8353		17.578125
8354		21.484375
8355		17.578125
8356		21.484375
8357		17.578125
8358		21.484375
8359		17.578125
8360		21.484375
8361		17.578125
8362		21.484375
8363		17.578125
8364		21.484375
8365		17.578125
8366		21.484375
8367		17.578125
8368		21.484375
8369		17.578125
8370		19.531250
8371		15.625000
8372		21.484375
8373		17.578125
8374		19.531250
8375		15.625000
8376		19.531250
8377		17.578125
8378		19.531250
8379		15.625000
8380		19.531250
8381		15.625000
8382		19.531250
8383		15.625000
8384		19.531250
8385		15.625000
8386		17.578125
8387		13.671875
8388		19.531250
8389		15.625000
8390		17.578125
8391		15.625000
8392		17.578125
8393		15.625000
8394		17.578125
8395		13.671875
8396		17.578125
8397		13.671875
8398		17.578125
8399		11.718750
8400		17.578125
8401		13.671875
8402		15.625000
8403		11.718750
8404		15.625000
8405		11.718750
8406		15.625000
8407		11.718750
8408		15.625000
8409		9.765625
8410		13.671875
8411		9.765625
8412		13.671875
8413		9.765625
8414		13.671875
8415		9.765625
8416		13.671875
8417		9.765625
8418		13.671875
8419		9.765625
8420		11.718750
8421		7.812500
8422		11.718750
8423		7.812500
8424		11.718750
8425		7.812500
8426		11.718750
8427		5.859375
8428		9.765625
8429		5.859375
8430		9.765625
8431		5.859375
8432		9.765625
8433		5.859375
8434		7.812500
8435		5.859375
8436		7.812500
8437		1.953125
8438		7.812500
8439		3.906250
8440		7.812500
8441		3.906250
8442		7.812500
8443		3.906250
8444		5.859375
8445		1.953125
8446		5.859375
8447		1.953125
8448		3.906250
8449		0.000000
8450		5.859375
8451		0.000000
8452		3.906250
8453		0.000000
8454		3.906250
8455		-1.953125
8456		3.906250
8457		0.000000
8458		1.953125
8459		-1.953125
8460		1.953125
8461		-1.953125
8462		1.953125
8463		-1.953125
8464		1.953125
8465		-3.906250
8466		0.000000
8467		-3.906250
8468		0.000000
8469		-3.906250
8470		-1.953125
8471		-5.859375
8472		0.000000
8473		-5.859375
8474		-1.953125
8475		-5.859375
8476		-1.953125
8477		-5.859375
8478		-1.953125
8479		-5.859375
8480		-1.953125
8481		-7.812500
8482		-3.906250
8483		-7.812500
8484		-3.906250
8485		-7.812500
8486		-5.859375
8487		-7.812500
8488		-5.859375
8489		-9.765625
8490		-5.859375
8491		-9.765625
8492		-5.859375
8493		-9.765625
8494		-5.859375
8495		-9.765625
8496		-5.859375
8497		-9.765625
8498		-7.812500
8499		-11.718750
8500		-7.812500
8501		-11.718750
8502		-7.812500
8503		-11.718750
8504		-9.765625
8505		-13.671875
8506		-7.812500
8507		-13.671875
8508		-9.765625
8509		-13.671875
8510		-9.765625
8511		-13.671875
8512		-9.765625
8513		-13.671875
8514		-11.718750
8515		-13.671875
8516		-11.718750
8517		-15.625000
8518		-11.718750
8519		-15.625000
8520		-11.718750
8521		-15.625000
8522		-11.718750
8523		-15.625000
8524		-11.718750
8525		-15.625000
8526		-11.718750
8527		-15.625000
8528		-13.671875
8529		-17.578125
8530		-13.671875
8531		-17.578125
8532		-13.671875
8533		-17.578125
8534		-13.671875
8535		-17.578125
8536		-15.625000
8537		-17.578125
8538		-15.625000
8539		-17.578125
8540		-13.671875
8541		-17.578125
8542		-15.625000
8543		-19.531250
8544		-15.625000
8545		-19.531250
8546		-15.625000
8547		-19.531250
8548		-15.625000
8549		-19.531250
8550		-15.625000
8551		-19.531250
8552		-15.625000
8553		-19.531250
8554		-15.625000
8555		-19.531250
8556		-17.578125
8557		-19.531250
8558		-15.625000
8559		-19.531250
8560		-15.625000
8561		-19.531250
8562		-15.625000
8563		-19.531250
8564		-15.625000
8565		-19.531250
8566		-15.625000
8567		-19.531250
8568		-15.625000
8569		-19.531250
8570		-17.578125
8571		-19.531250
8572		-17.578125
8573		-21.484375
8574		-15.625000
8575		-19.531250
8576		-15.625000
8577		-19.531250
8578		-15.625000
8579		-19.531250
8580		-15.625000
8581		-19.531250
8582		-15.625000
8583		-19.531250
8584		-15.625000
8585		-19.531250
8586		-15.625000
8587		-19.531250
8588		-15.625000
8589		-19.531250
8590		-15.625000
8591		-19.531250
8592		-15.625000
8593		-19.531250
8594		-15.625000
8595		-19.531250
8596		-15.625000
8597		-17.578125
8598		-15.625000
8599		-19.531250
8600		-15.625000
8601		-19.531250
8602		-13.671875
8603		-17.578125
8604		-15.625000
8605		-17.578125
8606		-13.671875
8607		-17.578125
8608		-13.671875
8609		-17.578125
8610		-13.671875
8611		-17.578125
8612		-13.671875
8613		-17.578125
8614		-13.671875
8615		-17.578125
8616		-13.671875
8617		-17.578125
8618		-11.718750
8619		-15.625000
8620		-13.671875
8621		-15.625000
8622		-13.671875
8623		-15.625000
8624		-11.718750
8625		-15.625000
8626		-11.718750
8627		-15.625000
8628		-11.718750
8629		-13.671875
8630		-9.765625
8631		-13.671875
8632		-11.718750
8633		-13.671875
8634		-9.765625
8635		-13.671875
8636		-9.765625
8637		-11.718750
8638		-9.765625
8639		-13.671875
8640		-7.812500
8641		-11.718750
8642		-7.812500
8643		-11.718750
8644		-7.812500
8645		-11.718750
8646		-7.812500
8647		-11.718750
8648		-7.812500
8649		-9.765625
8650		-7.812500
8651		-9.765625
8652		-5.859375
8653		-9.765625
8654		-7.812500
8655		-7.812500
8656		-5.859375
8657		-9.765625
8658		-3.906250
8659		-7.812500
8660		-3.906250
8661		-7.812500
8662		-3.906250
8663		-7.812500
8664		-3.906250
8665		-7.812500
8666		-3.906250
8667		-5.859375
8668		-3.906250
8669		-7.812500
8670		-1.953125
8671		-3.906250
8672		-1.953125
8673		-5.859375
8674		0.000000
8675		-3.906250
8676		0.000000
8677		-3.906250
8678		0.000000
8679		-3.906250
8680		0.000000
8681		-1.953125
8682		0.000000
8683		-1.953125
8684		1.953125
8685		-1.953125
8686		1.953125
8687		0.000000
8688		1.953125
8689		0.000000
8690		1.953125
8691		0.000000
8692		3.906250
8693		0.000000
8694		3.906250
8695		0.000000
8696		3.906250
8697		1.953125
8698		3.906250
8699		1.953125
8700		5.859375
8701		1.953125
8702		5.859375
8703		3.906250
8704		5.859375
8705		3.906250
8706		5.859375
8707		1.953125
8708		7.812500
8709		3.906250
8710		7.812500
8711		5.859375
8712		7.812500
8713		5.859375
8714		7.812500
8715		5.859375
8716		9.765625
8717		5.859375
8718		9.765625
8719		5.859375
8720		9.765625
8721		7.812500
8722		9.765625
8723		7.812500
8724		11.718750
8725		7.812500
8726		11.718750
8727		7.812500
8728		11.718750
8729		9.765625
8730		11.718750
8731		9.765625
8732		13.671875
8733		9.765625
8734		11.718750
8735		9.765625
8736		13.671875
8737		11.718750
8738		13.671875
8739		11.718750
8740		13.671875
8741		9.765625
8742		15.625000
8743		11.718750
8744		15.625000
8745		11.718750
8746		15.625000
8747		11.718750
8748		15.625000
8749		13.671875
8750		15.625000
8751		13.671875
8752		17.578125
8753		13.671875
8754		17.578125
8755		13.671875
8756		17.578125
8757		13.671875
8758		17.578125
8759		15.625000
8760		17.578125
8761		15.625000
8762		17.578125
8763		15.625000
8764		19.531250
8765		15.625000
8766		19.531250
8767		15.625000
8768		19.531250
8769		15.625000
8770		19.531250
8771		17.578125
8772		19.531250
8773		15.625000
8774		19.531250
8775		15.625000
8776		19.531250
8777		17.578125
8778		21.484375
8779		17.578125
8780		21.484375
8781		17.578125
8782		21.484375
8783		17.578125
8784		21.484375
8785		17.578125
8786		21.484375
8787		19.531250
8788		21.484375
8789		17.578125
8790		21.484375
8791		17.578125
8792		21.484375
8793		19.531250
8794		21.484375
8795		19.531250
8796		21.484375
8797		17.578125
8798		21.484375
8799		19.531250
8800		21.484375
8801		19.531250
8802		21.484375
8803		17.578125
8804		23.437500
8805		19.531250
8806		21.484375
8807		17.578125
8808		23.437500
8809		19.531250
8810		23.437500
8811		19.531250
8812		21.484375
8813		19.531250
8814		23.437500
8815		17.578125
8816		21.484375
8817		19.531250
8818		23.437500
8819		17.578125
8820		23.437500
8821		19.531250
8822		21.484375
8823		19.531250
8824		21.484375
8825		19.531250
8826		23.437500
8827		19.531250
8828		21.484375
8829		17.578125
8830		21.484375
8831		17.578125
8832		21.484375
8833		17.578125
8834		21.484375
8835		17.578125
8836		21.484375
8837		17.578125
8838		23.437500
8839		17.578125
8840		19.531250
8841		15.625000
8842		21.484375
8843		17.578125
8844		21.484375
8845		17.578125
8846		21.484375
8847		17.578125
8848		19.531250
8849		17.578125
8850		19.531250
8851		15.625000
8852		19.531250
8853		15.625000
8854		19.531250
8855		15.625000
8856		17.578125
8857		15.625000
8858		17.578125
8859		13.671875
8860		19.531250
8861		15.625000
8862		17.578125
8863		15.625000
8864		17.578125
8865		13.671875
8866		17.578125
8867		13.671875
8868		17.578125
8869		13.671875
8870		17.578125
8871		13.671875
8872		15.625000
8873		13.671875
8874		15.625000
8875		11.718750
8876		15.625000
8877		11.718750
8878		15.625000
8879		11.718750
8880		15.625000
8881		11.718750
8882		15.625000
8883		9.765625
8884		15.625000
8885		9.765625
8886		13.671875
8887		9.765625
8888		13.671875
8889		9.765625
8890		11.718750
8891		9.765625
8892		11.718750
8893		7.812500
8894		11.718750
8895		7.812500
8896		11.718750
8897		7.812500
8898		11.718750
8899		5.859375
8900		9.765625
8901		5.859375
8902		9.765625
8903		5.859375
8904		9.765625
8905		5.859375
8906		7.812500
8907		5.859375
8908		7.812500
8909		3.906250
8910		7.812500
8911		3.906250
8912		7.812500
8913		3.906250
8914		7.812500
8915		3.906250
8916		5.859375
8917		1.953125
8918		5.859375
8919		1.953125
8920		5.859375
8921		1.953125
8922		5.859375
8923		1.953125
8924		3.906250
8925		0.000000
8926		3.906250
8927		0.000000
8928		3.906250
8929		0.000000
8930		3.906250
8931		0.000000
8932		1.953125
8933		-1.953125
8934		1.953125
8935		-1.953125
8936		1.953125
8937		-3.906250
8938		0.000000
8939		-1.953125
8940		0.000000
8941		-3.906250
8942		0.000000
8943		-3.906250
8944		0.000000
8945		-3.906250
8946		-1.953125
8947		-3.906250
8948		-1.953125
8949		-5.859375
8950		-1.953125
8951		-5.859375
8952		-1.953125
8953		-7.812500
8954		-1.953125
8955		-5.859375
8956		-3.906250
8957		-7.812500
8958		-3.906250
8959		-7.812500
8960		-3.906250
8961		-7.812500
8962		-5.859375
8963		-9.765625
8964		-3.906250
8965		-9.765625
8966		-5.859375
8967		-9.765625
8968		-5.859375
8969		-9.765625
8970		-7.812500
8971		-11.718750
8972		-7.812500
8973		-11.718750
8974		-7.812500
8975		-13.671875
8976		-7.812500
8977		-11.718750
8978		-9.765625
8979		-11.718750
8980		-9.765625
8981		-13.671875
8982		-9.765625
8983		-13.671875
8984		-9.765625
8985		-13.671875
8986		-9.765625
8987		-15.625000
8988		-9.765625
8989		-13.671875
8990		-11.718750
8991		-13.671875
8992		-11.718750
8993		-15.625000
8994		-9.765625
8995		-15.625000
8996		-11.718750
8997		-15.625000
8998		-11.718750
8999		-15.625000
9000		-13.671875
9001		-15.625000
9002		-13.671875
9003		-15.625000
9004		-13.671875
9005		-15.625000
9006		-13.671875
9007		-15.625000
9008		-13.671875
9009		-19.531250
9010		-13.671875
9011		-17.578125
9012		-13.671875
9013		-17.578125
9014		-13.671875
9015		-17.578125
9016		-13.671875
9017		-17.578125
9018		-15.625000
9019		-17.578125
9020		-15.625000
9021		-19.531250
9022		-15.625000
9023		-17.578125
9024		-15.625000
9025		-19.531250
9026		-15.625000
9027		-19.531250
9028		-13.671875
9029		-19.531250
9030		-15.625000
9031		-19.531250
9032		-15.625000
9033		-19.531250
9034		-15.625000
9035		-19.531250
9036		-15.625000
9037		-19.531250
9038		-15.625000
9039		-19.531250
9040		-15.625000
9041		-19.531250
9042		-15.625000
9043		-19.531250
9044		-15.625000
9045		-19.531250
9046		-15.625000
9047		-19.531250
9048		-15.625000
9049		-19.531250
9050		-15.625000
9051		-19.531250
9052		-15.625000
9053		-19.531250
9054		-15.625000
9055		-19.531250
9056		-15.625000
9057		-17.578125
9058		-15.625000
9059		-19.531250
9060		-15.625000
9061		-19.531250
9062		-15.625000
9063		-19.531250
9064		-15.625000
9065		-19.531250
9066		-15.625000
9067		-17.578125
9068		-15.625000
9069		-19.531250
9070		-13.671875
9071		-17.578125
9072		-13.671875
9073		-17.578125
9074		-15.625000
9075		-17.578125
9076		-15.625000
9077		-17.578125
9078		-13.671875
9079		-17.578125
9080		-13.671875
9081		-17.578125
9082		-13.671875
9083		-15.625000
9084		-13.671875
9085		-15.625000
9086		-11.718750
9087		-15.625000
9088		-11.718750
9089		-17.578125
9090		-11.718750
9091		-15.625000
9092		-13.671875
9093		-15.625000
9094		-11.718750
9095		-15.625000
9096		-11.718750
9097		-13.671875
9098		-11.718750
9099		-13.671875
9100		-11.718750
9101		-13.671875
9102		-9.765625
9103		-13.671875
9104		-9.765625
9105		-13.671875
9106		-9.765625
9107		-11.718750
9108		-9.765625
9109		-11.718750
9110		-9.765625
9111		-11.718750
9112		-9.765625
9113		-11.718750
9114		-7.812500
9115		-11.718750
9116		-7.812500
9117		-9.765625
9118		-7.812500
9119		-9.765625
9120		-7.812500
9121		-9.765625
9122		-5.859375
9123		-9.765625
9124		-5.859375
9125		-7.812500
9126		-5.859375
9127		-9.765625
9128		-3.906250
9129		-7.812500
9130		-5.859375
9131		-7.812500
9132		-3.906250
9133		-7.812500
9134		-3.906250
9135		-5.859375
9136		-3.906250
9137		-5.859375
9138		-1.953125
9139		-5.859375
9140		-1.953125
9141		-3.906250
9142		-1.953125
9143		-5.859375
9144		0.000000
9145		-3.906250
9146		-1.953125
9147		-3.906250
9148		-1.953125
9149		-3.906250
9150		0.000000
9151		-1.953125
9152		0.000000
9153		-1.953125
9154		0.000000
9155		-1.953125
9156		1.953125
9157		-1.953125
9158		1.953125
9159		0.000000
9160		1.953125
9161		0.000000
9162		3.906250
9163		0.000000
9164		3.906250
9165		0.000000
9166		3.906250
9167		1.953125
9168		3.906250
9169		1.953125
9170		5.859375
9171		1.953125
9172		5.859375
9173		1.953125
9174		7.812500
9175		3.906250
9176		5.859375
9177		3.906250
9178		7.812500
9179		3.906250
9180		7.812500
9181		3.906250
9182		9.765625
9183		3.906250
9184		7.812500
9185		5.859375
9186		9.765625
9187		5.859375
9188		9.765625
9189		5.859375
9190		11.718750
9191		7.812500
9192		9.765625
9193		7.812500
9194		9.765625
9195		7.812500
9196		11.718750
9197		7.812500
9198		11.718750
9199		9.765625
9200		13.671875
9201		9.765625
9202		13.671875
9203		9.765625
9204		13.671875
9205		9.765625
9206		13.671875
9207		9.765625
9208		13.671875
9209		11.718750
9210		13.671875
9211		9.765625
9212		15.625000
9213		11.718750
9214		15.625000
9215		13.671875
9216		15.625000
9217		13.671875
9218		17.578125
9219		13.671875
9220		17.578125
9221		13.671875
9222		17.578125
9223		13.671875
9224		17.578125
9225		15.625000
9226		17.578125
9227		13.671875
9228		17.578125
9229		15.625000
9230		17.578125
9231		15.625000
9232		19.531250
9233		15.625000
9234		19.531250
9235		15.625000
9236		19.531250
9237		15.625000
9238		19.531250
9239		15.625000
9240		21.484375
9241		17.578125
9242		19.531250
9243		17.578125
9244		19.531250
9245		17.578125
9246		21.484375
9247		17.578125
9248		21.484375
9249		17.578125
9250		21.484375
9251		17.578125
9252		21.484375
9253		17.578125
9254		21.484375
9255		17.578125
9256		21.484375
9257		17.578125
9258		23.437500
9259		19.531250
9260		21.484375
9261		17.578125
9262		21.484375
9263		19.531250
9264		23.437500
9265		19.531250
9266		21.484375
9267		19.531250
9268		21.484375
9269		19.531250
9270		23.437500
9271		19.531250
9272		23.437500
9273		19.531250
9274		23.437500
9275		19.531250
9276		23.437500
9277		19.531250
9278		21.484375
9279		17.578125
9280		23.437500
9281		19.531250
9282		23.437500
9283		19.531250
9284		23.437500
9285		19.531250
9286		23.437500
9287		19.531250
9288		21.484375
9289		19.531250
9290		23.437500
9291		19.531250
9292		23.437500
9293		19.531250
9294		21.484375
9295		17.578125
9296		23.437500
9297		19.531250
9298		23.437500
9299		19.531250
9300		23.437500
9301		19.531250
9302		23.437500
9303		19.531250
9304		21.484375
9305		19.531250
9306		21.484375
9307		17.578125
9308		23.437500
9309		19.531250
9310		21.484375
9311		17.578125
9312		21.484375
9313		17.578125
9314		21.484375
9315		17.578125
9316		21.484375
9317		17.578125
9318		21.484375
9319		17.578125
9320		21.484375
9321		15.625000
9322		21.484375
9323		15.625000
9324		21.484375
9325		17.578125
9326		19.531250
9327		17.578125
9328		19.531250
9329		15.625000
9330		19.531250
9331		15.625000
9332		19.531250
9333		15.625000
9334		19.531250
9335		15.625000
9336		17.578125
9337		15.625000
9338		17.578125
9339		13.671875
9340		17.578125
9341		13.671875
9342		17.578125
9343		13.671875
9344		15.625000
9345		11.718750
9346		17.578125
9347		13.671875
9348		15.625000
9349		11.718750
9350		15.625000
9351		11.718750
9352		15.625000
9353		11.718750
9354		15.625000
9355		11.718750
9356		13.671875
9357		9.765625
9358		13.671875
9359		11.718750
9360		13.671875
9361		9.765625
9362		13.671875
9363		9.765625
9364		13.671875
9365		7.812500
9366		11.718750
9367		7.812500
9368		11.718750
9369		7.812500
9370		11.718750
9371		7.812500
9372		11.718750
9373		7.812500
9374		9.765625
9375		5.859375
9376		11.718750
9377		5.859375
9378		9.765625
9379		5.859375
9380		9.765625
9381		5.859375
9382		7.812500
9383		3.906250
9384		7.812500
9385		3.906250
9386		7.812500
9387		3.906250
9388		5.859375
9389		1.953125
9390		5.859375
9391		1.953125
9392		5.859375
9393		1.953125
9394		5.859375
9395		0.000000
9396		3.906250
9397		1.953125
9398		3.906250
9399		0.000000
9400		3.906250
9401		0.000000
9402		3.906250
9403		0.000000
9404		3.906250
9405		-1.953125
9406		1.953125
9407		-1.953125
9408		1.953125
9409		-1.953125
9410		0.000000
9411		-1.953125
9412		0.000000
9413		-3.906250
9414		0.000000
9415		-3.906250
9416		0.000000
9417		-3.906250
9418		-1.953125
9419		-3.906250
9420		-1.953125
9421		-5.859375
9422		-1.953125
9423		-5.859375
9424		-1.953125
9425		-5.859375
9426		-1.953125
9427		-5.859375
9428		-3.906250
9429		-7.812500
9430		-1.953125
9431		-7.812500
9432		-3.906250
9433		-7.812500
9434		-3.906250
9435		-7.812500
9436		-5.859375
9437		-9.765625
9438		-5.859375
9439		-9.765625
9440		-5.859375
9441		-11.718750
9442		-5.859375
9443		-9.765625
9444		-7.812500
9445		-9.765625
9446		-7.812500
9447		-11.718750
9448		-5.859375
9449		-11.718750
9450		-7.812500
9451		-11.718750
9452		-7.812500
9453		-13.671875
9454		-9.765625
9455		-13.671875
9456		-9.765625
9457		-13.671875
9458		-9.765625
9459		-13.671875
9460		-9.765625
9461		-13.671875
9462		-11.718750
9463		-15.625000
9464		-11.718750
9465		-15.625000
9466		-11.718750
9467		-15.625000
9468		-11.718750
9469		-15.625000
9470		-11.718750
9471		-15.625000
9472		-11.718750
9473		-15.625000
9474		-11.718750
9475		-17.578125
9476		-11.718750
9477		-15.625000
9478		-13.671875
9479		-19.531250
9480		-11.718750
9481		-17.578125
9482		-13.671875
9483		-17.578125
9484		-13.671875
9485		-17.578125
9486		-13.671875
9487		-19.531250
9488		-13.671875
9489		-17.578125
9490		-13.671875
9491		-17.578125
9492		-13.671875
9493		-19.531250
9494		-15.625000
9495		-17.578125
9496		-15.625000
9497		-19.531250
9498		-13.671875
9499		-17.578125
9500		-15.625000
9501		-19.531250
9502		-15.625000
9503		-17.578125
9504		-15.625000
9505		-19.531250
9506		-15.625000
9507		-17.578125
9508		-15.625000
9509		-19.531250
9510		-15.625000
9511		-17.578125
9512		-15.625000
9513		-19.531250
9514		-15.625000
9515		-19.531250
9516		-15.625000
9517		-19.531250
9518		-15.625000
9519		-19.531250
9520		-15.625000
9521		-21.484375
9522		-13.671875
9523		-21.484375
9524		-13.671875
9525		-19.531250
9526		-13.671875
9527		-17.578125
9528		-15.625000
9529		-17.578125
9530		-15.625000
9531		-19.531250
9532		-15.625000
9533		-17.578125
9534		-15.625000
9535		-17.578125
9536		-15.625000
9537		-19.531250
9538		-13.671875
9539		-17.578125
9540		-13.671875
9541		-19.531250
9542		-13.671875
9543		-19.531250
9544		-13.671875
9545		-17.578125
9546		-15.625000
9547		-17.578125
9548		-13.671875
9549		-17.578125
9550		-13.671875
9551		-17.578125
9552		-13.671875
9553		-19.531250
9554		-11.718750
9555		-19.531250
9556		-9.765625
9557		-19.531250
9558		-11.718750
9559		-17.578125
9560		-11.718750
9561		-15.625000
9562		-13.671875
9563		-15.625000
9564		-11.718750
9565		-15.625000
9566		-9.765625
9567		-15.625000
9568		-11.718750
9569		-13.671875
9570		-11.718750
9571		-15.625000
9572		-9.765625
9573		-15.625000
9574		-7.812500
9575		-15.625000
9576		-7.812500
9577		-15.625000
9578		-9.765625
9579		-11.718750
9580		-9.765625
9581		-13.671875
9582		-7.812500
9583		-13.671875
9584		-5.859375
9585		-13.671875
9586		-5.859375
9587		-13.671875
9588		-5.859375
9589		-11.718750
9590		-5.859375
9591		-11.718750
9592		-3.906250
9593		-11.718750
9594		-5.859375
9595		-7.812500
9596		-5.859375
9597		-9.765625
9598		-3.906250
9599		-9.765625
9600		-1.953125
9601		-9.765625
9602		-1.953125
9603		-9.765625
9604		-1.953125
9605		-9.765625
9606		-1.953125
9607		-7.812500
9608		0.000000
9609		-7.812500
9610		0.000000
9611		-3.906250
9612		-1.953125
9613		-3.906250
9614		-1.953125
9615		-5.859375
9616		0.000000
9617		-5.859375
9618		1.953125
9619		-5.859375
9620		1.953125
9621		-5.859375
9622		3.906250
9623		-3.906250
9624		3.906250
9625		-3.906250
9626		3.906250
9627		-3.906250
9628		1.953125
9629		0.000000
9630		1.953125
9631		-1.953125
9632		3.906250
9633		-1.953125
9634		5.859375
9635		-1.953125
9636		5.859375
9637		-1.953125
9638		5.859375
9639		0.000000
9640		7.812500
9641		0.000000
9642		7.812500
9643		0.000000
9644		7.812500
9645		3.906250
9646		5.859375
9647		3.906250
9648		7.812500
9649		1.953125
9650		9.765625
9651		1.953125
9652		9.765625
9653		1.953125
9654		9.765625
9655		3.906250
9656		11.718750
9657		3.906250
9658		11.718750
9659		3.906250
9660		11.718750
9661		5.859375
9662		11.718750
9663		7.812500
9664		11.718750
9665		5.859375
9666		13.671875
9667		7.812500
9668		13.671875
9669		7.812500
9670		15.625000
9671		7.812500
9672		15.625000
9673		7.812500
9674		15.625000
9675		7.812500
9676		15.625000
9677		7.812500
9678		15.625000
9679		11.718750
9680		13.671875
9681		9.765625
9682		17.578125
9683		9.765625
9684		17.578125
9685		9.765625
9686		17.578125
9687		9.765625
9688		19.531250
9689		11.718750
9690		19.531250
9691		11.718750
9692		19.531250
9693		11.718750
9694		19.531250
9695		15.625000
9696		17.578125
9697		15.625000
9698		17.578125
9699		13.671875
9700		19.531250
9701		13.671875
9702		21.484375
9703		13.671875
9704		21.484375
9705		13.671875
9706		21.484375
9707		13.671875
9708		21.484375
9709		15.625000
9710		23.437500
9711		15.625000
9712		21.484375
9713		17.578125
9714		19.531250
9715		15.625000
9716		23.437500
9717		15.625000
9718		23.437500
9719		15.625000
9720		23.437500
9721		15.625000
9722		23.437500
9723		15.625000
9724		23.437500
9725		15.625000
9726		23.437500
9727		15.625000
9728		23.437500
9729		19.531250
9730		21.484375
9731		19.531250
9732		21.484375
9733		17.578125
9734		25.390625
9735		17.578125
9736		25.390625
9737		17.578125
9738		25.390625
9739		17.578125
9740		25.390625
9741		17.578125
9742		25.390625
9743		17.578125
9744		25.390625
9745		19.531250
9746		23.437500
9747		21.484375
9748		23.437500
9749		17.578125
9750		25.390625
9751		17.578125
9752		25.390625
9753		17.578125
9754		25.390625
9755		17.578125
9756		25.390625
9757		17.578125
9758		25.390625
9759		17.578125
9760		25.390625
9761		17.578125
9762		25.390625
9763		19.531250
9764		23.437500
9765		19.531250
9766		23.437500
9767		17.578125
9768		25.390625
9769		17.578125
9770		25.390625
9771		17.578125
9772		25.390625
9773		17.578125
9774		25.390625
9775		17.578125
9776		25.390625
9777		17.578125
9778		25.390625
9779		19.531250
9780		21.484375
9781		19.531250
9782		21.484375
9783		15.625000
9784		23.437500
9785		15.625000
9786		23.437500
9787		15.625000
9788		23.437500
9789		15.625000
9790		23.437500
9791		15.625000
9792		23.437500
9793		15.625000
9794		23.437500
9795		15.625000
9796		23.437500
9797		17.578125
9798		19.531250
9799		15.625000
9800		21.484375
9801		13.671875
9802		21.484375
9803		13.671875
9804		21.484375
9805		13.671875
9806		21.484375
9807		13.671875
9808		21.484375
9809		13.671875
9810		21.484375
9811		13.671875
9812		21.484375
9813		15.625000
9814		17.578125
9815		13.671875
9816		17.578125
9817		11.718750
9818		19.531250
9819		9.765625
9820		19.531250
9821		9.765625
9822		17.578125
9823		9.765625
9824		17.578125
9825		9.765625
9826		17.578125
9827		9.765625
9828		17.578125
9829		11.718750
9830		17.578125
9831		11.718750
9832		13.671875
9833		7.812500
9834		15.625000
9835		7.812500
9836		15.625000
9837		7.812500
9838		15.625000
9839		5.859375
9840		13.671875
9841		5.859375
9842		13.671875
9843		5.859375
9844		13.671875
9845		5.859375
9846		13.671875
9847		7.812500
9848		9.765625
9849		5.859375
9850		11.718750
9851		3.906250
9852		11.718750
9853		1.953125
9854		11.718750
9855		1.953125
9856		9.765625
9857		1.953125
9858		9.765625
9859		1.953125
9860		9.765625
9861		1.953125
9862		9.765625
9863		3.906250
9864		5.859375
9865		1.953125
9866		5.859375
9867		0.000000
9868		7.812500
9869		0.000000
9870		7.812500
9871		-1.953125
9872		5.859375
9873		-1.953125
9874		5.859375
9875		-1.953125
9876		5.859375
9877		-3.906250
9878		5.859375
9879		-3.906250
9880		3.906250
9881		-1.953125
9882		1.953125
9883		-3.906250
9884		3.906250
9885		-5.859375
9886		1.953125
9887		-5.859375
9888		1.953125
9889		-5.859375
9890		1.953125
9891		-5.859375
9892		1.953125
9893		-5.859375
9894		1.953125
9895		-7.812500
9896		0.000000
9897		-5.859375
9898		-1.953125
9899		-5.859375
9900		-3.906250
9901		-9.765625
9902		-1.953125
9903		-9.765625
9904		-1.953125
9905		-9.765625
9906		-1.953125
9907		-9.765625
9908		-1.953125
9909		-11.718750
9910		-3.906250
9911		-11.718750
9912		-3.906250
9913		-9.765625
9914		-3.906250
9915		-9.765625
9916		-7.812500
9917		-11.718750
9918		-5.859375
9919		-13.671875
9920		-3.906250
9921		-13.671875
9922		-5.859375
9923		-13.671875
9924		-5.859375
9925		-13.671875
9926		-5.859375
9927		-13.671875
9928		-5.859375
9929		-13.671875
9930		-7.812500
9931		-11.718750
9932		-9.765625
9933		-13.671875
9934		-9.765625
9935		-15.625000
9936		-7.812500
9937		-15.625000
9938		-7.812500
9939		-15.625000
9940		-7.812500
9941		-17.578125
9942		-9.765625
9943		-17.578125
9944		-9.765625
9945		-17.578125
9946		-9.765625
9947		-15.625000
9948		-11.718750
9949		-15.625000
9950		-13.671875
9951		-17.578125
9952		-9.765625
9953		-19.531250
9954		-9.765625
9955		-19.531250
9956		-9.765625
9957		-19.531250
9958		-11.718750
9959		-19.531250
9960		-11.718750
9961		-19.531250
9962		-11.718750
9963		-19.531250
9964		-11.718750
9965		-17.578125
9966		-15.625000
9967		-17.578125
9968		-11.718750
9969		-19.531250
9970		-11.718750
9971		-19.531250
9972		-11.718750
9973		-19.531250
9974		-11.718750
9975		-19.531250
9976		-11.718750
9977		-19.531250
9978		-11.718750
9979		-21.484375
9980		-11.718750
9981		-17.578125
9982		-15.625000
9983		-17.578125
9984		-15.625000
9985		-19.531250
9986		-11.718750
9987		-21.484375
9988		-11.718750
9989		-19.531250
9990		-13.671875
9991		-21.484375
9992		-13.671875
9993		-19.531250
9994		-11.718750
9995		-19.531250
9996		-11.718750
9997		-19.531250
9998		-11.718750
9999		-17.578125
10000		-15.625000
