Channel              :		CH1
Frequency            :		681.2Hz
Period               :		1.468ms
PK-PK                :		50.78mV
Probe attenuation    :		1X
Voltage per ADC value:		0.122070mV
Time interval        :		2.00000us

index		CH1_Voltage(mV)
1		17.578125
2		17.578125
3		21.484375
4		17.578125
5		21.484375
6		17.578125
7		21.484375
8		17.578125
9		21.484375
10		17.578125
11		21.484375
12		17.578125
13		21.484375
14		19.531250
15		21.484375
16		17.578125
17		23.437500
18		19.531250
19		21.484375
20		19.531250
21		21.484375
22		17.578125
23		23.437500
24		19.531250
25		21.484375
26		19.531250
27		23.437500
28		17.578125
29		23.437500
30		19.531250
31		21.484375
32		17.578125
33		23.437500
34		19.531250
35		21.484375
36		19.531250
37		23.437500
38		19.531250
39		23.437500
40		19.531250
41		23.437500
42		19.531250
43		23.437500
44		19.531250
45		23.437500
46		19.531250
47		23.437500
48		19.531250
49		21.484375
50		19.531250
51		23.437500
52		19.531250
53		23.437500
54		19.531250
55		23.437500
56		19.531250
57		23.437500
58		19.531250
59		23.437500
60		19.531250
61		23.437500
62		17.578125
63		23.437500
64		19.531250
65		23.437500
66		19.531250
67		23.437500
68		19.531250
69		23.437500
70		19.531250
71		23.437500
72		19.531250
73		23.437500
74		19.531250
75		21.484375
76		19.531250
77		23.437500
78		17.578125
79		21.484375
80		19.531250
81		21.484375
82		19.531250
83		23.437500
84		17.578125
85		21.484375
86		17.578125
87		21.484375
88		17.578125
89		21.484375
90		17.578125
91		21.484375
92		17.578125
93		21.484375
94		17.578125
95		21.484375
96		17.578125
97		21.484375
98		17.578125
99		21.484375
100		17.578125
101		21.484375
102		17.578125
103		21.484375
104		17.578125
105		21.484375
106		17.578125
107		21.484375
108		15.625000
109		19.531250
110		17.578125
111		19.531250
112		17.578125
113		19.531250
114		15.625000
115		19.531250
116		15.625000
117		19.531250
118		15.625000
119		19.531250
120		15.625000
121		19.531250
122		15.625000
123		17.578125
124		15.625000
125		19.531250
126		15.625000
127		19.531250
128		15.625000
129		17.578125
130		15.625000
131		19.531250
132		15.625000
133		17.578125
134		13.671875
135		19.531250
136		13.671875
137		17.578125
138		13.671875
139		17.578125
140		13.671875
141		17.578125
142		13.671875
143		15.625000
144		13.671875
145		15.625000
146		11.718750
147		17.578125
148		13.671875
149		15.625000
150		11.718750
151		15.625000
152		11.718750
153		15.625000
154		11.718750
155		15.625000
156		11.718750
157		15.625000
158		9.765625
159		15.625000
160		9.765625
161		13.671875
162		9.765625
163		13.671875
164		9.765625
165		13.671875
166		9.765625
167		13.671875
168		9.765625
169		13.671875
170		9.765625
171		11.718750
172		9.765625
173		13.671875
174		7.812500
175		11.718750
176		7.812500
177		11.718750
178		7.812500
179		11.718750
180		5.859375
181		11.718750
182		7.812500
183		9.765625
184		5.859375
185		9.765625
186		5.859375
187		9.765625
188		5.859375
189		9.765625
190		5.859375
191		9.765625
192		5.859375
193		7.812500
194		3.906250
195		9.765625
196		3.906250
197		7.812500
198		5.859375
199		7.812500
200		3.906250
201		7.812500
202		3.906250
203		7.812500
204		3.906250
205		5.859375
206		3.906250
207		7.812500
208		1.953125
209		5.859375
210		1.953125
211		5.859375
212		1.953125
213		5.859375
214		1.953125
215		3.906250
216		1.953125
217		5.859375
218		1.953125
219		5.859375
220		0.000000
221		3.906250
222		0.000000
223		3.906250
224		0.000000
225		3.906250
226		0.000000
227		3.906250
228		-1.953125
229		1.953125
230		-1.953125
231		1.953125
232		-1.953125
233		1.953125
234		-1.953125
235		1.953125
236		-1.953125
237		0.000000
238		-3.906250
239		0.000000
240		-3.906250
241		0.000000
242		-3.906250
243		0.000000
244		-3.906250
245		0.000000
246		-3.906250
247		0.000000
248		-3.906250
249		-1.953125
250		-5.859375
251		0.000000
252		-5.859375
253		-1.953125
254		-7.812500
255		-1.953125
256		-5.859375
257		-1.953125
258		-5.859375
259		-1.953125
260		-7.812500
261		-3.906250
262		-7.812500
263		-3.906250
264		-7.812500
265		-3.906250
266		-7.812500
267		-3.906250
268		-7.812500
269		-3.906250
270		-7.812500
271		-5.859375
272		-9.765625
273		-5.859375
274		-9.765625
275		-5.859375
276		-9.765625
277		-5.859375
278		-9.765625
279		-5.859375
280		-11.718750
281		-5.859375
282		-9.765625
283		-5.859375
284		-11.718750
285		-7.812500
286		-11.718750
287		-7.812500
288		-11.718750
289		-7.812500
290		-11.718750
291		-7.812500
292		-11.718750
293		-9.765625
294		-13.671875
295		-9.765625
296		-13.671875
297		-9.765625
298		-11.718750
299		-9.765625
300		-13.671875
301		-9.765625
302		-13.671875
303		-9.765625
304		-13.671875
305		-9.765625
306		-15.625000
307		-9.765625
308		-13.671875
309		-9.765625
310		-15.625000
311		-11.718750
312		-15.625000
313		-11.718750
314		-15.625000
315		-11.718750
316		-15.625000
317		-11.718750
318		-17.578125
319		-11.718750
320		-15.625000
321		-13.671875
322		-17.578125
323		-11.718750
324		-17.578125
325		-13.671875
326		-17.578125
327		-13.671875
328		-17.578125
329		-13.671875
330		-17.578125
331		-13.671875
332		-17.578125
333		-15.625000
334		-17.578125
335		-13.671875
336		-19.531250
337		-13.671875
338		-17.578125
339		-15.625000
340		-17.578125
341		-15.625000
342		-19.531250
343		-15.625000
344		-19.531250
345		-15.625000
346		-19.531250
347		-15.625000
348		-19.531250
349		-15.625000
350		-19.531250
351		-15.625000
352		-19.531250
353		-15.625000
354		-19.531250
355		-15.625000
356		-19.531250
357		-17.578125
358		-21.484375
359		-17.578125
360		-21.484375
361		-17.578125
362		-19.531250
363		-17.578125
364		-21.484375
365		-17.578125
366		-21.484375
367		-17.578125
368		-21.484375
369		-17.578125
370		-21.484375
371		-17.578125
372		-21.484375
373		-17.578125
374		-21.484375
375		-17.578125
376		-21.484375
377		-17.578125
378		-21.484375
379		-17.578125
380		-21.484375
381		-17.578125
382		-21.484375
383		-17.578125
384		-21.484375
385		-19.531250
386		-23.437500
387		-17.578125
388		-21.484375
389		-17.578125
390		-23.437500
391		-17.578125
392		-21.484375
393		-19.531250
394		-21.484375
395		-17.578125
396		-23.437500
397		-19.531250
398		-23.437500
399		-17.578125
400		-21.484375
401		-19.531250
402		-23.437500
403		-19.531250
404		-21.484375
405		-19.531250
406		-23.437500
407		-19.531250
408		-23.437500
409		-19.531250
410		-21.484375
411		-19.531250
412		-21.484375
413		-19.531250
414		-23.437500
415		-19.531250
416		-21.484375
417		-19.531250
418		-21.484375
419		-19.531250
420		-23.437500
421		-17.578125
422		-21.484375
423		-19.531250
424		-21.484375
425		-19.531250
426		-21.484375
427		-19.531250
428		-21.484375
429		-19.531250
430		-21.484375
431		-19.531250
432		-23.437500
433		-17.578125
434		-21.484375
435		-19.531250
436		-21.484375
437		-17.578125
438		-21.484375
439		-17.578125
440		-21.484375
441		-17.578125
442		-21.484375
443		-17.578125
444		-21.484375
445		-17.578125
446		-21.484375
447		-17.578125
448		-21.484375
449		-17.578125
450		-21.484375
451		-17.578125
452		-21.484375
453		-17.578125
454		-21.484375
455		-17.578125
456		-21.484375
457		-17.578125
458		-21.484375
459		-17.578125
460		-19.531250
461		-17.578125
462		-19.531250
463		-17.578125
464		-19.531250
465		-15.625000
466		-19.531250
467		-17.578125
468		-19.531250
469		-15.625000
470		-19.531250
471		-15.625000
472		-19.531250
473		-15.625000
474		-19.531250
475		-15.625000
476		-19.531250
477		-15.625000
478		-19.531250
479		-15.625000
480		-19.531250
481		-15.625000
482		-19.531250
483		-15.625000
484		-17.578125
485		-15.625000
486		-19.531250
487		-13.671875
488		-17.578125
489		-15.625000
490		-17.578125
491		-13.671875
492		-17.578125
493		-13.671875
494		-17.578125
495		-13.671875
496		-17.578125
497		-13.671875
498		-17.578125
499		-11.718750
500		-15.625000
501		-13.671875
502		-15.625000
503		-11.718750
504		-15.625000
505		-11.718750
506		-15.625000
507		-11.718750
508		-15.625000
509		-11.718750
510		-15.625000
511		-11.718750
512		-15.625000
513		-11.718750
514		-15.625000
515		-11.718750
516		-13.671875
517		-9.765625
518		-13.671875
519		-9.765625
520		-13.671875
521		-9.765625
522		-13.671875
523		-9.765625
524		-13.671875
525		-9.765625
526		-13.671875
527		-9.765625
528		-13.671875
529		-9.765625
530		-11.718750
531		-9.765625
532		-11.718750
533		-7.812500
534		-11.718750
535		-7.812500
536		-11.718750
537		-7.812500
538		-11.718750
539		-7.812500
540		-11.718750
541		-7.812500
542		-11.718750
543		-7.812500
544		-9.765625
545		-5.859375
546		-9.765625
547		-5.859375
548		-9.765625
549		-5.859375
550		-9.765625
551		-5.859375
552		-7.812500
553		-5.859375
554		-9.765625
555		-3.906250
556		-7.812500
557		-3.906250
558		-7.812500
559		-3.906250
560		-7.812500
561		-3.906250
562		-7.812500
563		-3.906250
564		-7.812500
565		-3.906250
566		-7.812500
567		-1.953125
568		-5.859375
569		-1.953125
570		-5.859375
571		-1.953125
572		-5.859375
573		-1.953125
574		-3.906250
575		-1.953125
576		-3.906250
577		-1.953125
578		-5.859375
579		0.000000
580		-3.906250
581		0.000000
582		-3.906250
583		0.000000
584		-3.906250
585		0.000000
586		-3.906250
587		0.000000
588		-3.906250
589		0.000000
590		-1.953125
591		0.000000
592		-1.953125
593		1.953125
594		-1.953125
595		1.953125
596		0.000000
597		1.953125
598		0.000000
599		1.953125
600		0.000000
601		3.906250
602		-1.953125
603		3.906250
604		0.000000
605		5.859375
606		0.000000
607		3.906250
608		0.000000
609		5.859375
610		1.953125
611		3.906250
612		1.953125
613		5.859375
614		1.953125
615		5.859375
616		1.953125
617		5.859375
618		3.906250
619		5.859375
620		1.953125
621		7.812500
622		1.953125
623		7.812500
624		3.906250
625		7.812500
626		3.906250
627		7.812500
628		3.906250
629		7.812500
630		5.859375
631		7.812500
632		5.859375
633		7.812500
634		3.906250
635		9.765625
636		5.859375
637		9.765625
638		5.859375
639		9.765625
640		5.859375
641		9.765625
642		5.859375
643		9.765625
644		7.812500
645		11.718750
646		7.812500
647		11.718750
648		7.812500
649		11.718750
650		7.812500
651		11.718750
652		7.812500
653		11.718750
654		7.812500
655		11.718750
656		7.812500
657		11.718750
658		9.765625
659		13.671875
660		9.765625
661		13.671875
662		9.765625
663		13.671875
664		9.765625
665		13.671875
666		9.765625
667		13.671875
668		11.718750
669		13.671875
670		11.718750
671		13.671875
672		11.718750
673		15.625000
674		11.718750
675		15.625000
676		11.718750
677		15.625000
678		11.718750
679		15.625000
680		11.718750
681		15.625000
682		11.718750
683		17.578125
684		11.718750
685		15.625000
686		13.671875
687		15.625000
688		13.671875
689		17.578125
690		13.671875
691		17.578125
692		13.671875
693		17.578125
694		13.671875
695		17.578125
696		13.671875
697		17.578125
698		13.671875
699		17.578125
700		13.671875
701		19.531250
702		15.625000
703		17.578125
704		15.625000
705		17.578125
706		15.625000
707		19.531250
708		15.625000
709		19.531250
710		15.625000
711		19.531250
712		15.625000
713		19.531250
714		15.625000
715		19.531250
716		15.625000
717		21.484375
718		15.625000
719		19.531250
720		17.578125
721		19.531250
722		15.625000
723		21.484375
724		17.578125
725		19.531250
726		17.578125
727		21.484375
728		17.578125
729		21.484375
730		17.578125
731		21.484375
732		17.578125
733		21.484375
734		15.625000
735		21.484375
736		17.578125
737		21.484375
738		17.578125
739		21.484375
740		17.578125
741		21.484375
742		17.578125
743		21.484375
744		17.578125
745		21.484375
746		17.578125
747		21.484375
748		17.578125
749		21.484375
750		17.578125
751		23.437500
752		19.531250
753		21.484375
754		17.578125
755		21.484375
756		17.578125
757		23.437500
758		19.531250
759		21.484375
760		19.531250
761		23.437500
762		17.578125
763		21.484375
764		19.531250
765		23.437500
766		19.531250
767		23.437500
768		19.531250
769		23.437500
770		19.531250
771		23.437500
772		19.531250
773		23.437500
774		19.531250
775		23.437500
776		19.531250
777		23.437500
778		19.531250
779		21.484375
780		19.531250
781		23.437500
782		19.531250
783		23.437500
784		19.531250
785		23.437500
786		19.531250
787		23.437500
788		19.531250
789		23.437500
790		19.531250
791		23.437500
792		19.531250
793		23.437500
794		19.531250
795		23.437500
796		19.531250
797		23.437500
798		17.578125
799		23.437500
800		19.531250
801		23.437500
802		19.531250
803		23.437500
804		19.531250
805		23.437500
806		19.531250
807		21.484375
808		19.531250
809		21.484375
810		19.531250
811		21.484375
812		19.531250
813		21.484375
814		17.578125
815		21.484375
816		17.578125
817		21.484375
818		17.578125
819		21.484375
820		19.531250
821		21.484375
822		17.578125
823		23.437500
824		17.578125
825		21.484375
826		17.578125
827		21.484375
828		17.578125
829		21.484375
830		17.578125
831		21.484375
832		17.578125
833		21.484375
834		17.578125
835		21.484375
836		17.578125
837		19.531250
838		17.578125
839		21.484375
840		17.578125
841		21.484375
842		17.578125
843		19.531250
844		17.578125
845		19.531250
846		17.578125
847		19.531250
848		17.578125
849		19.531250
850		15.625000
851		19.531250
852		15.625000
853		19.531250
854		17.578125
855		19.531250
856		15.625000
857		19.531250
858		15.625000
859		19.531250
860		13.671875
861		19.531250
862		15.625000
863		17.578125
864		15.625000
865		17.578125
866		15.625000
867		19.531250
868		15.625000
869		19.531250
870		13.671875
871		17.578125
872		13.671875
873		17.578125
874		13.671875
875		17.578125
876		13.671875
877		17.578125
878		13.671875
879		17.578125
880		13.671875
881		15.625000
882		13.671875
883		15.625000
884		11.718750
885		15.625000
886		11.718750
887		15.625000
888		11.718750
889		15.625000
890		11.718750
891		15.625000
892		11.718750
893		13.671875
894		9.765625
895		15.625000
896		9.765625
897		13.671875
898		11.718750
899		13.671875
900		9.765625
901		13.671875
902		9.765625
903		13.671875
904		9.765625
905		13.671875
906		7.812500
907		13.671875
908		9.765625
909		11.718750
910		7.812500
911		11.718750
912		7.812500
913		11.718750
914		7.812500
915		13.671875
916		7.812500
917		11.718750
918		7.812500
919		11.718750
920		7.812500
921		9.765625
922		7.812500
923		9.765625
924		5.859375
925		9.765625
926		5.859375
927		9.765625
928		5.859375
929		9.765625
930		5.859375
931		7.812500
932		5.859375
933		9.765625
934		3.906250
935		7.812500
936		3.906250
937		7.812500
938		3.906250
939		7.812500
940		3.906250
941		7.812500
942		3.906250
943		5.859375
944		1.953125
945		5.859375
946		3.906250
947		5.859375
948		1.953125
949		5.859375
950		1.953125
951		5.859375
952		1.953125
953		5.859375
954		1.953125
955		3.906250
956		0.000000
957		3.906250
958		0.000000
959		3.906250
960		0.000000
961		3.906250
962		0.000000
963		3.906250
964		0.000000
965		1.953125
966		-1.953125
967		1.953125
968		-1.953125
969		1.953125
970		-1.953125
971		1.953125
972		-1.953125
973		1.953125
974		-1.953125
975		1.953125
976		-1.953125
977		0.000000
978		-3.906250
979		0.000000
980		-3.906250
981		0.000000
982		-3.906250
983		0.000000
984		-3.906250
985		0.000000
986		-5.859375
987		-1.953125
988		-3.906250
989		-1.953125
990		-5.859375
991		-1.953125
992		-5.859375
993		-1.953125
994		-5.859375
995		-1.953125
996		-7.812500
997		-1.953125
998		-7.812500
999		-3.906250
1000		-7.812500
1001		-3.906250
1002		-7.812500
1003		-3.906250
1004		-7.812500
1005		-5.859375
1006		-7.812500
1007		-5.859375
1008		-9.765625
1009		-3.906250
1010		-9.765625
1011		-5.859375
1012		-9.765625
1013		-5.859375
1014		-9.765625
1015		-7.812500
1016		-9.765625
1017		-7.812500
1018		-11.718750
1019		-7.812500
1020		-9.765625
1021		-7.812500
1022		-9.765625
1023		-7.812500
1024		-11.718750
1025		-7.812500
1026		-11.718750
1027		-7.812500
1028		-13.671875
1029		-7.812500
1030		-11.718750
1031		-9.765625
1032		-13.671875
1033		-9.765625
1034		-13.671875
1035		-9.765625
1036		-15.625000
1037		-9.765625
1038		-13.671875
1039		-9.765625
1040		-13.671875
1041		-11.718750
1042		-13.671875
1043		-9.765625
1044		-15.625000
1045		-9.765625
1046		-15.625000
1047		-11.718750
1048		-15.625000
1049		-11.718750
1050		-15.625000
1051		-11.718750
1052		-15.625000
1053		-11.718750
1054		-15.625000
1055		-11.718750
1056		-17.578125
1057		-11.718750
1058		-17.578125
1059		-13.671875
1060		-17.578125
1061		-13.671875
1062		-17.578125
1063		-13.671875
1064		-17.578125
1065		-13.671875
1066		-17.578125
1067		-13.671875
1068		-17.578125
1069		-13.671875
1070		-17.578125
1071		-13.671875
1072		-19.531250
1073		-13.671875
1074		-17.578125
1075		-15.625000
1076		-19.531250
1077		-15.625000
1078		-19.531250
1079		-13.671875
1080		-19.531250
1081		-15.625000
1082		-19.531250
1083		-15.625000
1084		-19.531250
1085		-15.625000
1086		-21.484375
1087		-15.625000
1088		-19.531250
1089		-15.625000
1090		-19.531250
1091		-15.625000
1092		-19.531250
1093		-15.625000
1094		-19.531250
1095		-15.625000
1096		-19.531250
1097		-17.578125
1098		-19.531250
1099		-17.578125
1100		-21.484375
1101		-17.578125
1102		-21.484375
1103		-17.578125
1104		-21.484375
1105		-17.578125
1106		-21.484375
1107		-17.578125
1108		-21.484375
1109		-17.578125
1110		-21.484375
1111		-17.578125
1112		-21.484375
1113		-17.578125
1114		-21.484375
1115		-19.531250
1116		-21.484375
1117		-17.578125
1118		-21.484375
1119		-17.578125
1120		-21.484375
1121		-17.578125
1122		-21.484375
1123		-19.531250
1124		-21.484375
1125		-17.578125
1126		-21.484375
1127		-19.531250
1128		-21.484375
1129		-19.531250
1130		-23.437500
1131		-19.531250
1132		-21.484375
1133		-19.531250
1134		-21.484375
1135		-19.531250
1136		-23.437500
1137		-19.531250
1138		-23.437500
1139		-17.578125
1140		-21.484375
1141		-19.531250
1142		-23.437500
1143		-19.531250
1144		-21.484375
1145		-19.531250
1146		-21.484375
1147		-19.531250
1148		-23.437500
1149		-19.531250
1150		-21.484375
1151		-19.531250
1152		-23.437500
1153		-17.578125
1154		-23.437500
1155		-17.578125
1156		-21.484375
1157		-19.531250
1158		-23.437500
1159		-19.531250
1160		-23.437500
1161		-19.531250
1162		-23.437500
1163		-19.531250
1164		-21.484375
1165		-17.578125
1166		-21.484375
1167		-19.531250
1168		-21.484375
1169		-19.531250
1170		-23.437500
1171		-19.531250
1172		-21.484375
1173		-19.531250
1174		-21.484375
1175		-17.578125
1176		-21.484375
1177		-17.578125
1178		-21.484375
1179		-17.578125
1180		-21.484375
1181		-17.578125
1182		-21.484375
1183		-17.578125
1184		-21.484375
1185		-17.578125
1186		-21.484375
1187		-17.578125
1188		-21.484375
1189		-17.578125
1190		-21.484375
1191		-17.578125
1192		-21.484375
1193		-15.625000
1194		-19.531250
1195		-17.578125
1196		-19.531250
1197		-17.578125
1198		-21.484375
1199		-15.625000
1200		-19.531250
1201		-17.578125
1202		-19.531250
1203		-15.625000
1204		-19.531250
1205		-15.625000
1206		-19.531250
1207		-15.625000
1208		-19.531250
1209		-15.625000
1210		-19.531250
1211		-15.625000
1212		-17.578125
1213		-15.625000
1214		-17.578125
1215		-15.625000
1216		-19.531250
1217		-15.625000
1218		-17.578125
1219		-15.625000
1220		-17.578125
1221		-15.625000
1222		-17.578125
1223		-13.671875
1224		-17.578125
1225		-15.625000
1226		-17.578125
1227		-13.671875
1228		-17.578125
1229		-13.671875
1230		-17.578125
1231		-11.718750
1232		-17.578125
1233		-11.718750
1234		-15.625000
1235		-13.671875
1236		-15.625000
1237		-11.718750
1238		-15.625000
1239		-11.718750
1240		-15.625000
1241		-11.718750
1242		-15.625000
1243		-11.718750
1244		-15.625000
1245		-11.718750
1246		-13.671875
1247		-9.765625
1248		-13.671875
1249		-9.765625
1250		-13.671875
1251		-9.765625
1252		-13.671875
1253		-9.765625
1254		-13.671875
1255		-9.765625
1256		-13.671875
1257		-9.765625
1258		-11.718750
1259		-7.812500
1260		-11.718750
1261		-7.812500
1262		-11.718750
1263		-7.812500
1264		-11.718750
1265		-7.812500
1266		-11.718750
1267		-7.812500
1268		-11.718750
1269		-7.812500
1270		-11.718750
1271		-5.859375
1272		-11.718750
1273		-5.859375
1274		-9.765625
1275		-7.812500
1276		-11.718750
1277		-5.859375
1278		-9.765625
1279		-5.859375
1280		-9.765625
1281		-5.859375
1282		-9.765625
1283		-5.859375
1284		-7.812500
1285		-5.859375
1286		-7.812500
1287		-5.859375
1288		-7.812500
1289		-3.906250
1290		-7.812500
1291		-3.906250
1292		-5.859375
1293		-3.906250
1294		-7.812500
1295		-1.953125
1296		-5.859375
1297		-1.953125
1298		-5.859375
1299		-1.953125
1300		-5.859375
1301		-1.953125
1302		-5.859375
1303		-1.953125
1304		-5.859375
1305		-1.953125
1306		-5.859375
1307		-1.953125
1308		-3.906250
1309		-1.953125
1310		-3.906250
1311		0.000000
1312		-3.906250
1313		0.000000
1314		-3.906250
1315		0.000000
1316		-1.953125
1317		0.000000
1318		-3.906250
1319		1.953125
1320		-3.906250
1321		1.953125
1322		-1.953125
1323		1.953125
1324		-1.953125
1325		1.953125
1326		0.000000
1327		1.953125
1328		0.000000
1329		1.953125
1330		0.000000
1331		3.906250
1332		0.000000
1333		3.906250
1334		0.000000
1335		5.859375
1336		1.953125
1337		3.906250
1338		0.000000
1339		3.906250
1340		1.953125
1341		5.859375
1342		1.953125
1343		5.859375
1344		0.000000
1345		5.859375
1346		1.953125
1347		5.859375
1348		1.953125
1349		5.859375
1350		3.906250
1351		5.859375
1352		3.906250
1353		7.812500
1354		3.906250
1355		7.812500
1356		3.906250
1357		7.812500
1358		3.906250
1359		9.765625
1360		3.906250
1361		9.765625
1362		5.859375
1363		9.765625
1364		5.859375
1365		9.765625
1366		5.859375
1367		9.765625
1368		5.859375
1369		9.765625
1370		5.859375
1371		9.765625
1372		5.859375
1373		9.765625
1374		5.859375
1375		9.765625
1376		7.812500
1377		9.765625
1378		7.812500
1379		11.718750
1380		7.812500
1381		11.718750
1382		7.812500
1383		11.718750
1384		9.765625
1385		11.718750
1386		7.812500
1387		13.671875
1388		9.765625
1389		13.671875
1390		9.765625
1391		13.671875
1392		9.765625
1393		11.718750
1394		9.765625
1395		13.671875
1396		9.765625
1397		13.671875
1398		11.718750
1399		13.671875
1400		11.718750
1401		13.671875
1402		11.718750
1403		15.625000
1404		11.718750
1405		15.625000
1406		11.718750
1407		15.625000
1408		11.718750
1409		15.625000
1410		13.671875
1411		15.625000
1412		11.718750
1413		17.578125
1414		13.671875
1415		15.625000
1416		13.671875
1417		17.578125
1418		13.671875
1419		15.625000
1420		13.671875
1421		15.625000
1422		13.671875
1423		17.578125
1424		13.671875
1425		17.578125
1426		13.671875
1427		17.578125
1428		13.671875
1429		17.578125
1430		13.671875
1431		17.578125
1432		13.671875
1433		17.578125
1434		15.625000
1435		19.531250
1436		15.625000
1437		19.531250
1438		13.671875
1439		19.531250
1440		15.625000
1441		19.531250
1442		15.625000
1443		19.531250
1444		15.625000
1445		19.531250
1446		15.625000
1447		19.531250
1448		17.578125
1449		19.531250
1450		15.625000
1451		21.484375
1452		17.578125
1453		19.531250
1454		17.578125
1455		19.531250
1456		17.578125
1457		21.484375
1458		17.578125
1459		21.484375
1460		17.578125
1461		21.484375
1462		17.578125
1463		21.484375
1464		17.578125
1465		21.484375
1466		17.578125
1467		21.484375
1468		17.578125
1469		21.484375
1470		17.578125
1471		21.484375
1472		17.578125
1473		21.484375
1474		17.578125
1475		21.484375
1476		17.578125
1477		21.484375
1478		17.578125
1479		21.484375
1480		17.578125
1481		23.437500
1482		19.531250
1483		21.484375
1484		19.531250
1485		23.437500
1486		19.531250
1487		23.437500
1488		19.531250
1489		23.437500
1490		17.578125
1491		23.437500
1492		19.531250
1493		21.484375
1494		17.578125
1495		23.437500
1496		19.531250
1497		23.437500
1498		19.531250
1499		21.484375
1500		19.531250
1501		23.437500
1502		19.531250
1503		23.437500
1504		19.531250
1505		23.437500
1506		19.531250
1507		23.437500
1508		19.531250
1509		23.437500
1510		19.531250
1511		23.437500
1512		19.531250
1513		23.437500
1514		19.531250
1515		23.437500
1516		19.531250
1517		23.437500
1518		19.531250
1519		23.437500
1520		19.531250
1521		23.437500
1522		19.531250
1523		23.437500
1524		19.531250
1525		23.437500
1526		19.531250
1527		23.437500
1528		19.531250
1529		23.437500
1530		19.531250
1531		23.437500
1532		19.531250
1533		23.437500
1534		19.531250
1535		23.437500
1536		19.531250
1537		23.437500
1538		19.531250
1539		23.437500
1540		19.531250
1541		23.437500
1542		19.531250
1543		23.437500
1544		19.531250
1545		21.484375
1546		19.531250
1547		23.437500
1548		19.531250
1549		21.484375
1550		19.531250
1551		23.437500
1552		19.531250
1553		23.437500
1554		19.531250
1555		23.437500
1556		17.578125
1557		21.484375
1558		19.531250
1559		21.484375
1560		17.578125
1561		23.437500
1562		17.578125
1563		21.484375
1564		17.578125
1565		21.484375
1566		17.578125
1567		21.484375
1568		17.578125
1569		21.484375
1570		17.578125
1571		21.484375
1572		17.578125
1573		21.484375
1574		17.578125
1575		21.484375
1576		17.578125
1577		21.484375
1578		17.578125
1579		19.531250
1580		17.578125
1581		21.484375
1582		15.625000
1583		19.531250
1584		17.578125
1585		19.531250
1586		15.625000
1587		21.484375
1588		15.625000
1589		19.531250
1590		15.625000
1591		19.531250
1592		15.625000
1593		19.531250
1594		15.625000
1595		19.531250
1596		15.625000
1597		19.531250
1598		15.625000
1599		17.578125
1600		15.625000
1601		19.531250
1602		15.625000
1603		17.578125
1604		15.625000
1605		19.531250
1606		13.671875
1607		17.578125
1608		13.671875
1609		17.578125
1610		13.671875
1611		17.578125
1612		13.671875
1613		17.578125
1614		13.671875
1615		17.578125
1616		11.718750
1617		17.578125
1618		13.671875
1619		15.625000
1620		11.718750
1621		15.625000
1622		11.718750
1623		15.625000
1624		11.718750
1625		15.625000
1626		11.718750
1627		15.625000
1628		11.718750
1629		13.671875
1630		11.718750
1631		15.625000
1632		11.718750
1633		13.671875
1634		9.765625
1635		13.671875
1636		9.765625
1637		13.671875
1638		9.765625
1639		13.671875
1640		9.765625
1641		13.671875
1642		9.765625
1643		13.671875
1644		9.765625
1645		11.718750
1646		7.812500
1647		11.718750
1648		7.812500
1649		11.718750
1650		7.812500
1651		11.718750
1652		7.812500
1653		11.718750
1654		7.812500
1655		9.765625
1656		7.812500
1657		9.765625
1658		5.859375
1659		11.718750
1660		5.859375
1661		9.765625
1662		5.859375
1663		9.765625
1664		5.859375
1665		9.765625
1666		5.859375
1667		9.765625
1668		3.906250
1669		9.765625
1670		5.859375
1671		7.812500
1672		3.906250
1673		9.765625
1674		3.906250
1675		7.812500
1676		3.906250
1677		7.812500
1678		3.906250
1679		7.812500
1680		3.906250
1681		5.859375
1682		1.953125
1683		5.859375
1684		1.953125
1685		5.859375
1686		1.953125
1687		5.859375
1688		1.953125
1689		3.906250
1690		1.953125
1691		5.859375
1692		1.953125
1693		3.906250
1694		0.000000
1695		3.906250
1696		0.000000
1697		3.906250
1698		0.000000
1699		3.906250
1700		0.000000
1701		3.906250
1702		0.000000
1703		1.953125
1704		-1.953125
1705		1.953125
1706		-1.953125
1707		1.953125
1708		-1.953125
1709		1.953125
1710		-1.953125
1711		1.953125
1712		-3.906250
1713		0.000000
1714		-3.906250
1715		0.000000
1716		-3.906250
1717		0.000000
1718		-3.906250
1719		0.000000
1720		-3.906250
1721		0.000000
1722		-5.859375
1723		0.000000
1724		-3.906250
1725		-1.953125
1726		-5.859375
1727		-1.953125
1728		-5.859375
1729		-1.953125
1730		-5.859375
1731		-1.953125
1732		-5.859375
1733		-1.953125
1734		-7.812500
1735		-1.953125
1736		-5.859375
1737		-3.906250
1738		-7.812500
1739		-3.906250
1740		-7.812500
1741		-3.906250
1742		-9.765625
1743		-3.906250
1744		-7.812500
1745		-5.859375
1746		-7.812500
1747		-5.859375
1748		-9.765625
1749		-5.859375
1750		-9.765625
1751		-5.859375
1752		-9.765625
1753		-5.859375
1754		-9.765625
1755		-5.859375
1756		-9.765625
1757		-5.859375
1758		-11.718750
1759		-7.812500
1760		-11.718750
1761		-7.812500
1762		-11.718750
1763		-7.812500
1764		-13.671875
1765		-7.812500
1766		-11.718750
1767		-9.765625
1768		-11.718750
1769		-9.765625
1770		-11.718750
1771		-7.812500
1772		-13.671875
1773		-9.765625
1774		-13.671875
1775		-9.765625
1776		-13.671875
1777		-9.765625
1778		-13.671875
1779		-11.718750
1780		-15.625000
1781		-9.765625
1782		-15.625000
1783		-11.718750
1784		-15.625000
1785		-11.718750
1786		-15.625000
1787		-11.718750
1788		-15.625000
1789		-11.718750
1790		-15.625000
1791		-11.718750
1792		-15.625000
1793		-11.718750
1794		-15.625000
1795		-13.671875
1796		-17.578125
1797		-13.671875
1798		-17.578125
1799		-13.671875
1800		-17.578125
1801		-13.671875
1802		-17.578125
1803		-13.671875
1804		-17.578125
1805		-13.671875
1806		-17.578125
1807		-13.671875
1808		-17.578125
1809		-13.671875
1810		-19.531250
1811		-13.671875
1812		-17.578125
1813		-13.671875
1814		-17.578125
1815		-15.625000
1816		-19.531250
1817		-13.671875
1818		-19.531250
1819		-15.625000
1820		-19.531250
1821		-13.671875
1822		-19.531250
1823		-15.625000
1824		-21.484375
1825		-15.625000
1826		-19.531250
1827		-15.625000
1828		-19.531250
1829		-15.625000
1830		-19.531250
1831		-17.578125
1832		-19.531250
1833		-17.578125
1834		-21.484375
1835		-15.625000
1836		-21.484375
1837		-17.578125
1838		-21.484375
1839		-17.578125
1840		-19.531250
1841		-17.578125
1842		-21.484375
1843		-15.625000
1844		-21.484375
1845		-17.578125
1846		-19.531250
1847		-17.578125
1848		-23.437500
1849		-15.625000
1850		-23.437500
1851		-15.625000
1852		-21.484375
1853		-17.578125
1854		-21.484375
1855		-17.578125
1856		-21.484375
1857		-15.625000
1858		-23.437500
1859		-15.625000
1860		-23.437500
1861		-17.578125
1862		-21.484375
1863		-19.531250
1864		-21.484375
1865		-17.578125
1866		-23.437500
1867		-17.578125
1868		-23.437500
1869		-17.578125
1870		-23.437500
1871		-17.578125
1872		-23.437500
1873		-15.625000
1874		-23.437500
1875		-17.578125
1876		-23.437500
1877		-17.578125
1878		-23.437500
1879		-17.578125
1880		-21.484375
1881		-19.531250
1882		-23.437500
1883		-17.578125
1884		-23.437500
1885		-17.578125
1886		-23.437500
1887		-17.578125
1888		-23.437500
1889		-17.578125
1890		-23.437500
1891		-17.578125
1892		-23.437500
1893		-17.578125
1894		-23.437500
1895		-17.578125
1896		-21.484375
1897		-19.531250
1898		-21.484375
1899		-17.578125
1900		-23.437500
1901		-17.578125
1902		-23.437500
1903		-15.625000
1904		-23.437500
1905		-17.578125
1906		-21.484375
1907		-15.625000
1908		-21.484375
1909		-15.625000
1910		-21.484375
1911		-17.578125
1912		-21.484375
1913		-17.578125
1914		-21.484375
1915		-17.578125
1916		-21.484375
1917		-15.625000
1918		-21.484375
1919		-15.625000
1920		-23.437500
1921		-15.625000
1922		-21.484375
1923		-15.625000
1924		-23.437500
1925		-15.625000
1926		-21.484375
1927		-15.625000
1928		-21.484375
1929		-15.625000
1930		-19.531250
1931		-17.578125
1932		-21.484375
1933		-15.625000
1934		-21.484375
1935		-15.625000
1936		-19.531250
1937		-13.671875
1938		-21.484375
1939		-13.671875
1940		-21.484375
1941		-13.671875
1942		-21.484375
1943		-15.625000
1944		-19.531250
1945		-13.671875
1946		-19.531250
1947		-13.671875
1948		-17.578125
1949		-15.625000
1950		-19.531250
1951		-13.671875
1952		-19.531250
1953		-13.671875
1954		-19.531250
1955		-11.718750
1956		-19.531250
1957		-11.718750
1958		-17.578125
1959		-11.718750
1960		-17.578125
1961		-11.718750
1962		-17.578125
1963		-11.718750
1964		-17.578125
1965		-13.671875
1966		-17.578125
1967		-11.718750
1968		-17.578125
1969		-11.718750
1970		-17.578125
1971		-11.718750
1972		-17.578125
1973		-9.765625
1974		-15.625000
1975		-7.812500
1976		-17.578125
1977		-9.765625
1978		-15.625000
1979		-9.765625
1980		-13.671875
1981		-9.765625
1982		-13.671875
1983		-9.765625
1984		-15.625000
1985		-7.812500
1986		-15.625000
1987		-7.812500
1988		-13.671875
1989		-7.812500
1990		-13.671875
1991		-7.812500
1992		-13.671875
1993		-7.812500
1994		-13.671875
1995		-7.812500
1996		-11.718750
1997		-7.812500
1998		-11.718750
1999		-7.812500
2000		-11.718750
2001		-5.859375
2002		-11.718750
2003		-5.859375
2004		-11.718750
2005		-5.859375
2006		-11.718750
2007		-5.859375
2008		-11.718750
2009		-3.906250
2010		-11.718750
2011		-3.906250
2012		-9.765625
2013		-3.906250
2014		-7.812500
2015		-5.859375
2016		-9.765625
2017		-3.906250
2018		-9.765625
2019		-1.953125
2020		-9.765625
2021		-3.906250
2022		-9.765625
2023		-1.953125
2024		-9.765625
2025		-1.953125
2026		-7.812500
2027		-1.953125
2028		-7.812500
2029		-1.953125
2030		-5.859375
2031		-1.953125
2032		-5.859375
2033		-1.953125
2034		-7.812500
2035		0.000000
2036		-5.859375
2037		0.000000
2038		-5.859375
2039		0.000000
2040		-5.859375
2041		0.000000
2042		-5.859375
2043		0.000000
2044		-5.859375
2045		1.953125
2046		-5.859375
2047		1.953125
2048		-1.953125
2049		0.000000
2050		-3.906250
2051		1.953125
2052		-3.906250
2053		3.906250
2054		-3.906250
2055		3.906250
2056		-1.953125
2057		3.906250
2058		-3.906250
2059		3.906250
2060		-1.953125
2061		3.906250
2062		-1.953125
2063		3.906250
2064		0.000000
2065		3.906250
2066		-1.953125
2067		3.906250
2068		0.000000
2069		5.859375
2070		0.000000
2071		5.859375
2072		0.000000
2073		5.859375
2074		0.000000
2075		5.859375
2076		0.000000
2077		7.812500
2078		0.000000
2079		7.812500
2080		3.906250
2081		7.812500
2082		3.906250
2083		5.859375
2084		1.953125
2085		7.812500
2086		1.953125
2087		9.765625
2088		1.953125
2089		9.765625
2090		3.906250
2091		9.765625
2092		3.906250
2093		9.765625
2094		3.906250
2095		9.765625
2096		3.906250
2097		9.765625
2098		5.859375
2099		9.765625
2100		5.859375
2101		11.718750
2102		5.859375
2103		11.718750
2104		5.859375
2105		11.718750
2106		5.859375
2107		11.718750
2108		5.859375
2109		13.671875
2110		7.812500
2111		13.671875
2112		7.812500
2113		13.671875
2114		7.812500
2115		11.718750
2116		9.765625
2117		11.718750
2118		7.812500
2119		13.671875
2120		7.812500
2121		15.625000
2122		7.812500
2123		15.625000
2124		7.812500
2125		15.625000
2126		9.765625
2127		15.625000
2128		9.765625
2129		15.625000
2130		9.765625
2131		15.625000
2132		11.718750
2133		15.625000
2134		9.765625
2135		17.578125
2136		9.765625
2137		17.578125
2138		11.718750
2139		17.578125
2140		11.718750
2141		17.578125
2142		11.718750
2143		17.578125
2144		11.718750
2145		17.578125
2146		11.718750
2147		17.578125
2148		13.671875
2149		15.625000
2150		13.671875
2151		17.578125
2152		11.718750
2153		19.531250
2154		11.718750
2155		19.531250
2156		13.671875
2157		19.531250
2158		11.718750
2159		19.531250
2160		13.671875
2161		19.531250
2162		13.671875
2163		21.484375
2164		15.625000
2165		19.531250
2166		15.625000
2167		19.531250
2168		13.671875
2169		21.484375
2170		13.671875
2171		21.484375
2172		13.671875
2173		21.484375
2174		15.625000
2175		21.484375
2176		15.625000
2177		21.484375
2178		15.625000
2179		21.484375
2180		15.625000
2181		21.484375
2182		17.578125
2183		21.484375
2184		15.625000
2185		23.437500
2186		15.625000
2187		23.437500
2188		15.625000
2189		23.437500
2190		15.625000
2191		23.437500
2192		15.625000
2193		23.437500
2194		15.625000
2195		23.437500
2196		17.578125
2197		23.437500
2198		19.531250
2199		21.484375
2200		17.578125
2201		21.484375
2202		17.578125
2203		23.437500
2204		17.578125
2205		23.437500
2206		17.578125
2207		23.437500
2208		17.578125
2209		23.437500
2210		17.578125
2211		25.390625
2212		17.578125
2213		23.437500
2214		17.578125
2215		23.437500
2216		19.531250
2217		21.484375
2218		17.578125
2219		25.390625
2220		17.578125
2221		25.390625
2222		17.578125
2223		25.390625
2224		17.578125
2225		25.390625
2226		17.578125
2227		25.390625
2228		17.578125
2229		25.390625
2230		17.578125
2231		25.390625
2232		19.531250
2233		23.437500
2234		19.531250
2235		23.437500
2236		17.578125
2237		25.390625
2238		17.578125
2239		25.390625
2240		19.531250
2241		25.390625
2242		17.578125
2243		25.390625
2244		19.531250
2245		25.390625
2246		19.531250
2247		23.437500
2248		19.531250
2249		23.437500
2250		19.531250
2251		23.437500
2252		17.578125
2253		25.390625
2254		17.578125
2255		25.390625
2256		17.578125
2257		25.390625
2258		17.578125
2259		25.390625
2260		17.578125
2261		25.390625
2262		17.578125
2263		25.390625
2264		17.578125
2265		25.390625
2266		19.531250
2267		23.437500
2268		17.578125
2269		23.437500
2270		17.578125
2271		23.437500
2272		17.578125
2273		25.390625
2274		17.578125
2275		23.437500
2276		17.578125
2277		25.390625
2278		17.578125
2279		23.437500
2280		17.578125
2281		23.437500
2282		19.531250
2283		21.484375
2284		19.531250
2285		23.437500
2286		17.578125
2287		23.437500
2288		17.578125
2289		23.437500
2290		15.625000
2291		23.437500
2292		17.578125
2293		23.437500
2294		17.578125
2295		23.437500
2296		17.578125
2297		23.437500
2298		15.625000
2299		23.437500
2300		17.578125
2301		21.484375
2302		15.625000
2303		23.437500
2304		15.625000
2305		23.437500
2306		15.625000
2307		21.484375
2308		15.625000
2309		21.484375
2310		15.625000
2311		21.484375
2312		15.625000
2313		21.484375
2314		15.625000
2315		21.484375
2316		17.578125
2317		19.531250
2318		15.625000
2319		19.531250
2320		13.671875
2321		21.484375
2322		13.671875
2323		21.484375
2324		15.625000
2325		21.484375
2326		13.671875
2327		21.484375
2328		13.671875
2329		19.531250
2330		13.671875
2331		19.531250
2332		15.625000
2333		17.578125
2334		15.625000
2335		19.531250
2336		11.718750
2337		19.531250
2338		11.718750
2339		19.531250
2340		11.718750
2341		19.531250
2342		11.718750
2343		19.531250
2344		11.718750
2345		19.531250
2346		11.718750
2347		17.578125
2348		11.718750
2349		17.578125
2350		13.671875
2351		15.625000
2352		11.718750
2353		17.578125
2354		9.765625
2355		17.578125
2356		9.765625
2357		17.578125
2358		9.765625
2359		17.578125
2360		9.765625
2361		17.578125
2362		9.765625
2363		15.625000
2364		9.765625
2365		15.625000
2366		9.765625
2367		13.671875
2368		11.718750
2369		13.671875
2370		7.812500
2371		15.625000
2372		7.812500
2373		15.625000
2374		7.812500
2375		15.625000
2376		7.812500
2377		13.671875
2378		7.812500
2379		13.671875
2380		7.812500
2381		13.671875
2382		5.859375
2383		13.671875
2384		7.812500
2385		11.718750
2386		5.859375
2387		11.718750
2388		5.859375
2389		11.718750
2390		5.859375
2391		11.718750
2392		5.859375
2393		11.718750
2394		3.906250
2395		11.718750
2396		3.906250
2397		11.718750
2398		3.906250
2399		9.765625
2400		5.859375
2401		7.812500
2402		5.859375
2403		9.765625
2404		1.953125
2405		9.765625
2406		1.953125
2407		9.765625
2408		1.953125
2409		9.765625
2410		1.953125
2411		7.812500
2412		1.953125
2413		9.765625
2414		1.953125
2415		7.812500
2416		1.953125
2417		5.859375
2418		1.953125
2419		5.859375
2420		0.000000
2421		7.812500
2422		0.000000
2423		7.812500
2424		0.000000
2425		5.859375
2426		0.000000
2427		5.859375
2428		0.000000
2429		5.859375
2430		-1.953125
2431		5.859375
2432		-1.953125
2433		3.906250
2434		0.000000
2435		3.906250
2436		-1.953125
2437		3.906250
2438		-1.953125
2439		3.906250
2440		-3.906250
2441		3.906250
2442		-3.906250
2443		3.906250
2444		-3.906250
2445		3.906250
2446		-5.859375
2447		1.953125
2448		-5.859375
2449		1.953125
2450		-3.906250
2451		0.000000
2452		-3.906250
2453		0.000000
2454		-5.859375
2455		0.000000
2456		-5.859375
2457		0.000000
2458		-7.812500
2459		0.000000
2460		-7.812500
2461		0.000000
2462		-7.812500
2463		0.000000
2464		-7.812500
2465		0.000000
2466		-7.812500
2467		0.000000
2468		-5.859375
2469		-3.906250
2470		-7.812500
2471		-1.953125
2472		-9.765625
2473		-1.953125
2474		-9.765625
2475		-1.953125
2476		-9.765625
2477		-3.906250
2478		-11.718750
2479		-3.906250
2480		-11.718750
2481		-1.953125
2482		-11.718750
2483		-3.906250
2484		-9.765625
2485		-5.859375
2486		-9.765625
2487		-7.812500
2488		-11.718750
2489		-5.859375
2490		-11.718750
2491		-5.859375
2492		-13.671875
2493		-5.859375
2494		-13.671875
2495		-5.859375
2496		-13.671875
2497		-7.812500
2498		-13.671875
2499		-5.859375
2500		-11.718750
2501		-7.812500
2502		-11.718750
2503		-9.765625
2504		-13.671875
2505		-7.812500
2506		-13.671875
2507		-7.812500
2508		-15.625000
2509		-7.812500
2510		-15.625000
2511		-7.812500
2512		-15.625000
2513		-9.765625
2514		-15.625000
2515		-9.765625
2516		-15.625000
2517		-9.765625
2518		-15.625000
2519		-11.718750
2520		-15.625000
2521		-11.718750
2522		-17.578125
2523		-9.765625
2524		-17.578125
2525		-11.718750
2526		-17.578125
2527		-9.765625
2528		-17.578125
2529		-11.718750
2530		-17.578125
2531		-11.718750
2532		-17.578125
2533		-11.718750
2534		-15.625000
2535		-13.671875
2536		-15.625000
2537		-13.671875
2538		-17.578125
2539		-13.671875
2540		-19.531250
2541		-11.718750
2542		-19.531250
2543		-11.718750
2544		-19.531250
2545		-13.671875
2546		-19.531250
2547		-11.718750
2548		-19.531250
2549		-13.671875
2550		-19.531250
2551		-13.671875
2552		-17.578125
2553		-15.625000
2554		-19.531250
2555		-15.625000
2556		-19.531250
2557		-15.625000
2558		-21.484375
2559		-13.671875
2560		-21.484375
2561		-15.625000
2562		-21.484375
2563		-13.671875
2564		-21.484375
2565		-13.671875
2566		-21.484375
2567		-15.625000
2568		-19.531250
2569		-15.625000
2570		-19.531250
2571		-15.625000
2572		-21.484375
2573		-15.625000
2574		-21.484375
2575		-15.625000
2576		-21.484375
2577		-15.625000
2578		-23.437500
2579		-17.578125
2580		-23.437500
2581		-15.625000
2582		-23.437500
2583		-15.625000
2584		-21.484375
2585		-17.578125
2586		-21.484375
2587		-17.578125
2588		-21.484375
2589		-17.578125
2590		-23.437500
2591		-15.625000
2592		-23.437500
2593		-17.578125
2594		-23.437500
2595		-15.625000
2596		-23.437500
2597		-17.578125
2598		-23.437500
2599		-17.578125
2600		-23.437500
2601		-17.578125
2602		-21.484375
2603		-17.578125
2604		-21.484375
2605		-17.578125
2606		-23.437500
2607		-17.578125
2608		-23.437500
2609		-15.625000
2610		-23.437500
2611		-17.578125
2612		-23.437500
2613		-17.578125
2614		-23.437500
2615		-17.578125
2616		-23.437500
2617		-17.578125
2618		-21.484375
2619		-19.531250
2620		-21.484375
2621		-17.578125
2622		-23.437500
2623		-17.578125
2624		-23.437500
2625		-15.625000
2626		-23.437500
2627		-15.625000
2628		-23.437500
2629		-17.578125
2630		-23.437500
2631		-17.578125
2632		-23.437500
2633		-17.578125
2634		-23.437500
2635		-17.578125
2636		-21.484375
2637		-19.531250
2638		-21.484375
2639		-17.578125
2640		-23.437500
2641		-17.578125
2642		-23.437500
2643		-15.625000
2644		-23.437500
2645		-15.625000
2646		-23.437500
2647		-15.625000
2648		-23.437500
2649		-17.578125
2650		-21.484375
2651		-15.625000
2652		-19.531250
2653		-17.578125
2654		-21.484375
2655		-17.578125
2656		-21.484375
2657		-15.625000
2658		-21.484375
2659		-15.625000
2660		-21.484375
2661		-15.625000
2662		-21.484375
2663		-15.625000
2664		-21.484375
2665		-15.625000
2666		-21.484375
2667		-13.671875
2668		-19.531250
2669		-17.578125
2670		-19.531250
2671		-15.625000
2672		-19.531250
2673		-15.625000
2674		-19.531250
2675		-15.625000
2676		-21.484375
2677		-13.671875
2678		-21.484375
2679		-15.625000
2680		-21.484375
2681		-13.671875
2682		-19.531250
2683		-13.671875
2684		-19.531250
2685		-15.625000
2686		-17.578125
2687		-15.625000
2688		-17.578125
2689		-13.671875
2690		-17.578125
2691		-13.671875
2692		-17.578125
2693		-13.671875
2694		-17.578125
2695		-13.671875
2696		-17.578125
2697		-13.671875
2698		-17.578125
2699		-11.718750
2700		-17.578125
2701		-11.718750
2702		-15.625000
2703		-13.671875
2704		-15.625000
2705		-11.718750
2706		-15.625000
2707		-11.718750
2708		-15.625000
2709		-11.718750
2710		-15.625000
2711		-11.718750
2712		-13.671875
2713		-11.718750
2714		-13.671875
2715		-9.765625
2716		-13.671875
2717		-11.718750
2718		-13.671875
2719		-9.765625
2720		-13.671875
2721		-11.718750
2722		-13.671875
2723		-9.765625
2724		-13.671875
2725		-9.765625
2726		-13.671875
2727		-9.765625
2728		-11.718750
2729		-9.765625
2730		-11.718750
2731		-7.812500
2732		-11.718750
2733		-7.812500
2734		-11.718750
2735		-7.812500
2736		-9.765625
2737		-7.812500
2738		-11.718750
2739		-7.812500
2740		-11.718750
2741		-5.859375
2742		-9.765625
2743		-7.812500
2744		-9.765625
2745		-5.859375
2746		-9.765625
2747		-5.859375
2748		-9.765625
2749		-5.859375
2750		-9.765625
2751		-5.859375
2752		-9.765625
2753		-5.859375
2754		-7.812500
2755		-3.906250
2756		-7.812500
2757		-3.906250
2758		-7.812500
2759		-3.906250
2760		-7.812500
2761		-3.906250
2762		-7.812500
2763		-3.906250
2764		-5.859375
2765		-3.906250
2766		-7.812500
2767		-1.953125
2768		-5.859375
2769		-1.953125
2770		-3.906250
2771		-1.953125
2772		-5.859375
2773		-1.953125
2774		-3.906250
2775		-1.953125
2776		-3.906250
2777		0.000000
2778		-3.906250
2779		0.000000
2780		-3.906250
2781		0.000000
2782		-3.906250
2783		0.000000
2784		-1.953125
2785		1.953125
2786		-1.953125
2787		1.953125
2788		-1.953125
2789		0.000000
2790		-1.953125
2791		1.953125
2792		-1.953125
2793		1.953125
2794		0.000000
2795		1.953125
2796		0.000000
2797		3.906250
2798		0.000000
2799		3.906250
2800		0.000000
2801		3.906250
2802		1.953125
2803		3.906250
2804		0.000000
2805		3.906250
2806		1.953125
2807		3.906250
2808		1.953125
2809		3.906250
2810		0.000000
2811		5.859375
2812		1.953125
2813		5.859375
2814		1.953125
2815		5.859375
2816		3.906250
2817		5.859375
2818		3.906250
2819		7.812500
2820		3.906250
2821		7.812500
2822		3.906250
2823		7.812500
2824		3.906250
2825		7.812500
2826		3.906250
2827		7.812500
2828		5.859375
2829		9.765625
2830		5.859375
2831		9.765625
2832		5.859375
2833		9.765625
2834		5.859375
2835		9.765625
2836		5.859375
2837		9.765625
2838		7.812500
2839		9.765625
2840		7.812500
2841		11.718750
2842		7.812500
2843		11.718750
2844		7.812500
2845		11.718750
2846		7.812500
2847		11.718750
2848		7.812500
2849		11.718750
2850		9.765625
2851		11.718750
2852		7.812500
2853		13.671875
2854		9.765625
2855		13.671875
2856		9.765625
2857		13.671875
2858		9.765625
2859		13.671875
2860		9.765625
2861		15.625000
2862		11.718750
2863		13.671875
2864		11.718750
2865		15.625000
2866		11.718750
2867		15.625000
2868		11.718750
2869		15.625000
2870		11.718750
2871		15.625000
2872		13.671875
2873		15.625000
2874		11.718750
2875		17.578125
2876		13.671875
2877		15.625000
2878		11.718750
2879		17.578125
2880		13.671875
2881		15.625000
2882		13.671875
2883		17.578125
2884		11.718750
2885		17.578125
2886		13.671875
2887		17.578125
2888		15.625000
2889		17.578125
2890		13.671875
2891		17.578125
2892		15.625000
2893		17.578125
2894		15.625000
2895		19.531250
2896		15.625000
2897		19.531250
2898		15.625000
2899		19.531250
2900		15.625000
2901		19.531250
2902		15.625000
2903		19.531250
2904		17.578125
2905		19.531250
2906		15.625000
2907		19.531250
2908		17.578125
2909		19.531250
2910		17.578125
2911		19.531250
2912		17.578125
2913		19.531250
2914		17.578125
2915		21.484375
2916		17.578125
2917		19.531250
2918		17.578125
2919		21.484375
2920		17.578125
2921		21.484375
2922		17.578125
2923		21.484375
2924		17.578125
2925		21.484375
2926		17.578125
2927		21.484375
2928		17.578125
2929		21.484375
2930		17.578125
2931		21.484375
2932		17.578125
2933		21.484375
2934		17.578125
2935		21.484375
2936		19.531250
2937		23.437500
2938		19.531250
2939		21.484375
2940		17.578125
2941		23.437500
2942		17.578125
2943		23.437500
2944		17.578125
2945		23.437500
2946		19.531250
2947		23.437500
2948		19.531250
2949		21.484375
2950		17.578125
2951		23.437500
2952		19.531250
2953		23.437500
2954		19.531250
2955		23.437500
2956		19.531250
2957		23.437500
2958		19.531250
2959		23.437500
2960		19.531250
2961		23.437500
2962		19.531250
2963		23.437500
2964		19.531250
2965		23.437500
2966		19.531250
2967		23.437500
2968		19.531250
2969		23.437500
2970		19.531250
2971		23.437500
2972		21.484375
2973		23.437500
2974		19.531250
2975		23.437500
2976		19.531250
2977		23.437500
2978		19.531250
2979		23.437500
2980		19.531250
2981		23.437500
2982		19.531250
2983		23.437500
2984		19.531250
2985		23.437500
2986		19.531250
2987		23.437500
2988		21.484375
2989		23.437500
2990		19.531250
2991		23.437500
2992		19.531250
2993		23.437500
2994		19.531250
2995		23.437500
2996		19.531250
2997		23.437500
2998		19.531250
2999		23.437500
3000		19.531250
3001		23.437500
3002		19.531250
3003		23.437500
3004		19.531250
3005		23.437500
3006		19.531250
3007		21.484375
3008		19.531250
3009		23.437500
3010		19.531250
3011		23.437500
3012		19.531250
3013		23.437500
3014		19.531250
3015		21.484375
3016		19.531250
3017		21.484375
3018		19.531250
3019		23.437500
3020		19.531250
3021		23.437500
3022		19.531250
3023		21.484375
3024		17.578125
3025		23.437500
3026		17.578125
3027		21.484375
3028		17.578125
3029		21.484375
3030		19.531250
3031		21.484375
3032		17.578125
3033		21.484375
3034		17.578125
3035		21.484375
3036		17.578125
3037		21.484375
3038		17.578125
3039		21.484375
3040		17.578125
3041		21.484375
3042		15.625000
3043		21.484375
3044		17.578125
3045		19.531250
3046		17.578125
3047		21.484375
3048		15.625000
3049		21.484375
3050		17.578125
3051		19.531250
3052		15.625000
3053		21.484375
3054		15.625000
3055		21.484375
3056		15.625000
3057		19.531250
3058		15.625000
3059		19.531250
3060		15.625000
3061		19.531250
3062		13.671875
3063		19.531250
3064		15.625000
3065		17.578125
3066		15.625000
3067		17.578125
3068		15.625000
3069		19.531250
3070		13.671875
3071		19.531250
3072		13.671875
3073		17.578125
3074		13.671875
3075		15.625000
3076		11.718750
3077		17.578125
3078		11.718750
3079		17.578125
3080		13.671875
3081		15.625000
3082		11.718750
3083		15.625000
3084		11.718750
3085		15.625000
3086		11.718750
3087		15.625000
3088		11.718750
3089		15.625000
3090		11.718750
3091		13.671875
3092		9.765625
3093		15.625000
3094		11.718750
3095		13.671875
3096		11.718750
3097		13.671875
3098		9.765625
3099		13.671875
3100		9.765625
3101		13.671875
3102		9.765625
3103		13.671875
3104		9.765625
3105		13.671875
3106		9.765625
3107		11.718750
3108		7.812500
3109		13.671875
3110		7.812500
3111		11.718750
3112		7.812500
3113		11.718750
3114		7.812500
3115		11.718750
3116		7.812500
3117		11.718750
3118		7.812500
3119		9.765625
3120		5.859375
3121		11.718750
3122		5.859375
3123		11.718750
3124		5.859375
3125		9.765625
3126		5.859375
3127		9.765625
3128		5.859375
3129		9.765625
3130		3.906250
3131		9.765625
3132		5.859375
3133		9.765625
3134		5.859375
3135		7.812500
3136		3.906250
3137		7.812500
3138		3.906250
3139		7.812500
3140		3.906250
3141		5.859375
3142		1.953125
3143		7.812500
3144		3.906250
3145		5.859375
3146		1.953125
3147		5.859375
3148		1.953125
3149		5.859375
3150		1.953125
3151		5.859375
3152		1.953125
3153		5.859375
3154		0.000000
3155		3.906250
3156		1.953125
3157		3.906250
3158		0.000000
3159		3.906250
3160		0.000000
3161		3.906250
3162		0.000000
3163		3.906250
3164		0.000000
3165		3.906250
3166		0.000000
3167		1.953125
3168		-1.953125
3169		1.953125
3170		-1.953125
3171		1.953125
3172		-1.953125
3173		1.953125
3174		-1.953125
3175		1.953125
3176		-3.906250
3177		1.953125
3178		-3.906250
3179		0.000000
3180		-3.906250
3181		0.000000
3182		-3.906250
3183		0.000000
3184		-3.906250
3185		0.000000
3186		-3.906250
3187		-1.953125
3188		-5.859375
3189		-1.953125
3190		-5.859375
3191		-1.953125
3192		-5.859375
3193		-1.953125
3194		-5.859375
3195		-1.953125
3196		-5.859375
3197		-3.906250
3198		-5.859375
3199		-3.906250
3200		-7.812500
3201		-3.906250
3202		-7.812500
3203		-3.906250
3204		-7.812500
3205		-3.906250
3206		-7.812500
3207		-3.906250
3208		-9.765625
3209		-3.906250
3210		-9.765625
3211		-5.859375
3212		-9.765625
3213		-5.859375
3214		-9.765625
3215		-5.859375
3216		-9.765625
3217		-5.859375
3218		-9.765625
3219		-5.859375
3220		-9.765625
3221		-5.859375
3222		-9.765625
3223		-7.812500
3224		-11.718750
3225		-5.859375
3226		-11.718750
3227		-7.812500
3228		-11.718750
3229		-7.812500
3230		-11.718750
3231		-7.812500
3232		-11.718750
3233		-7.812500
3234		-13.671875
3235		-9.765625
3236		-13.671875
3237		-9.765625
3238		-13.671875
3239		-9.765625
3240		-13.671875
3241		-9.765625
3242		-13.671875
3243		-9.765625
3244		-13.671875
3245		-9.765625
3246		-13.671875
3247		-9.765625
3248		-13.671875
3249		-11.718750
3250		-13.671875
3251		-11.718750
3252		-15.625000
3253		-11.718750
3254		-15.625000
3255		-11.718750
3256		-15.625000
3257		-11.718750
3258		-15.625000
3259		-11.718750
3260		-15.625000
3261		-11.718750
3262		-15.625000
3263		-11.718750
3264		-15.625000
3265		-13.671875
3266		-17.578125
3267		-11.718750
3268		-15.625000
3269		-13.671875
3270		-17.578125
3271		-13.671875
3272		-17.578125
3273		-13.671875
3274		-17.578125
3275		-13.671875
3276		-17.578125
3277		-15.625000
3278		-17.578125
3279		-13.671875
3280		-17.578125
3281		-13.671875
3282		-17.578125
3283		-15.625000
3284		-17.578125
3285		-15.625000
3286		-17.578125
3287		-15.625000
3288		-19.531250
3289		-15.625000
3290		-19.531250
3291		-13.671875
3292		-19.531250
3293		-15.625000
3294		-19.531250
3295		-15.625000
3296		-19.531250
3297		-15.625000
3298		-19.531250
3299		-15.625000
3300		-19.531250
3301		-15.625000
3302		-19.531250
3303		-15.625000
3304		-19.531250
3305		-17.578125
3306		-19.531250
3307		-15.625000
3308		-19.531250
3309		-15.625000
3310		-21.484375
3311		-17.578125
3312		-19.531250
3313		-17.578125
3314		-19.531250
3315		-17.578125
3316		-19.531250
3317		-17.578125
3318		-21.484375
3319		-17.578125
3320		-21.484375
3321		-17.578125
3322		-21.484375
3323		-17.578125
3324		-21.484375
3325		-17.578125
3326		-21.484375
3327		-17.578125
3328		-21.484375
3329		-17.578125
3330		-21.484375
3331		-17.578125
3332		-21.484375
3333		-17.578125
3334		-21.484375
3335		-17.578125
3336		-21.484375
3337		-17.578125
3338		-21.484375
3339		-17.578125
3340		-21.484375
3341		-17.578125
3342		-21.484375
3343		-17.578125
3344		-21.484375
3345		-17.578125
3346		-21.484375
3347		-17.578125
3348		-21.484375
3349		-17.578125
3350		-21.484375
3351		-17.578125
3352		-21.484375
3353		-17.578125
3354		-21.484375
3355		-17.578125
3356		-21.484375
3357		-17.578125
3358		-21.484375
3359		-17.578125
3360		-21.484375
3361		-19.531250
3362		-21.484375
3363		-17.578125
3364		-21.484375
3365		-17.578125
3366		-21.484375
3367		-17.578125
3368		-21.484375
3369		-17.578125
3370		-21.484375
3371		-17.578125
3372		-21.484375
3373		-17.578125
3374		-21.484375
3375		-17.578125
3376		-21.484375
3377		-17.578125
3378		-21.484375
3379		-17.578125
3380		-21.484375
3381		-17.578125
3382		-21.484375
3383		-17.578125
3384		-21.484375
3385		-17.578125
3386		-19.531250
3387		-17.578125
3388		-21.484375
3389		-17.578125
3390		-21.484375
3391		-17.578125
3392		-19.531250
3393		-17.578125
3394		-19.531250
3395		-15.625000
3396		-19.531250
3397		-17.578125
3398		-19.531250
3399		-15.625000
3400		-19.531250
3401		-15.625000
3402		-19.531250
3403		-15.625000
3404		-19.531250
3405		-15.625000
3406		-19.531250
3407		-15.625000
3408		-17.578125
3409		-15.625000
3410		-19.531250
3411		-15.625000
3412		-19.531250
3413		-15.625000
3414		-19.531250
3415		-15.625000
3416		-19.531250
3417		-15.625000
3418		-17.578125
3419		-13.671875
3420		-17.578125
3421		-13.671875
3422		-17.578125
3423		-13.671875
3424		-17.578125
3425		-13.671875
3426		-17.578125
3427		-13.671875
3428		-17.578125
3429		-13.671875
3430		-17.578125
3431		-13.671875
3432		-15.625000
3433		-13.671875
3434		-17.578125
3435		-13.671875
3436		-15.625000
3437		-11.718750
3438		-15.625000
3439		-11.718750
3440		-15.625000
3441		-11.718750
3442		-15.625000
3443		-11.718750
3444		-13.671875
3445		-11.718750
3446		-15.625000
3447		-11.718750
3448		-13.671875
3449		-11.718750
3450		-13.671875
3451		-11.718750
3452		-13.671875
3453		-9.765625
3454		-13.671875
3455		-9.765625
3456		-13.671875
3457		-9.765625
3458		-13.671875
3459		-9.765625
3460		-13.671875
3461		-9.765625
3462		-11.718750
3463		-7.812500
3464		-11.718750
3465		-9.765625
3466		-11.718750
3467		-7.812500
3468		-11.718750
3469		-7.812500
3470		-11.718750
3471		-7.812500
3472		-11.718750
3473		-7.812500
3474		-11.718750
3475		-7.812500
3476		-11.718750
3477		-5.859375
3478		-9.765625
3479		-5.859375
3480		-9.765625
3481		-5.859375
3482		-9.765625
3483		-5.859375
3484		-9.765625
3485		-5.859375
3486		-7.812500
3487		-5.859375
3488		-7.812500
3489		-3.906250
3490		-7.812500
3491		-3.906250
3492		-7.812500
3493		-3.906250
3494		-5.859375
3495		-3.906250
3496		-7.812500
3497		-3.906250
3498		-7.812500
3499		-3.906250
3500		-5.859375
3501		-1.953125
3502		-5.859375
3503		-1.953125
3504		-5.859375
3505		-1.953125
3506		-5.859375
3507		-1.953125
3508		-3.906250
3509		0.000000
3510		-3.906250
3511		-1.953125
3512		-3.906250
3513		0.000000
3514		-3.906250
3515		0.000000
3516		-3.906250
3517		0.000000
3518		-3.906250
3519		0.000000
3520		-1.953125
3521		0.000000
3522		-1.953125
3523		0.000000
3524		-3.906250
3525		1.953125
3526		-1.953125
3527		1.953125
3528		-1.953125
3529		1.953125
3530		-1.953125
3531		1.953125
3532		0.000000
3533		1.953125
3534		0.000000
3535		3.906250
3536		0.000000
3537		3.906250
3538		0.000000
3539		3.906250
3540		0.000000
3541		5.859375
3542		0.000000
3543		5.859375
3544		1.953125
3545		3.906250
3546		1.953125
3547		5.859375
3548		1.953125
3549		5.859375
3550		1.953125
3551		5.859375
3552		1.953125
3553		5.859375
3554		3.906250
3555		7.812500
3556		3.906250
3557		7.812500
3558		3.906250
3559		7.812500
3560		5.859375
3561		7.812500
3562		3.906250
3563		7.812500
3564		3.906250
3565		9.765625
3566		5.859375
3567		9.765625
3568		5.859375
3569		9.765625
3570		5.859375
3571		9.765625
3572		5.859375
3573		9.765625
3574		7.812500
3575		9.765625
3576		7.812500
3577		9.765625
3578		7.812500
3579		11.718750
3580		7.812500
3581		11.718750
3582		7.812500
3583		11.718750
3584		7.812500
3585		13.671875
3586		9.765625
3587		11.718750
3588		9.765625
3589		13.671875
3590		9.765625
3591		13.671875
3592		9.765625
3593		13.671875
3594		9.765625
3595		13.671875
3596		9.765625
3597		15.625000
3598		9.765625
3599		15.625000
3600		11.718750
3601		13.671875
3602		11.718750
3603		15.625000
3604		11.718750
3605		15.625000
3606		11.718750
3607		15.625000
3608		11.718750
3609		15.625000
3610		11.718750
3611		15.625000
3612		13.671875
3613		15.625000
3614		11.718750
3615		17.578125
3616		13.671875
3617		17.578125
3618		13.671875
3619		17.578125
3620		13.671875
3621		17.578125
3622		13.671875
3623		17.578125
3624		13.671875
3625		17.578125
3626		13.671875
3627		19.531250
3628		15.625000
3629		17.578125
3630		15.625000
3631		19.531250
3632		15.625000
3633		19.531250
3634		15.625000
3635		19.531250
3636		15.625000
3637		19.531250
3638		15.625000
3639		19.531250
3640		17.578125
3641		19.531250
3642		15.625000
3643		19.531250
3644		17.578125
3645		19.531250
3646		15.625000
3647		21.484375
3648		15.625000
3649		19.531250
3650		17.578125
3651		21.484375
3652		17.578125
3653		21.484375
3654		17.578125
3655		21.484375
3656		17.578125
3657		21.484375
3658		17.578125
3659		21.484375
3660		17.578125
3661		21.484375
3662		19.531250
3663		21.484375
3664		17.578125
3665		23.437500
3666		19.531250
3667		21.484375
3668		19.531250
3669		21.484375
3670		19.531250
3671		21.484375
3672		19.531250
3673		21.484375
3674		19.531250
3675		23.437500
3676		17.578125
3677		23.437500
3678		19.531250
3679		23.437500
3680		19.531250
3681		23.437500
3682		19.531250
3683		23.437500
3684		19.531250
3685		23.437500
3686		19.531250
3687		23.437500
3688		19.531250
3689		23.437500
3690		19.531250
3691		23.437500
3692		19.531250
3693		23.437500
3694		19.531250
3695		23.437500
3696		19.531250
3697		23.437500
3698		19.531250
3699		23.437500
3700		19.531250
3701		23.437500
3702		19.531250
3703		23.437500
3704		19.531250
3705		23.437500
3706		19.531250
3707		23.437500
3708		19.531250
3709		23.437500
3710		19.531250
3711		23.437500
3712		21.484375
3713		23.437500
3714		19.531250
3715		25.390625
3716		19.531250
3717		23.437500
3718		19.531250
3719		23.437500
3720		21.484375
3721		23.437500
3722		19.531250
3723		23.437500
3724		21.484375
3725		23.437500
3726		19.531250
3727		23.437500
3728		21.484375
3729		23.437500
3730		21.484375
3731		23.437500
3732		19.531250
3733		23.437500
3734		19.531250
3735		23.437500
3736		21.484375
3737		23.437500
3738		19.531250
3739		23.437500
3740		19.531250
3741		23.437500
3742		19.531250
3743		23.437500
3744		19.531250
3745		23.437500
3746		19.531250
3747		23.437500
3748		19.531250
3749		23.437500
3750		19.531250
3751		23.437500
3752		19.531250
3753		23.437500
3754		19.531250
3755		23.437500
3756		19.531250
3757		23.437500
3758		19.531250
3759		23.437500
3760		17.578125
3761		23.437500
3762		19.531250
3763		21.484375
3764		17.578125
3765		21.484375
3766		17.578125
3767		21.484375
3768		17.578125
3769		21.484375
3770		17.578125
3771		21.484375
3772		17.578125
3773		21.484375
3774		17.578125
3775		21.484375
3776		17.578125
3777		21.484375
3778		17.578125
3779		21.484375
3780		17.578125
3781		19.531250
3782		17.578125
3783		21.484375
3784		17.578125
3785		19.531250
3786		15.625000
3787		19.531250
3788		17.578125
3789		19.531250
3790		15.625000
3791		19.531250
3792		15.625000
3793		19.531250
3794		15.625000
3795		19.531250
3796		15.625000
3797		19.531250
3798		13.671875
3799		19.531250
3800		15.625000
3801		19.531250
3802		13.671875
3803		19.531250
3804		15.625000
3805		17.578125
3806		13.671875
3807		17.578125
3808		13.671875
3809		17.578125
3810		13.671875
3811		17.578125
3812		13.671875
3813		15.625000
3814		13.671875
3815		17.578125
3816		13.671875
3817		15.625000
3818		11.718750
3819		15.625000
3820		11.718750
3821		15.625000
3822		11.718750
3823		15.625000
3824		11.718750
3825		15.625000
3826		11.718750
3827		15.625000
3828		9.765625
3829		15.625000
3830		11.718750
3831		13.671875
3832		9.765625
3833		13.671875
3834		9.765625
3835		13.671875
3836		9.765625
3837		13.671875
3838		9.765625
3839		13.671875
3840		9.765625
3841		13.671875
3842		9.765625
3843		13.671875
3844		9.765625
3845		11.718750
3846		9.765625
3847		11.718750
3848		7.812500
3849		11.718750
3850		7.812500
3851		11.718750
3852		7.812500
3853		11.718750
3854		7.812500
3855		11.718750
3856		7.812500
3857		9.765625
3858		5.859375
3859		9.765625
3860		5.859375
3861		9.765625
3862		5.859375
3863		9.765625
3864		5.859375
3865		7.812500
3866		3.906250
3867		9.765625
3868		3.906250
3869		7.812500
3870		3.906250
3871		7.812500
3872		3.906250
3873		9.765625
3874		3.906250
3875		7.812500
3876		3.906250
3877		7.812500
3878		3.906250
3879		7.812500
3880		3.906250
3881		5.859375
3882		1.953125
3883		5.859375
3884		1.953125
3885		5.859375
3886		1.953125
3887		5.859375
3888		0.000000
3889		5.859375
3890		1.953125
3891		3.906250
3892		0.000000
3893		3.906250
3894		0.000000
3895		3.906250
3896		0.000000
3897		3.906250
3898		0.000000
3899		1.953125
3900		0.000000
3901		3.906250
3902		-1.953125
3903		1.953125
3904		-1.953125
3905		1.953125
3906		-1.953125
3907		1.953125
3908		-1.953125
3909		0.000000
3910		-1.953125
3911		0.000000
3912		-3.906250
3913		1.953125
3914		-3.906250
3915		0.000000
3916		-3.906250
3917		0.000000
3918		-3.906250
3919		0.000000
3920		-3.906250
3921		-1.953125
3922		-5.859375
3923		-1.953125
3924		-5.859375
3925		0.000000
3926		-5.859375
3927		-1.953125
3928		-5.859375
3929		-3.906250
3930		-5.859375
3931		-3.906250
3932		-7.812500
3933		-3.906250
3934		-5.859375
3935		-3.906250
3936		-7.812500
3937		-3.906250
3938		-7.812500
3939		-5.859375
3940		-7.812500
3941		-5.859375
3942		-7.812500
3943		-5.859375
3944		-9.765625
3945		-5.859375
3946		-9.765625
3947		-5.859375
3948		-9.765625
3949		-5.859375
3950		-9.765625
3951		-5.859375
3952		-9.765625
3953		-7.812500
3954		-11.718750
3955		-7.812500
3956		-11.718750
3957		-7.812500
3958		-11.718750
3959		-7.812500
3960		-11.718750
3961		-7.812500
3962		-11.718750
3963		-7.812500
3964		-11.718750
3965		-9.765625
3966		-13.671875
3967		-9.765625
3968		-13.671875
3969		-9.765625
3970		-13.671875
3971		-9.765625
3972		-13.671875
3973		-9.765625
3974		-13.671875
3975		-9.765625
3976		-13.671875
3977		-9.765625
3978		-13.671875
3979		-11.718750
3980		-15.625000
3981		-11.718750
3982		-13.671875
3983		-11.718750
3984		-15.625000
3985		-11.718750
3986		-15.625000
3987		-11.718750
3988		-15.625000
3989		-11.718750
3990		-15.625000
3991		-11.718750
3992		-15.625000
3993		-11.718750
3994		-17.578125
3995		-13.671875
3996		-17.578125
3997		-13.671875
3998		-17.578125
3999		-11.718750
4000		-17.578125
4001		-13.671875
4002		-17.578125
4003		-13.671875
4004		-17.578125
4005		-13.671875
4006		-17.578125
4007		-13.671875
4008		-17.578125
4009		-13.671875
4010		-17.578125
4011		-13.671875
4012		-19.531250
4013		-15.625000
4014		-17.578125
4015		-15.625000
4016		-19.531250
4017		-15.625000
4018		-19.531250
4019		-15.625000
4020		-19.531250
4021		-15.625000
4022		-19.531250
4023		-15.625000
4024		-19.531250
4025		-15.625000
4026		-19.531250
4027		-15.625000
4028		-21.484375
4029		-15.625000
4030		-19.531250
4031		-17.578125
4032		-19.531250
4033		-17.578125
4034		-21.484375
4035		-15.625000
4036		-21.484375
4037		-15.625000
4038		-19.531250
4039		-17.578125
4040		-21.484375
4041		-17.578125
4042		-19.531250
4043		-17.578125
4044		-21.484375
4045		-17.578125
4046		-21.484375
4047		-15.625000
4048		-21.484375
4049		-17.578125
4050		-21.484375
4051		-17.578125
4052		-21.484375
4053		-17.578125
4054		-21.484375
4055		-17.578125
4056		-21.484375
4057		-17.578125
4058		-21.484375
4059		-17.578125
4060		-21.484375
4061		-17.578125
4062		-23.437500
4063		-17.578125
4064		-21.484375
4065		-17.578125
4066		-21.484375
4067		-17.578125
4068		-21.484375
4069		-17.578125
4070		-21.484375
4071		-17.578125
4072		-21.484375
4073		-17.578125
4074		-21.484375
4075		-17.578125
4076		-21.484375
4077		-17.578125
4078		-21.484375
4079		-17.578125
4080		-21.484375
4081		-17.578125
4082		-21.484375
4083		-17.578125
4084		-21.484375
4085		-17.578125
4086		-21.484375
4087		-17.578125
4088		-21.484375
4089		-17.578125
4090		-21.484375
4091		-17.578125
4092		-21.484375
4093		-17.578125
4094		-21.484375
4095		-17.578125
4096		-21.484375
4097		-17.578125
4098		-21.484375
4099		-17.578125
4100		-21.484375
4101		-17.578125
4102		-21.484375
4103		-17.578125
4104		-21.484375
4105		-17.578125
4106		-19.531250
4107		-17.578125
4108		-21.484375
4109		-17.578125
4110		-21.484375
4111		-17.578125
4112		-21.484375
4113		-17.578125
4114		-19.531250
4115		-15.625000
4116		-19.531250
4117		-17.578125
4118		-21.484375
4119		-17.578125
4120		-21.484375
4121		-15.625000
4122		-19.531250
4123		-17.578125
4124		-19.531250
4125		-17.578125
4126		-19.531250
4127		-15.625000
4128		-19.531250
4129		-15.625000
4130		-19.531250
4131		-15.625000
4132		-19.531250
4133		-15.625000
4134		-19.531250
4135		-15.625000
4136		-19.531250
4137		-15.625000
4138		-17.578125
4139		-15.625000
4140		-17.578125
4141		-15.625000
4142		-17.578125
4143		-13.671875
4144		-17.578125
4145		-15.625000
4146		-19.531250
4147		-13.671875
4148		-17.578125
4149		-15.625000
4150		-17.578125
4151		-13.671875
4152		-17.578125
4153		-13.671875
4154		-17.578125
4155		-13.671875
4156		-17.578125
4157		-11.718750
4158		-17.578125
4159		-13.671875
4160		-15.625000
4161		-13.671875
4162		-15.625000
4163		-11.718750
4164		-15.625000
4165		-11.718750
4166		-15.625000
4167		-11.718750
4168		-15.625000
4169		-11.718750
4170		-15.625000
4171		-11.718750
4172		-15.625000
4173		-11.718750
4174		-15.625000
4175		-11.718750
4176		-15.625000
4177		-9.765625
4178		-13.671875
4179		-11.718750
4180		-13.671875
4181		-9.765625
4182		-13.671875
4183		-11.718750
4184		-13.671875
4185		-9.765625
4186		-13.671875
4187		-9.765625
4188		-13.671875
4189		-9.765625
4190		-11.718750
4191		-9.765625
4192		-11.718750
4193		-7.812500
4194		-11.718750
4195		-9.765625
4196		-11.718750
4197		-7.812500
4198		-11.718750
4199		-7.812500
4200		-9.765625
4201		-7.812500
4202		-11.718750
4203		-5.859375
4204		-11.718750
4205		-7.812500
4206		-9.765625
4207		-7.812500
4208		-11.718750
4209		-5.859375
4210		-9.765625
4211		-5.859375
4212		-9.765625
4213		-5.859375
4214		-9.765625
4215		-3.906250
4216		-7.812500
4217		-5.859375
4218		-7.812500
4219		-3.906250
4220		-7.812500
4221		-5.859375
4222		-7.812500
4223		-3.906250
4224		-7.812500
4225		-3.906250
4226		-7.812500
4227		-3.906250
4228		-7.812500
4229		-3.906250
4230		-7.812500
4231		-1.953125
4232		-5.859375
4233		-1.953125
4234		-5.859375
4235		-1.953125
4236		-5.859375
4237		-1.953125
4238		-5.859375
4239		-1.953125
4240		-3.906250
4241		-1.953125
4242		-3.906250
4243		0.000000
4244		-3.906250
4245		0.000000
4246		-3.906250
4247		0.000000
4248		-3.906250
4249		0.000000
4250		-1.953125
4251		0.000000
4252		-3.906250
4253		1.953125
4254		-1.953125
4255		0.000000
4256		-1.953125
4257		1.953125
4258		-1.953125
4259		1.953125
4260		-1.953125
4261		1.953125
4262		0.000000
4263		1.953125
4264		0.000000
4265		3.906250
4266		0.000000
4267		1.953125
4268		0.000000
4269		3.906250
4270		0.000000
4271		3.906250
4272		0.000000
4273		3.906250
4274		0.000000
4275		3.906250
4276		1.953125
4277		5.859375
4278		1.953125
4279		5.859375
4280		1.953125
4281		5.859375
4282		1.953125
4283		7.812500
4284		3.906250
4285		5.859375
4286		3.906250
4287		5.859375
4288		3.906250
4289		7.812500
4290		3.906250
4291		7.812500
4292		3.906250
4293		7.812500
4294		3.906250
4295		7.812500
4296		5.859375
4297		7.812500
4298		3.906250
4299		9.765625
4300		5.859375
4301		7.812500
4302		5.859375
4303		9.765625
4304		5.859375
4305		9.765625
4306		5.859375
4307		9.765625
4308		5.859375
4309		9.765625
4310		7.812500
4311		9.765625
4312		7.812500
4313		11.718750
4314		5.859375
4315		11.718750
4316		7.812500
4317		11.718750
4318		7.812500
4319		13.671875
4320		7.812500
4321		11.718750
4322		9.765625
4323		11.718750
4324		9.765625
4325		13.671875
4326		9.765625
4327		13.671875
4328		9.765625
4329		13.671875
4330		9.765625
4331		13.671875
4332		9.765625
4333		13.671875
4334		11.718750
4335		13.671875
4336		11.718750
4337		15.625000
4338		11.718750
4339		13.671875
4340		11.718750
4341		15.625000
4342		11.718750
4343		15.625000
4344		11.718750
4345		15.625000
4346		11.718750
4347		15.625000
4348		11.718750
4349		15.625000
4350		13.671875
4351		15.625000
4352		13.671875
4353		17.578125
4354		13.671875
4355		17.578125
4356		13.671875
4357		17.578125
4358		13.671875
4359		17.578125
4360		13.671875
4361		17.578125
4362		13.671875
4363		19.531250
4364		15.625000
4365		17.578125
4366		13.671875
4367		19.531250
4368		15.625000
4369		19.531250
4370		15.625000
4371		19.531250
4372		15.625000
4373		19.531250
4374		15.625000
4375		19.531250
4376		15.625000
4377		19.531250
4378		15.625000
4379		19.531250
4380		15.625000
4381		19.531250
4382		15.625000
4383		19.531250
4384		15.625000
4385		19.531250
4386		15.625000
4387		21.484375
4388		17.578125
4389		19.531250
4390		17.578125
4391		19.531250
4392		17.578125
4393		19.531250
4394		17.578125
4395		21.484375
4396		17.578125
4397		21.484375
4398		17.578125
4399		21.484375
4400		17.578125
4401		21.484375
4402		17.578125
4403		21.484375
4404		17.578125
4405		21.484375
4406		17.578125
4407		21.484375
4408		17.578125
4409		21.484375
4410		19.531250
4411		21.484375
4412		19.531250
4413		21.484375
4414		19.531250
4415		21.484375
4416		17.578125
4417		21.484375
4418		19.531250
4419		21.484375
4420		19.531250
4421		23.437500
4422		19.531250
4423		23.437500
4424		19.531250
4425		23.437500
4426		19.531250
4427		23.437500
4428		19.531250
4429		23.437500
4430		19.531250
4431		23.437500
4432		19.531250
4433		23.437500
4434		19.531250
4435		23.437500
4436		19.531250
4437		23.437500
4438		19.531250
4439		23.437500
4440		19.531250
4441		23.437500
4442		19.531250
4443		23.437500
4444		19.531250
4445		23.437500
4446		19.531250
4447		23.437500
4448		19.531250
4449		23.437500
4450		19.531250
4451		23.437500
4452		19.531250
4453		23.437500
4454		19.531250
4455		23.437500
4456		19.531250
4457		23.437500
4458		19.531250
4459		23.437500
4460		19.531250
4461		23.437500
4462		19.531250
4463		23.437500
4464		19.531250
4465		23.437500
4466		19.531250
4467		23.437500
4468		19.531250
4469		23.437500
4470		19.531250
4471		23.437500
4472		19.531250
4473		23.437500
4474		19.531250
4475		23.437500
4476		19.531250
4477		23.437500
4478		19.531250
4479		23.437500
4480		19.531250
4481		23.437500
4482		19.531250
4483		23.437500
4484		19.531250
4485		23.437500
4486		19.531250
4487		21.484375
4488		19.531250
4489		23.437500
4490		19.531250
4491		21.484375
4492		19.531250
4493		23.437500
4494		19.531250
4495		23.437500
4496		19.531250
4497		21.484375
4498		19.531250
4499		21.484375
4500		17.578125
4501		23.437500
4502		19.531250
4503		21.484375
4504		17.578125
4505		21.484375
4506		17.578125
4507		21.484375
4508		17.578125
4509		21.484375
4510		17.578125
4511		21.484375
4512		17.578125
4513		21.484375
4514		17.578125
4515		19.531250
4516		17.578125
4517		21.484375
4518		17.578125
4519		19.531250
4520		17.578125
4521		19.531250
4522		15.625000
4523		19.531250
4524		15.625000
4525		19.531250
4526		15.625000
4527		19.531250
4528		15.625000
4529		19.531250
4530		15.625000
4531		19.531250
4532		15.625000
4533		19.531250
4534		15.625000
4535		19.531250
4536		15.625000
4537		17.578125
4538		13.671875
4539		17.578125
4540		13.671875
4541		17.578125
4542		13.671875
4543		17.578125
4544		13.671875
4545		17.578125
4546		13.671875
4547		17.578125
4548		13.671875
4549		17.578125
4550		13.671875
4551		17.578125
4552		11.718750
4553		17.578125
4554		11.718750
4555		15.625000
4556		11.718750
4557		15.625000
4558		11.718750
4559		15.625000
4560		11.718750
4561		15.625000
4562		11.718750
4563		15.625000
4564		11.718750
4565		15.625000
4566		9.765625
4567		15.625000
4568		9.765625
4569		13.671875
4570		9.765625
4571		13.671875
4572		9.765625
4573		13.671875
4574		9.765625
4575		13.671875
4576		9.765625
4577		13.671875
4578		9.765625
4579		13.671875
4580		9.765625
4581		11.718750
4582		7.812500
4583		11.718750
4584		7.812500
4585		11.718750
4586		7.812500
4587		11.718750
4588		5.859375
4589		11.718750
4590		7.812500
4591		9.765625
4592		5.859375
4593		11.718750
4594		7.812500
4595		9.765625
4596		5.859375
4597		9.765625
4598		5.859375
4599		9.765625
4600		5.859375
4601		9.765625
4602		5.859375
4603		7.812500
4604		3.906250
4605		7.812500
4606		3.906250
4607		7.812500
4608		3.906250
4609		7.812500
4610		3.906250
4611		7.812500
4612		3.906250
4613		5.859375
4614		1.953125
4615		5.859375
4616		1.953125
4617		5.859375
4618		1.953125
4619		5.859375
4620		1.953125
4621		3.906250
4622		0.000000
4623		5.859375
4624		1.953125
4625		3.906250
4626		0.000000
4627		3.906250
4628		0.000000
4629		3.906250
4630		0.000000
4631		3.906250
4632		0.000000
4633		3.906250
4634		-1.953125
4635		3.906250
4636		0.000000
4637		1.953125
4638		-1.953125
4639		1.953125
4640		-1.953125
4641		1.953125
4642		-1.953125
4643		1.953125
4644		-1.953125
4645		0.000000
4646		-3.906250
4647		0.000000
4648		-3.906250
4649		0.000000
4650		-3.906250
4651		0.000000
4652		-3.906250
4653		-1.953125
4654		-3.906250
4655		0.000000
4656		-5.859375
4657		-1.953125
4658		-5.859375
4659		-1.953125
4660		-5.859375
4661		-1.953125
4662		-5.859375
4663		-3.906250
4664		-5.859375
4665		-3.906250
4666		-5.859375
4667		-3.906250
4668		-7.812500
4669		-3.906250
4670		-7.812500
4671		-3.906250
4672		-9.765625
4673		-3.906250
4674		-7.812500
4675		-3.906250
4676		-7.812500
4677		-5.859375
4678		-9.765625
4679		-5.859375
4680		-9.765625
4681		-5.859375
4682		-9.765625
4683		-5.859375
4684		-11.718750
4685		-5.859375
4686		-11.718750
4687		-5.859375
4688		-9.765625
4689		-7.812500
4690		-11.718750
4691		-7.812500
4692		-11.718750
4693		-7.812500
4694		-11.718750
4695		-7.812500
4696		-11.718750
4697		-7.812500
4698		-13.671875
4699		-9.765625
4700		-13.671875
4701		-9.765625
4702		-13.671875
4703		-9.765625
4704		-13.671875
4705		-11.718750
4706		-13.671875
4707		-9.765625
4708		-15.625000
4709		-9.765625
4710		-13.671875
4711		-11.718750
4712		-13.671875
4713		-11.718750
4714		-15.625000
4715		-11.718750
4716		-15.625000
4717		-11.718750
4718		-15.625000
4719		-11.718750
4720		-15.625000
4721		-11.718750
4722		-15.625000
4723		-13.671875
4724		-17.578125
4725		-11.718750
4726		-17.578125
4727		-13.671875
4728		-17.578125
4729		-13.671875
4730		-17.578125
4731		-13.671875
4732		-17.578125
4733		-13.671875
4734		-17.578125
4735		-13.671875
4736		-17.578125
4737		-13.671875
4738		-17.578125
4739		-15.625000
4740		-17.578125
4741		-13.671875
4742		-17.578125
4743		-13.671875
4744		-19.531250
4745		-15.625000
4746		-19.531250
4747		-15.625000
4748		-19.531250
4749		-15.625000
4750		-19.531250
4751		-15.625000
4752		-19.531250
4753		-15.625000
4754		-19.531250
4755		-15.625000
4756		-19.531250
4757		-15.625000
4758		-19.531250
4759		-17.578125
4760		-19.531250
4761		-17.578125
4762		-21.484375
4763		-15.625000
4764		-19.531250
4765		-17.578125
4766		-21.484375
4767		-17.578125
4768		-21.484375
4769		-17.578125
4770		-19.531250
4771		-17.578125
4772		-21.484375
4773		-17.578125
4774		-21.484375
4775		-17.578125
4776		-21.484375
4777		-17.578125
4778		-21.484375
4779		-17.578125
4780		-21.484375
4781		-19.531250
4782		-21.484375
4783		-17.578125
4784		-21.484375
4785		-19.531250
4786		-21.484375
4787		-19.531250
4788		-21.484375
4789		-17.578125
4790		-23.437500
4791		-19.531250
4792		-21.484375
4793		-19.531250
4794		-23.437500
4795		-17.578125
4796		-21.484375
4797		-19.531250
4798		-23.437500
4799		-19.531250
4800		-23.437500
4801		-19.531250
4802		-21.484375
4803		-17.578125
4804		-23.437500
4805		-19.531250
4806		-21.484375
4807		-19.531250
4808		-23.437500
4809		-19.531250
4810		-23.437500
4811		-19.531250
4812		-23.437500
4813		-19.531250
4814		-23.437500
4815		-19.531250
4816		-23.437500
4817		-19.531250
4818		-23.437500
4819		-19.531250
4820		-21.484375
4821		-19.531250
4822		-23.437500
4823		-19.531250
4824		-23.437500
4825		-17.578125
4826		-21.484375
4827		-19.531250
4828		-21.484375
4829		-19.531250
4830		-21.484375
4831		-19.531250
4832		-21.484375
4833		-19.531250
4834		-23.437500
4835		-17.578125
4836		-23.437500
4837		-19.531250
4838		-21.484375
4839		-19.531250
4840		-23.437500
4841		-19.531250
4842		-21.484375
4843		-19.531250
4844		-21.484375
4845		-17.578125
4846		-21.484375
4847		-19.531250
4848		-21.484375
4849		-17.578125
4850		-21.484375
4851		-17.578125
4852		-21.484375
4853		-17.578125
4854		-21.484375
4855		-17.578125
4856		-21.484375
4857		-17.578125
4858		-21.484375
4859		-17.578125
4860		-21.484375
4861		-17.578125
4862		-21.484375
4863		-17.578125
4864		-19.531250
4865		-17.578125
4866		-21.484375
4867		-15.625000
4868		-19.531250
4869		-15.625000
4870		-21.484375
4871		-15.625000
4872		-19.531250
4873		-15.625000
4874		-19.531250
4875		-15.625000
4876		-19.531250
4877		-15.625000
4878		-19.531250
4879		-15.625000
4880		-19.531250
4881		-15.625000
4882		-19.531250
4883		-15.625000
4884		-19.531250
4885		-15.625000
4886		-17.578125
4887		-13.671875
4888		-17.578125
4889		-13.671875
4890		-17.578125
4891		-15.625000
4892		-19.531250
4893		-13.671875
4894		-17.578125
4895		-13.671875
4896		-17.578125
4897		-13.671875
4898		-15.625000
4899		-13.671875
4900		-17.578125
4901		-13.671875
4902		-15.625000
4903		-11.718750
4904		-17.578125
4905		-11.718750
4906		-15.625000
4907		-13.671875
4908		-15.625000
4909		-11.718750
4910		-15.625000
4911		-11.718750
4912		-15.625000
4913		-11.718750
4914		-13.671875
4915		-11.718750
4916		-13.671875
4917		-9.765625
4918		-15.625000
4919		-11.718750
4920		-13.671875
4921		-9.765625
4922		-13.671875
4923		-9.765625
4924		-11.718750
4925		-9.765625
4926		-11.718750
4927		-9.765625
4928		-11.718750
4929		-9.765625
4930		-11.718750
4931		-9.765625
4932		-11.718750
4933		-7.812500
4934		-11.718750
4935		-7.812500
4936		-11.718750
4937		-7.812500
4938		-11.718750
4939		-5.859375
4940		-9.765625
4941		-7.812500
4942		-9.765625
4943		-7.812500
4944		-9.765625
4945		-5.859375
4946		-9.765625
4947		-5.859375
4948		-9.765625
4949		-3.906250
4950		-9.765625
4951		-5.859375
4952		-9.765625
4953		-5.859375
4954		-9.765625
4955		-3.906250
4956		-7.812500
4957		-5.859375
4958		-7.812500
4959		-1.953125
4960		-7.812500
4961		-3.906250
4962		-5.859375
4963		-3.906250
4964		-5.859375
4965		-1.953125
4966		-5.859375
4967		-1.953125
4968		-5.859375
4969		-1.953125
4970		-5.859375
4971		-1.953125
4972		-3.906250
4973		-1.953125
4974		-3.906250
4975		-1.953125
4976		-5.859375
4977		0.000000
4978		-3.906250
4979		0.000000
4980		-3.906250
4981		1.953125
4982		-3.906250
4983		0.000000
4984		-1.953125
4985		0.000000
4986		-3.906250
4987		0.000000
4988		-1.953125
4989		1.953125
4990		-1.953125
4991		0.000000
4992		-1.953125
4993		1.953125
4994		-1.953125
4995		1.953125
4996		0.000000
4997		1.953125
4998		0.000000
4999		3.906250
5000		0.000000
5001		1.953125
5002		0.000000
5003		3.906250
5004		0.000000
5005		3.906250
5006		1.953125
5007		3.906250
5008		0.000000
5009		3.906250
5010		1.953125
5011		5.859375
5012		1.953125
5013		5.859375
5014		1.953125
5015		5.859375
5016		1.953125
5017		5.859375
5018		1.953125
5019		7.812500
5020		3.906250
5021		7.812500
5022		3.906250
5023		5.859375
5024		3.906250
5025		7.812500
5026		3.906250
5027		7.812500
5028		3.906250
5029		7.812500
5030		3.906250
5031		9.765625
5032		5.859375
5033		7.812500
5034		5.859375
5035		9.765625
5036		5.859375
5037		9.765625
5038		5.859375
5039		9.765625
5040		5.859375
5041		9.765625
5042		5.859375
5043		11.718750
5044		7.812500
5045		11.718750
5046		7.812500
5047		11.718750
5048		7.812500
5049		9.765625
5050		7.812500
5051		11.718750
5052		7.812500
5053		11.718750
5054		7.812500
5055		11.718750
5056		9.765625
5057		11.718750
5058		9.765625
5059		11.718750
5060		9.765625
5061		13.671875
5062		9.765625
5063		13.671875
5064		9.765625
5065		13.671875
5066		9.765625
5067		13.671875
5068		9.765625
5069		13.671875
5070		11.718750
5071		13.671875
5072		9.765625
5073		15.625000
5074		11.718750
5075		15.625000
5076		11.718750
5077		15.625000
5078		11.718750
5079		15.625000
5080		11.718750
5081		15.625000
5082		11.718750
5083		15.625000
5084		11.718750
5085		15.625000
5086		11.718750
5087		17.578125
5088		13.671875
5089		17.578125
5090		13.671875
5091		15.625000
5092		13.671875
5093		17.578125
5094		13.671875
5095		17.578125
5096		13.671875
5097		17.578125
5098		13.671875
5099		17.578125
5100		13.671875
5101		17.578125
5102		15.625000
5103		17.578125
5104		13.671875
5105		19.531250
5106		15.625000
5107		17.578125
5108		15.625000
5109		19.531250
5110		15.625000
5111		19.531250
5112		15.625000
5113		19.531250
5114		15.625000
5115		19.531250
5116		15.625000
5117		19.531250
5118		15.625000
5119		19.531250
5120		15.625000
5121		19.531250
5122		15.625000
5123		19.531250
5124		17.578125
5125		21.484375
5126		17.578125
5127		19.531250
5128		15.625000
5129		21.484375
5130		17.578125
5131		21.484375
5132		17.578125
5133		19.531250
5134		17.578125
5135		21.484375
5136		17.578125
5137		21.484375
5138		17.578125
5139		21.484375
5140		17.578125
5141		21.484375
5142		17.578125
5143		21.484375
5144		17.578125
5145		21.484375
5146		17.578125
5147		21.484375
5148		17.578125
5149		21.484375
5150		17.578125
5151		21.484375
5152		17.578125
5153		21.484375
5154		17.578125
5155		21.484375
5156		17.578125
5157		23.437500
5158		19.531250
5159		21.484375
5160		17.578125
5161		21.484375
5162		19.531250
5163		21.484375
5164		19.531250
5165		21.484375
5166		19.531250
5167		21.484375
5168		19.531250
5169		21.484375
5170		17.578125
5171		23.437500
5172		19.531250
5173		23.437500
5174		19.531250
5175		21.484375
5176		19.531250
5177		23.437500
5178		19.531250
5179		23.437500
5180		19.531250
5181		21.484375
5182		19.531250
5183		21.484375
5184		19.531250
5185		21.484375
5186		19.531250
5187		23.437500
5188		19.531250
5189		23.437500
5190		19.531250
5191		23.437500
5192		19.531250
5193		21.484375
5194		17.578125
5195		23.437500
5196		19.531250
5197		23.437500
5198		19.531250
5199		21.484375
5200		17.578125
5201		23.437500
5202		19.531250
5203		21.484375
5204		19.531250
5205		21.484375
5206		17.578125
5207		23.437500
5208		19.531250
5209		21.484375
5210		17.578125
5211		21.484375
5212		17.578125
5213		23.437500
5214		17.578125
5215		21.484375
5216		17.578125
5217		21.484375
5218		17.578125
5219		21.484375
5220		17.578125
5221		21.484375
5222		17.578125
5223		21.484375
5224		19.531250
5225		21.484375
5226		17.578125
5227		21.484375
5228		17.578125
5229		21.484375
5230		17.578125
5231		21.484375
5232		17.578125
5233		21.484375
5234		17.578125
5235		21.484375
5236		17.578125
5237		19.531250
5238		17.578125
5239		21.484375
5240		17.578125
5241		19.531250
5242		15.625000
5243		19.531250
5244		15.625000
5245		19.531250
5246		15.625000
5247		19.531250
5248		15.625000
5249		19.531250
5250		15.625000
5251		19.531250
5252		15.625000
5253		19.531250
5254		15.625000
5255		19.531250
5256		15.625000
5257		19.531250
5258		15.625000
5259		17.578125
5260		15.625000
5261		19.531250
5262		15.625000
5263		17.578125
5264		13.671875
5265		17.578125
5266		13.671875
5267		17.578125
5268		13.671875
5269		17.578125
5270		13.671875
5271		17.578125
5272		13.671875
5273		17.578125
5274		13.671875
5275		15.625000
5276		11.718750
5277		15.625000
5278		11.718750
5279		15.625000
5280		13.671875
5281		15.625000
5282		11.718750
5283		15.625000
5284		11.718750
5285		15.625000
5286		11.718750
5287		15.625000
5288		11.718750
5289		15.625000
5290		11.718750
5291		15.625000
5292		11.718750
5293		15.625000
5294		9.765625
5295		13.671875
5296		9.765625
5297		13.671875
5298		9.765625
5299		13.671875
5300		9.765625
5301		13.671875
5302		9.765625
5303		13.671875
5304		9.765625
5305		13.671875
5306		7.812500
5307		13.671875
5308		9.765625
5309		13.671875
5310		9.765625
5311		11.718750
5312		7.812500
5313		11.718750
5314		7.812500
5315		11.718750
5316		7.812500
5317		11.718750
5318		7.812500
5319		11.718750
5320		7.812500
5321		11.718750
5322		7.812500
5323		9.765625
5324		5.859375
5325		9.765625
5326		5.859375
5327		9.765625
5328		5.859375
5329		9.765625
5330		3.906250
5331		9.765625
5332		5.859375
5333		9.765625
5334		5.859375
5335		7.812500
5336		3.906250
5337		7.812500
5338		3.906250
5339		7.812500
5340		3.906250
5341		7.812500
5342		3.906250
5343		7.812500
5344		3.906250
5345		5.859375
5346		1.953125
5347		5.859375
5348		1.953125
5349		5.859375
5350		1.953125
5351		5.859375
5352		1.953125
5353		5.859375
5354		1.953125
5355		5.859375
5356		1.953125
5357		5.859375
5358		1.953125
5359		5.859375
5360		0.000000
5361		3.906250
5362		0.000000
5363		3.906250
5364		0.000000
5365		3.906250
5366		0.000000
5367		1.953125
5368		0.000000
5369		1.953125
5370		-1.953125
5371		1.953125
5372		-1.953125
5373		1.953125
5374		-1.953125
5375		1.953125
5376		-1.953125
5377		0.000000
5378		-3.906250
5379		1.953125
5380		-1.953125
5381		0.000000
5382		-3.906250
5383		0.000000
5384		-3.906250
5385		0.000000
5386		-3.906250
5387		0.000000
5388		-3.906250
5389		-1.953125
5390		-5.859375
5391		-1.953125
5392		-5.859375
5393		-1.953125
5394		-5.859375
5395		-3.906250
5396		-7.812500
5397		-1.953125
5398		-5.859375
5399		-1.953125
5400		-7.812500
5401		-3.906250
5402		-7.812500
5403		-3.906250
5404		-7.812500
5405		-3.906250
5406		-7.812500
5407		-3.906250
5408		-9.765625
5409		-3.906250
5410		-7.812500
5411		-5.859375
5412		-9.765625
5413		-5.859375
5414		-9.765625
5415		-5.859375
5416		-9.765625
5417		-5.859375
5418		-11.718750
5419		-5.859375
5420		-9.765625
5421		-7.812500
5422		-11.718750
5423		-7.812500
5424		-11.718750
5425		-7.812500
5426		-11.718750
5427		-7.812500
5428		-11.718750
5429		-9.765625
5430		-11.718750
5431		-7.812500
5432		-13.671875
5433		-9.765625
5434		-13.671875
5435		-9.765625
5436		-13.671875
5437		-9.765625
5438		-13.671875
5439		-9.765625
5440		-13.671875
5441		-9.765625
5442		-13.671875
5443		-11.718750
5444		-13.671875
5445		-11.718750
5446		-15.625000
5447		-9.765625
5448		-15.625000
5449		-11.718750
5450		-15.625000
5451		-11.718750
5452		-15.625000
5453		-11.718750
5454		-17.578125
5455		-11.718750
5456		-15.625000
5457		-13.671875
5458		-17.578125
5459		-13.671875
5460		-15.625000
5461		-13.671875
5462		-17.578125
5463		-13.671875
5464		-17.578125
5465		-13.671875
5466		-17.578125
5467		-15.625000
5468		-17.578125
5469		-13.671875
5470		-17.578125
5471		-13.671875
5472		-17.578125
5473		-15.625000
5474		-19.531250
5475		-15.625000
5476		-17.578125
5477		-15.625000
5478		-19.531250
5479		-15.625000
5480		-19.531250
5481		-15.625000
5482		-19.531250
5483		-15.625000
5484		-19.531250
5485		-17.578125
5486		-21.484375
5487		-15.625000
5488		-19.531250
5489		-15.625000
5490		-19.531250
5491		-17.578125
5492		-21.484375
5493		-15.625000
5494		-19.531250
5495		-17.578125
5496		-21.484375
5497		-17.578125
5498		-21.484375
5499		-17.578125
5500		-21.484375
5501		-17.578125
5502		-21.484375
5503		-17.578125
5504		-21.484375
5505		-17.578125
5506		-21.484375
5507		-17.578125
5508		-21.484375
5509		-17.578125
5510		-21.484375
5511		-17.578125
5512		-21.484375
5513		-19.531250
5514		-23.437500
5515		-17.578125
5516		-23.437500
5517		-17.578125
5518		-23.437500
5519		-17.578125
5520		-21.484375
5521		-17.578125
5522		-23.437500
5523		-17.578125
5524		-23.437500
5525		-17.578125
5526		-23.437500
5527		-19.531250
5528		-23.437500
5529		-19.531250
5530		-21.484375
5531		-19.531250
5532		-23.437500
5533		-19.531250
5534		-23.437500
5535		-19.531250
5536		-23.437500
5537		-19.531250
5538		-23.437500
5539		-19.531250
5540		-23.437500
5541		-19.531250
5542		-23.437500
5543		-19.531250
5544		-23.437500
5545		-19.531250
5546		-23.437500
5547		-19.531250
5548		-23.437500
5549		-19.531250
5550		-23.437500
5551		-19.531250
5552		-23.437500
5553		-19.531250
5554		-23.437500
5555		-19.531250
5556		-23.437500
5557		-19.531250
5558		-23.437500
5559		-19.531250
5560		-23.437500
5561		-19.531250
5562		-23.437500
5563		-19.531250
5564		-23.437500
5565		-17.578125
5566		-23.437500
5567		-17.578125
5568		-23.437500
5569		-19.531250
5570		-23.437500
5571		-19.531250
5572		-23.437500
5573		-17.578125
5574		-23.437500
5575		-17.578125
5576		-21.484375
5577		-17.578125
5578		-21.484375
5579		-19.531250
5580		-23.437500
5581		-17.578125
5582		-23.437500
5583		-17.578125
5584		-23.437500
5585		-17.578125
5586		-23.437500
5587		-17.578125
5588		-23.437500
5589		-17.578125
5590		-23.437500
5591		-17.578125
5592		-23.437500
5593		-17.578125
5594		-21.484375
5595		-17.578125
5596		-21.484375
5597		-17.578125
5598		-21.484375
5599		-17.578125
5600		-21.484375
5601		-17.578125
5602		-21.484375
5603		-15.625000
5604		-21.484375
5605		-15.625000
5606		-21.484375
5607		-15.625000
5608		-21.484375
5609		-15.625000
5610		-21.484375
5611		-15.625000
5612		-19.531250
5613		-17.578125
5614		-19.531250
5615		-17.578125
5616		-19.531250
5617		-15.625000
5618		-19.531250
5619		-15.625000
5620		-17.578125
5621		-15.625000
5622		-19.531250
5623		-15.625000
5624		-17.578125
5625		-15.625000
5626		-17.578125
5627		-15.625000
5628		-17.578125
5629		-15.625000
5630		-17.578125
5631		-13.671875
5632		-17.578125
5633		-15.625000
5634		-17.578125
5635		-13.671875
5636		-17.578125
5637		-13.671875
5638		-15.625000
5639		-13.671875
5640		-15.625000
5641		-13.671875
5642		-15.625000
5643		-13.671875
5644		-15.625000
5645		-13.671875
5646		-15.625000
5647		-11.718750
5648		-15.625000
5649		-11.718750
5650		-15.625000
5651		-11.718750
5652		-13.671875
5653		-11.718750
5654		-13.671875
5655		-11.718750
5656		-15.625000
5657		-9.765625
5658		-13.671875
5659		-11.718750
5660		-13.671875
5661		-9.765625
5662		-13.671875
5663		-9.765625
5664		-13.671875
5665		-9.765625
5666		-13.671875
5667		-9.765625
5668		-11.718750
5669		-9.765625
5670		-11.718750
5671		-9.765625
5672		-11.718750
5673		-7.812500
5674		-11.718750
5675		-7.812500
5676		-11.718750
5677		-7.812500
5678		-11.718750
5679		-7.812500
5680		-9.765625
5681		-7.812500
5682		-9.765625
5683		-5.859375
5684		-9.765625
5685		-5.859375
5686		-9.765625
5687		-5.859375
5688		-7.812500
5689		-5.859375
5690		-7.812500
5691		-5.859375
5692		-7.812500
5693		-5.859375
5694		-7.812500
5695		-3.906250
5696		-7.812500
5697		-3.906250
5698		-7.812500
5699		-3.906250
5700		-5.859375
5701		-3.906250
5702		-5.859375
5703		-3.906250
5704		-5.859375
5705		-3.906250
5706		-5.859375
5707		-3.906250
5708		-5.859375
5709		-1.953125
5710		-5.859375
5711		-1.953125
5712		-3.906250
5713		-1.953125
5714		-5.859375
5715		1.953125
5716		-5.859375
5717		1.953125
5718		-5.859375
5719		1.953125
5720		-5.859375
5721		1.953125
5722		-1.953125
5723		0.000000
5724		-1.953125
5725		0.000000
5726		-1.953125
5727		1.953125
5728		-1.953125
5729		1.953125
5730		-1.953125
5731		1.953125
5732		-3.906250
5733		5.859375
5734		-1.953125
5735		5.859375
5736		-1.953125
5737		5.859375
5738		0.000000
5739		3.906250
5740		0.000000
5741		3.906250
5742		1.953125
5743		3.906250
5744		1.953125
5745		3.906250
5746		1.953125
5747		5.859375
5748		0.000000
5749		7.812500
5750		0.000000
5751		9.765625
5752		0.000000
5753		9.765625
5754		0.000000
5755		9.765625
5756		3.906250
5757		5.859375
5758		3.906250
5759		7.812500
5760		5.859375
5761		7.812500
5762		3.906250
5763		7.812500
5764		3.906250
5765		7.812500
5766		1.953125
5767		11.718750
5768		1.953125
5769		11.718750
5770		1.953125
5771		11.718750
5772		7.812500
5773		9.765625
5774		7.812500
5775		9.765625
5776		5.859375
5777		11.718750
5778		7.812500
5779		9.765625
5780		7.812500
5781		11.718750
5782		5.859375
5783		15.625000
5784		5.859375
5785		13.671875
5786		5.859375
5787		15.625000
5788		9.765625
5789		13.671875
5790		9.765625
5791		11.718750
5792		9.765625
5793		11.718750
5794		9.765625
5795		13.671875
5796		9.765625
5797		13.671875
5798		9.765625
5799		15.625000
5800		7.812500
5801		17.578125
5802		7.812500
5803		17.578125
5804		7.812500
5805		17.578125
5806		11.718750
5807		15.625000
5808		11.718750
5809		13.671875
5810		11.718750
5811		15.625000
5812		11.718750
5813		15.625000
5814		13.671875
5815		15.625000
5816		9.765625
5817		19.531250
5818		9.765625
5819		19.531250
5820		9.765625
5821		19.531250
5822		13.671875
5823		17.578125
5824		13.671875
5825		17.578125
5826		13.671875
5827		17.578125
5828		15.625000
5829		17.578125
5830		15.625000
5831		17.578125
5832		11.718750
5833		23.437500
5834		11.718750
5835		21.484375
5836		11.718750
5837		21.484375
5838		11.718750
5839		21.484375
5840		15.625000
5841		17.578125
5842		15.625000
5843		17.578125
5844		15.625000
5845		19.531250
5846		17.578125
5847		19.531250
5848		17.578125
5849		19.531250
5850		13.671875
5851		23.437500
5852		13.671875
5853		23.437500
5854		13.671875
5855		23.437500
5856		17.578125
5857		19.531250
5858		15.625000
5859		19.531250
5860		17.578125
5861		19.531250
5862		17.578125
5863		21.484375
5864		17.578125
5865		21.484375
5866		13.671875
5867		25.390625
5868		15.625000
5869		23.437500
5870		15.625000
5871		25.390625
5872		17.578125
5873		21.484375
5874		17.578125
5875		21.484375
5876		17.578125
5877		21.484375
5878		17.578125
5879		21.484375
5880		17.578125
5881		21.484375
5882		17.578125
5883		21.484375
5884		15.625000
5885		25.390625
5886		15.625000
5887		25.390625
5888		15.625000
5889		25.390625
5890		19.531250
5891		21.484375
5892		17.578125
5893		23.437500
5894		19.531250
5895		21.484375
5896		17.578125
5897		21.484375
5898		19.531250
5899		21.484375
5900		19.531250
5901		21.484375
5902		17.578125
5903		25.390625
5904		17.578125
5905		25.390625
5906		19.531250
5907		21.484375
5908		19.531250
5909		21.484375
5910		19.531250
5911		21.484375
5912		19.531250
5913		21.484375
5914		19.531250
5915		23.437500
5916		19.531250
5917		21.484375
5918		17.578125
5919		25.390625
5920		17.578125
5921		23.437500
5922		19.531250
5923		21.484375
5924		19.531250
5925		21.484375
5926		19.531250
5927		21.484375
5928		19.531250
5929		21.484375
5930		19.531250
5931		21.484375
5932		19.531250
5933		21.484375
5934		17.578125
5935		23.437500
5936		17.578125
5937		23.437500
5938		17.578125
5939		23.437500
5940		17.578125
5941		21.484375
5942		19.531250
5943		21.484375
5944		19.531250
5945		21.484375
5946		17.578125
5947		21.484375
5948		19.531250
5949		21.484375
5950		17.578125
5951		21.484375
5952		17.578125
5953		21.484375
5954		17.578125
5955		21.484375
5956		17.578125
5957		21.484375
5958		17.578125
5959		21.484375
5960		17.578125
5961		21.484375
5962		17.578125
5963		19.531250
5964		17.578125
5965		19.531250
5966		15.625000
5967		19.531250
5968		17.578125
5969		21.484375
5970		17.578125
5971		19.531250
5972		15.625000
5973		19.531250
5974		17.578125
5975		19.531250
5976		15.625000
5977		19.531250
5978		15.625000
5979		19.531250
5980		15.625000
5981		19.531250
5982		15.625000
5983		19.531250
5984		15.625000
5985		19.531250
5986		15.625000
5987		17.578125
5988		15.625000
5989		19.531250
5990		15.625000
5991		17.578125
5992		15.625000
5993		17.578125
5994		15.625000
5995		17.578125
5996		15.625000
5997		17.578125
5998		15.625000
5999		17.578125
6000		13.671875
6001		17.578125
6002		13.671875
6003		17.578125
6004		13.671875
6005		15.625000
6006		13.671875
6007		15.625000
6008		11.718750
6009		17.578125
6010		11.718750
6011		15.625000
6012		13.671875
6013		15.625000
6014		11.718750
6015		15.625000
6016		11.718750
6017		15.625000
6018		9.765625
6019		15.625000
6020		9.765625
6021		15.625000
6022		11.718750
6023		13.671875
6024		9.765625
6025		13.671875
6026		9.765625
6027		13.671875
6028		9.765625
6029		13.671875
6030		9.765625
6031		13.671875
6032		9.765625
6033		11.718750
6034		9.765625
6035		13.671875
6036		9.765625
6037		13.671875
6038		9.765625
6039		11.718750
6040		7.812500
6041		11.718750
6042		7.812500
6043		11.718750
6044		7.812500
6045		11.718750
6046		7.812500
6047		11.718750
6048		7.812500
6049		9.765625
6050		5.859375
6051		9.765625
6052		5.859375
6053		9.765625
6054		5.859375
6055		11.718750
6056		5.859375
6057		9.765625
6058		5.859375
6059		9.765625
6060		5.859375
6061		9.765625
6062		5.859375
6063		9.765625
6064		5.859375
6065		7.812500
6066		3.906250
6067		7.812500
6068		1.953125
6069		9.765625
6070		3.906250
6071		7.812500
6072		3.906250
6073		5.859375
6074		1.953125
6075		5.859375
6076		1.953125
6077		5.859375
6078		1.953125
6079		5.859375
6080		1.953125
6081		5.859375
6082		1.953125
6083		3.906250
6084		0.000000
6085		5.859375
6086		0.000000
6087		3.906250
6088		1.953125
6089		3.906250
6090		0.000000
6091		3.906250
6092		0.000000
6093		3.906250
6094		0.000000
6095		3.906250
6096		0.000000
6097		1.953125
6098		-1.953125
6099		3.906250
6100		-1.953125
6101		1.953125
6102		-1.953125
6103		1.953125
6104		-3.906250
6105		1.953125
6106		-1.953125
6107		0.000000
6108		-3.906250
6109		0.000000
6110		-3.906250
6111		0.000000
6112		-3.906250
6113		0.000000
6114		-3.906250
6115		0.000000
6116		-3.906250
6117		-1.953125
6118		-5.859375
6119		0.000000
6120		-5.859375
6121		-1.953125
6122		-5.859375
6123		-1.953125
6124		-7.812500
6125		-1.953125
6126		-5.859375
6127		-1.953125
6128		-5.859375
6129		-3.906250
6130		-5.859375
6131		-3.906250
6132		-7.812500
6133		-3.906250
6134		-9.765625
6135		-1.953125
6136		-7.812500
6137		-3.906250
6138		-7.812500
6139		-3.906250
6140		-7.812500
6141		-5.859375
6142		-9.765625
6143		-5.859375
6144		-9.765625
6145		-5.859375
6146		-9.765625
6147		-5.859375
6148		-9.765625
6149		-7.812500
6150		-9.765625
6151		-7.812500
6152		-11.718750
6153		-5.859375
6154		-11.718750
6155		-7.812500
6156		-11.718750
6157		-7.812500
6158		-11.718750
6159		-7.812500
6160		-11.718750
6161		-7.812500
6162		-11.718750
6163		-7.812500
6164		-11.718750
6165		-9.765625
6166		-11.718750
6167		-9.765625
6168		-13.671875
6169		-9.765625
6170		-13.671875
6171		-9.765625
6172		-13.671875
6173		-11.718750
6174		-13.671875
6175		-9.765625
6176		-15.625000
6177		-9.765625
6178		-15.625000
6179		-11.718750
6180		-15.625000
6181		-11.718750
6182		-15.625000
6183		-11.718750
6184		-15.625000
6185		-11.718750
6186		-15.625000
6187		-11.718750
6188		-15.625000
6189		-13.671875
6190		-15.625000
6191		-11.718750
6192		-17.578125
6193		-13.671875
6194		-15.625000
6195		-13.671875
6196		-17.578125
6197		-13.671875
6198		-17.578125
6199		-13.671875
6200		-17.578125
6201		-13.671875
6202		-17.578125
6203		-13.671875
6204		-17.578125
6205		-15.625000
6206		-17.578125
6207		-13.671875
6208		-17.578125
6209		-15.625000
6210		-17.578125
6211		-15.625000
6212		-19.531250
6213		-15.625000
6214		-19.531250
6215		-15.625000
6216		-19.531250
6217		-15.625000
6218		-19.531250
6219		-15.625000
6220		-19.531250
6221		-15.625000
6222		-19.531250
6223		-15.625000
6224		-19.531250
6225		-17.578125
6226		-19.531250
6227		-17.578125
6228		-19.531250
6229		-15.625000
6230		-19.531250
6231		-17.578125
6232		-21.484375
6233		-15.625000
6234		-19.531250
6235		-17.578125
6236		-19.531250
6237		-17.578125
6238		-21.484375
6239		-17.578125
6240		-19.531250
6241		-17.578125
6242		-21.484375
6243		-17.578125
6244		-21.484375
6245		-17.578125
6246		-21.484375
6247		-19.531250
6248		-21.484375
6249		-19.531250
6250		-21.484375
6251		-17.578125
6252		-21.484375
6253		-17.578125
6254		-21.484375
6255		-19.531250
6256		-21.484375
6257		-17.578125
6258		-21.484375
6259		-19.531250
6260		-21.484375
6261		-19.531250
6262		-21.484375
6263		-19.531250
6264		-21.484375
6265		-19.531250
6266		-23.437500
6267		-19.531250
6268		-21.484375
6269		-19.531250
6270		-21.484375
6271		-19.531250
6272		-23.437500
6273		-19.531250
6274		-23.437500
6275		-19.531250
6276		-23.437500
6277		-19.531250
6278		-21.484375
6279		-19.531250
6280		-23.437500
6281		-19.531250
6282		-21.484375
6283		-19.531250
6284		-21.484375
6285		-19.531250
6286		-23.437500
6287		-19.531250
6288		-23.437500
6289		-19.531250
6290		-23.437500
6291		-19.531250
6292		-21.484375
6293		-19.531250
6294		-21.484375
6295		-19.531250
6296		-23.437500
6297		-19.531250
6298		-21.484375
6299		-19.531250
6300		-23.437500
6301		-19.531250
6302		-23.437500
6303		-19.531250
6304		-23.437500
6305		-19.531250
6306		-23.437500
6307		-19.531250
6308		-21.484375
6309		-19.531250
6310		-21.484375
6311		-19.531250
6312		-21.484375
6313		-17.578125
6314		-21.484375
6315		-19.531250
6316		-21.484375
6317		-19.531250
6318		-21.484375
6319		-17.578125
6320		-21.484375
6321		-17.578125
6322		-21.484375
6323		-19.531250
6324		-21.484375
6325		-17.578125
6326		-21.484375
6327		-19.531250
6328		-21.484375
6329		-17.578125
6330		-21.484375
6331		-17.578125
6332		-19.531250
6333		-17.578125
6334		-21.484375
6335		-17.578125
6336		-21.484375
6337		-15.625000
6338		-21.484375
6339		-15.625000
6340		-21.484375
6341		-15.625000
6342		-19.531250
6343		-17.578125
6344		-19.531250
6345		-15.625000
6346		-19.531250
6347		-17.578125
6348		-19.531250
6349		-17.578125
6350		-19.531250
6351		-15.625000
6352		-19.531250
6353		-17.578125
6354		-21.484375
6355		-13.671875
6356		-19.531250
6357		-13.671875
6358		-17.578125
6359		-15.625000
6360		-19.531250
6361		-15.625000
6362		-17.578125
6363		-15.625000
6364		-17.578125
6365		-13.671875
6366		-17.578125
6367		-15.625000
6368		-17.578125
6369		-15.625000
6370		-19.531250
6371		-13.671875
6372		-17.578125
6373		-11.718750
6374		-15.625000
6375		-11.718750
6376		-15.625000
6377		-13.671875
6378		-15.625000
6379		-13.671875
6380		-15.625000
6381		-11.718750
6382		-15.625000
6383		-11.718750
6384		-15.625000
6385		-11.718750
6386		-13.671875
6387		-11.718750
6388		-17.578125
6389		-9.765625
6390		-15.625000
6391		-9.765625
6392		-13.671875
6393		-11.718750
6394		-13.671875
6395		-9.765625
6396		-13.671875
6397		-9.765625
6398		-11.718750
6399		-9.765625
6400		-13.671875
6401		-9.765625
6402		-11.718750
6403		-9.765625
6404		-13.671875
6405		-7.812500
6406		-13.671875
6407		-7.812500
6408		-11.718750
6409		-9.765625
6410		-9.765625
6411		-7.812500
6412		-11.718750
6413		-7.812500
6414		-9.765625
6415		-7.812500
6416		-9.765625
6417		-7.812500
6418		-11.718750
6419		-5.859375
6420		-11.718750
6421		-5.859375
6422		-9.765625
6423		-5.859375
6424		-9.765625
6425		-5.859375
6426		-7.812500
6427		-5.859375
6428		-7.812500
6429		-5.859375
6430		-7.812500
6431		-5.859375
6432		-7.812500
6433		-3.906250
6434		-7.812500
6435		-3.906250
6436		-5.859375
6437		-3.906250
6438		-7.812500
6439		-1.953125
6440		-7.812500
6441		-1.953125
6442		-5.859375
6443		-1.953125
6444		-5.859375
6445		-1.953125
6446		-5.859375
6447		-1.953125
6448		-5.859375
6449		-1.953125
6450		-5.859375
6451		0.000000
6452		-3.906250
6453		0.000000
6454		-5.859375
6455		1.953125
6456		-3.906250
6457		0.000000
6458		-1.953125
6459		0.000000
6460		-1.953125
6461		0.000000
6462		-3.906250
6463		0.000000
6464		-1.953125
6465		1.953125
6466		-1.953125
6467		1.953125
6468		0.000000
6469		1.953125
6470		0.000000
6471		1.953125
6472		-1.953125
6473		3.906250
6474		-1.953125
6475		3.906250
6476		0.000000
6477		3.906250
6478		0.000000
6479		3.906250
6480		0.000000
6481		3.906250
6482		1.953125
6483		3.906250
6484		0.000000
6485		5.859375
6486		1.953125
6487		5.859375
6488		0.000000
6489		7.812500
6490		1.953125
6491		7.812500
6492		3.906250
6493		7.812500
6494		3.906250
6495		7.812500
6496		3.906250
6497		5.859375
6498		3.906250
6499		7.812500
6500		3.906250
6501		7.812500
6502		3.906250
6503		7.812500
6504		3.906250
6505		9.765625
6506		3.906250
6507		9.765625
6508		3.906250
6509		9.765625
6510		5.859375
6511		9.765625
6512		5.859375
6513		9.765625
6514		7.812500
6515		9.765625
6516		7.812500
6517		11.718750
6518		7.812500
6519		9.765625
6520		7.812500
6521		11.718750
6522		7.812500
6523		11.718750
6524		7.812500
6525		11.718750
6526		7.812500
6527		11.718750
6528		9.765625
6529		11.718750
6530		9.765625
6531		11.718750
6532		7.812500
6533		13.671875
6534		9.765625
6535		13.671875
6536		9.765625
6537		13.671875
6538		9.765625
6539		13.671875
6540		11.718750
6541		13.671875
6542		9.765625
6543		13.671875
6544		11.718750
6545		13.671875
6546		11.718750
6547		13.671875
6548		11.718750
6549		15.625000
6550		11.718750
6551		15.625000
6552		13.671875
6553		15.625000
6554		11.718750
6555		15.625000
6556		11.718750
6557		15.625000
6558		13.671875
6559		15.625000
6560		11.718750
6561		15.625000
6562		13.671875
6563		15.625000
6564		13.671875
6565		17.578125
6566		13.671875
6567		17.578125
6568		13.671875
6569		17.578125
6570		13.671875
6571		17.578125
6572		15.625000
6573		19.531250
6574		15.625000
6575		17.578125
6576		15.625000
6577		19.531250
6578		15.625000
6579		19.531250
6580		15.625000
6581		17.578125
6582		15.625000
6583		19.531250
6584		17.578125
6585		19.531250
6586		15.625000
6587		19.531250
6588		17.578125
6589		19.531250
6590		17.578125
6591		19.531250
6592		15.625000
6593		19.531250
6594		17.578125
6595		19.531250
6596		17.578125
6597		19.531250
6598		15.625000
6599		19.531250
6600		17.578125
6601		19.531250
6602		15.625000
6603		21.484375
6604		17.578125
6605		19.531250
6606		17.578125
6607		21.484375
6608		17.578125
6609		23.437500
6610		19.531250
6611		21.484375
6612		19.531250
6613		21.484375
6614		17.578125
6615		21.484375
6616		19.531250
6617		21.484375
6618		19.531250
6619		21.484375
6620		17.578125
6621		21.484375
6622		19.531250
6623		21.484375
6624		17.578125
6625		21.484375
6626		19.531250
6627		21.484375
6628		19.531250
6629		21.484375
6630		19.531250
6631		23.437500
6632		19.531250
6633		21.484375
6634		19.531250
6635		21.484375
6636		19.531250
6637		23.437500
6638		19.531250
6639		21.484375
6640		19.531250
6641		23.437500
6642		19.531250
6643		21.484375
6644		19.531250
6645		21.484375
6646		19.531250
6647		23.437500
6648		19.531250
6649		21.484375
6650		19.531250
6651		21.484375
6652		19.531250
6653		21.484375
6654		19.531250
6655		21.484375
6656		19.531250
6657		23.437500
6658		19.531250
6659		21.484375
6660		19.531250
6661		21.484375
6662		19.531250
6663		23.437500
6664		19.531250
6665		21.484375
6666		19.531250
6667		23.437500
6668		19.531250
6669		21.484375
6670		19.531250
6671		21.484375
6672		17.578125
6673		23.437500
6674		19.531250
6675		21.484375
6676		17.578125
6677		21.484375
6678		19.531250
6679		21.484375
6680		19.531250
6681		21.484375
6682		17.578125
6683		23.437500
6684		17.578125
6685		21.484375
6686		19.531250
6687		21.484375
6688		17.578125
6689		21.484375
6690		19.531250
6691		21.484375
6692		17.578125
6693		21.484375
6694		17.578125
6695		21.484375
6696		17.578125
6697		19.531250
6698		17.578125
6699		21.484375
6700		17.578125
6701		19.531250
6702		17.578125
6703		19.531250
6704		15.625000
6705		19.531250
6706		17.578125
6707		19.531250
6708		17.578125
6709		19.531250
6710		15.625000
6711		21.484375
6712		17.578125
6713		19.531250
6714		15.625000
6715		19.531250
6716		15.625000
6717		19.531250
6718		15.625000
6719		19.531250
6720		15.625000
6721		19.531250
6722		15.625000
6723		17.578125
6724		15.625000
6725		17.578125
6726		15.625000
6727		17.578125
6728		15.625000
6729		17.578125
6730		15.625000
6731		17.578125
6732		13.671875
6733		17.578125
6734		13.671875
6735		17.578125
6736		13.671875
6737		17.578125
6738		13.671875
6739		15.625000
6740		13.671875
6741		15.625000
6742		13.671875
6743		17.578125
6744		13.671875
6745		15.625000
6746		13.671875
6747		15.625000
6748		11.718750
6749		15.625000
6750		11.718750
6751		13.671875
6752		11.718750
6753		15.625000
6754		11.718750
6755		13.671875
6756		11.718750
6757		13.671875
6758		9.765625
6759		13.671875
6760		11.718750
6761		13.671875
6762		9.765625
6763		13.671875
6764		9.765625
6765		13.671875
6766		9.765625
6767		11.718750
6768		9.765625
6769		11.718750
6770		9.765625
6771		11.718750
6772		7.812500
6773		11.718750
6774		7.812500
6775		11.718750
6776		7.812500
6777		9.765625
6778		7.812500
6779		11.718750
6780		7.812500
6781		11.718750
6782		7.812500
6783		9.765625
6784		7.812500
6785		9.765625
6786		5.859375
6787		9.765625
6788		5.859375
6789		9.765625
6790		5.859375
6791		7.812500
6792		3.906250
6793		9.765625
6794		5.859375
6795		7.812500
6796		3.906250
6797		7.812500
6798		3.906250
6799		7.812500
6800		3.906250
6801		7.812500
6802		3.906250
6803		5.859375
6804		3.906250
6805		5.859375
6806		3.906250
6807		5.859375
6808		1.953125
6809		5.859375
6810		1.953125
6811		5.859375
6812		1.953125
6813		5.859375
6814		1.953125
6815		3.906250
6816		1.953125
6817		3.906250
6818		0.000000
6819		5.859375
6820		0.000000
6821		3.906250
6822		0.000000
6823		3.906250
6824		0.000000
6825		1.953125
6826		0.000000
6827		1.953125
6828		0.000000
6829		1.953125
6830		-1.953125
6831		1.953125
6832		-1.953125
6833		1.953125
6834		-1.953125
6835		1.953125
6836		-1.953125
6837		0.000000
6838		-1.953125
6839		0.000000
6840		-3.906250
6841		0.000000
6842		-3.906250
6843		0.000000
6844		-5.859375
6845		-1.953125
6846		-3.906250
6847		-1.953125
6848		-3.906250
6849		-1.953125
6850		-5.859375
6851		-1.953125
6852		-5.859375
6853		-1.953125
6854		-5.859375
6855		-3.906250
6856		-7.812500
6857		-1.953125
6858		-5.859375
6859		-3.906250
6860		-5.859375
6861		-3.906250
6862		-7.812500
6863		-3.906250
6864		-7.812500
6865		-3.906250
6866		-7.812500
6867		-5.859375
6868		-7.812500
6869		-5.859375
6870		-7.812500
6871		-5.859375
6872		-9.765625
6873		-5.859375
6874		-9.765625
6875		-5.859375
6876		-9.765625
6877		-7.812500
6878		-9.765625
6879		-7.812500
6880		-9.765625
6881		-7.812500
6882		-9.765625
6883		-7.812500
6884		-11.718750
6885		-7.812500
6886		-11.718750
6887		-7.812500
6888		-11.718750
6889		-9.765625
6890		-11.718750
6891		-7.812500
6892		-11.718750
6893		-9.765625
6894		-13.671875
6895		-9.765625
6896		-13.671875
6897		-9.765625
6898		-13.671875
6899		-9.765625
6900		-13.671875
6901		-9.765625
6902		-13.671875
6903		-11.718750
6904		-13.671875
6905		-11.718750
6906		-15.625000
6907		-11.718750
6908		-13.671875
6909		-11.718750
6910		-15.625000
6911		-11.718750
6912		-15.625000
6913		-11.718750
6914		-15.625000
6915		-13.671875
6916		-15.625000
6917		-11.718750
6918		-15.625000
6919		-13.671875
6920		-15.625000
6921		-13.671875
6922		-17.578125
6923		-11.718750
6924		-17.578125
6925		-13.671875
6926		-17.578125
6927		-13.671875
6928		-17.578125
6929		-13.671875
6930		-17.578125
6931		-15.625000
6932		-17.578125
6933		-15.625000
6934		-19.531250
6935		-13.671875
6936		-17.578125
6937		-15.625000
6938		-19.531250
6939		-15.625000
6940		-19.531250
6941		-15.625000
6942		-19.531250
6943		-15.625000
6944		-19.531250
6945		-17.578125
6946		-19.531250
6947		-15.625000
6948		-19.531250
6949		-17.578125
6950		-19.531250
6951		-15.625000
6952		-19.531250
6953		-17.578125
6954		-19.531250
6955		-17.578125
6956		-21.484375
6957		-17.578125
6958		-21.484375
6959		-17.578125
6960		-21.484375
6961		-17.578125
6962		-21.484375
6963		-17.578125
6964		-21.484375
6965		-19.531250
6966		-21.484375
6967		-19.531250
6968		-21.484375
6969		-17.578125
6970		-21.484375
6971		-19.531250
6972		-21.484375
6973		-19.531250
6974		-23.437500
6975		-17.578125
6976		-21.484375
6977		-19.531250
6978		-21.484375
6979		-19.531250
6980		-21.484375
6981		-19.531250
6982		-21.484375
6983		-19.531250
6984		-21.484375
6985		-19.531250
6986		-23.437500
6987		-19.531250
6988		-23.437500
6989		-19.531250
6990		-21.484375
6991		-19.531250
6992		-23.437500
6993		-19.531250
6994		-21.484375
6995		-19.531250
6996		-23.437500
6997		-19.531250
6998		-23.437500
6999		-19.531250
7000		-23.437500
7001		-19.531250
7002		-23.437500
7003		-19.531250
7004		-23.437500
7005		-19.531250
7006		-23.437500
7007		-21.484375
7008		-23.437500
7009		-21.484375
7010		-23.437500
7011		-19.531250
7012		-23.437500
7013		-19.531250
7014		-23.437500
7015		-19.531250
7016		-23.437500
7017		-19.531250
7018		-23.437500
7019		-21.484375
7020		-23.437500
7021		-21.484375
7022		-23.437500
7023		-19.531250
7024		-23.437500
7025		-19.531250
7026		-23.437500
7027		-21.484375
7028		-23.437500
7029		-19.531250
7030		-23.437500
7031		-21.484375
7032		-23.437500
7033		-19.531250
7034		-23.437500
7035		-19.531250
7036		-23.437500
7037		-19.531250
7038		-21.484375
7039		-19.531250
7040		-23.437500
7041		-19.531250
7042		-21.484375
7043		-19.531250
7044		-21.484375
7045		-19.531250
7046		-21.484375
7047		-19.531250
7048		-21.484375
7049		-19.531250
7050		-21.484375
7051		-19.531250
7052		-23.437500
7053		-19.531250
7054		-21.484375
7055		-19.531250
7056		-21.484375
7057		-19.531250
7058		-23.437500
7059		-17.578125
7060		-21.484375
7061		-19.531250
7062		-21.484375
7063		-17.578125
7064		-21.484375
7065		-17.578125
7066		-21.484375
7067		-17.578125
7068		-21.484375
7069		-17.578125
7070		-21.484375
7071		-17.578125
7072		-19.531250
7073		-17.578125
7074		-21.484375
7075		-17.578125
7076		-19.531250
7077		-17.578125
7078		-19.531250
7079		-17.578125
7080		-19.531250
7081		-15.625000
7082		-19.531250
7083		-17.578125
7084		-19.531250
7085		-15.625000
7086		-19.531250
7087		-15.625000
7088		-19.531250
7089		-15.625000
7090		-17.578125
7091		-15.625000
7092		-17.578125
7093		-15.625000
7094		-17.578125
7095		-15.625000
7096		-17.578125
7097		-15.625000
7098		-17.578125
7099		-13.671875
7100		-17.578125
7101		-15.625000
7102		-17.578125
7103		-13.671875
7104		-17.578125
7105		-13.671875
7106		-17.578125
7107		-13.671875
7108		-15.625000
7109		-13.671875
7110		-15.625000
7111		-11.718750
7112		-15.625000
7113		-13.671875
7114		-15.625000
7115		-13.671875
7116		-15.625000
7117		-11.718750
7118		-15.625000
7119		-11.718750
7120		-13.671875
7121		-11.718750
7122		-13.671875
7123		-11.718750
7124		-13.671875
7125		-11.718750
7126		-13.671875
7127		-11.718750
7128		-13.671875
7129		-9.765625
7130		-13.671875
7131		-11.718750
7132		-13.671875
7133		-9.765625
7134		-13.671875
7135		-9.765625
7136		-11.718750
7137		-9.765625
7138		-11.718750
7139		-9.765625
7140		-11.718750
7141		-7.812500
7142		-11.718750
7143		-7.812500
7144		-11.718750
7145		-7.812500
7146		-11.718750
7147		-7.812500
7148		-9.765625
7149		-7.812500
7150		-9.765625
7151		-7.812500
7152		-9.765625
7153		-5.859375
7154		-9.765625
7155		-7.812500
7156		-9.765625
7157		-5.859375
7158		-9.765625
7159		-5.859375
7160		-7.812500
7161		-5.859375
7162		-7.812500
7163		-5.859375
7164		-7.812500
7165		-5.859375
7166		-7.812500
7167		-5.859375
7168		-7.812500
7169		-3.906250
7170		-7.812500
7171		-3.906250
7172		-5.859375
7173		-3.906250
7174		-5.859375
7175		-1.953125
7176		-5.859375
7177		-3.906250
7178		-5.859375
7179		-3.906250
7180		-5.859375
7181		-1.953125
7182		-3.906250
7183		-1.953125
7184		-3.906250
7185		-1.953125
7186		-3.906250
7187		-1.953125
7188		-3.906250
7189		-1.953125
7190		-3.906250
7191		0.000000
7192		-3.906250
7193		0.000000
7194		-1.953125
7195		0.000000
7196		-1.953125
7197		0.000000
7198		-1.953125
7199		1.953125
7200		-1.953125
7201		1.953125
7202		-1.953125
7203		1.953125
7204		-1.953125
7205		1.953125
7206		0.000000
7207		1.953125
7208		0.000000
7209		1.953125
7210		0.000000
7211		3.906250
7212		0.000000
7213		3.906250
7214		1.953125
7215		3.906250
7216		0.000000
7217		3.906250
7218		1.953125
7219		3.906250
7220		1.953125
7221		3.906250
7222		1.953125
7223		5.859375
7224		1.953125
7225		5.859375
7226		3.906250
7227		5.859375
7228		1.953125
7229		7.812500
7230		3.906250
7231		5.859375
7232		3.906250
7233		5.859375
7234		3.906250
7235		7.812500
7236		5.859375
7237		7.812500
7238		5.859375
7239		7.812500
7240		3.906250
7241		9.765625
7242		5.859375
7243		7.812500
7244		5.859375
7245		9.765625
7246		5.859375
7247		9.765625
7248		7.812500
7249		9.765625
7250		7.812500
7251		9.765625
7252		5.859375
7253		9.765625
7254		7.812500
7255		9.765625
7256		7.812500
7257		11.718750
7258		7.812500
7259		11.718750
7260		7.812500
7261		11.718750
7262		7.812500
7263		11.718750
7264		9.765625
7265		11.718750
7266		9.765625
7267		11.718750
7268		9.765625
7269		13.671875
7270		9.765625
7271		11.718750
7272		9.765625
7273		13.671875
7274		9.765625
7275		13.671875
7276		11.718750
7277		13.671875
7278		11.718750
7279		13.671875
7280		11.718750
7281		13.671875
7282		11.718750
7283		13.671875
7284		11.718750
7285		13.671875
7286		11.718750
7287		15.625000
7288		13.671875
7289		15.625000
7290		13.671875
7291		15.625000
7292		11.718750
7293		15.625000
7294		13.671875
7295		15.625000
7296		13.671875
7297		15.625000
7298		13.671875
7299		17.578125
7300		13.671875
7301		15.625000
7302		13.671875
7303		17.578125
7304		13.671875
7305		17.578125
7306		13.671875
7307		17.578125
7308		15.625000
7309		17.578125
7310		13.671875
7311		19.531250
7312		15.625000
7313		17.578125
7314		15.625000
7315		17.578125
7316		15.625000
7317		19.531250
7318		15.625000
7319		17.578125
7320		15.625000
7321		17.578125
7322		15.625000
7323		19.531250
7324		15.625000
7325		17.578125
7326		15.625000
7327		19.531250
7328		15.625000
7329		19.531250
7330		17.578125
7331		19.531250
7332		17.578125
7333		19.531250
7334		17.578125
7335		19.531250
7336		17.578125
7337		19.531250
7338		17.578125
7339		19.531250
7340		17.578125
7341		21.484375
7342		17.578125
7343		19.531250
7344		17.578125
7345		21.484375
7346		17.578125
7347		19.531250
7348		17.578125
7349		19.531250
7350		17.578125
7351		21.484375
7352		17.578125
7353		21.484375
7354		17.578125
7355		21.484375
7356		17.578125
7357		21.484375
7358		17.578125
7359		21.484375
7360		17.578125
7361		21.484375
7362		17.578125
7363		21.484375
7364		19.531250
7365		21.484375
7366		17.578125
7367		23.437500
7368		19.531250
7369		21.484375
7370		17.578125
7371		23.437500
7372		17.578125
7373		23.437500
7374		17.578125
7375		21.484375
7376		19.531250
7377		21.484375
7378		17.578125
7379		21.484375
7380		19.531250
7381		21.484375
7382		15.625000
7383		23.437500
7384		17.578125
7385		21.484375
7386		17.578125
7387		21.484375
7388		17.578125
7389		23.437500
7390		15.625000
7391		23.437500
7392		19.531250
7393		21.484375
7394		17.578125
7395		21.484375
7396		17.578125
7397		21.484375
7398		17.578125
7399		21.484375
7400		17.578125
7401		23.437500
7402		17.578125
7403		21.484375
7404		17.578125
7405		23.437500
7406		17.578125
7407		21.484375
7408		15.625000
7409		23.437500
7410		17.578125
7411		21.484375
7412		17.578125
7413		21.484375
7414		17.578125
7415		21.484375
7416		17.578125
7417		23.437500
7418		17.578125
7419		21.484375
7420		17.578125
7421		21.484375
7422		15.625000
7423		23.437500
7424		15.625000
7425		23.437500
7426		17.578125
7427		21.484375
7428		17.578125
7429		19.531250
7430		15.625000
7431		21.484375
7432		15.625000
7433		23.437500
7434		17.578125
7435		21.484375
7436		17.578125
7437		21.484375
7438		15.625000
7439		21.484375
7440		17.578125
7441		19.531250
7442		15.625000
7443		21.484375
7444		15.625000
7445		19.531250
7446		15.625000
7447		19.531250
7448		13.671875
7449		21.484375
7450		13.671875
7451		19.531250
7452		13.671875
7453		19.531250
7454		13.671875
7455		21.484375
7456		13.671875
7457		21.484375
7458		11.718750
7459		21.484375
7460		15.625000
7461		17.578125
7462		15.625000
7463		17.578125
7464		11.718750
7465		19.531250
7466		13.671875
7467		19.531250
7468		13.671875
7469		17.578125
7470		13.671875
7471		17.578125
7472		11.718750
7473		19.531250
7474		11.718750
7475		19.531250
7476		13.671875
7477		17.578125
7478		13.671875
7479		15.625000
7480		11.718750
7481		15.625000
7482		9.765625
7483		19.531250
7484		11.718750
7485		15.625000
7486		11.718750
7487		15.625000
7488		9.765625
7489		17.578125
7490		9.765625
7491		17.578125
7492		7.812500
7493		17.578125
7494		11.718750
7495		13.671875
7496		9.765625
7497		15.625000
7498		7.812500
7499		15.625000
7500		7.812500
7501		15.625000
7502		9.765625
7503		13.671875
7504		9.765625
7505		13.671875
7506		5.859375
7507		15.625000
7508		5.859375
7509		15.625000
7510		7.812500
7511		11.718750
7512		7.812500
7513		11.718750
7514		7.812500
7515		11.718750
7516		5.859375
7517		13.671875
7518		5.859375
7519		11.718750
7520		5.859375
7521		9.765625
7522		3.906250
7523		13.671875
7524		3.906250
7525		11.718750
7526		3.906250
7527		11.718750
7528		5.859375
7529		7.812500
7530		3.906250
7531		7.812500
7532		1.953125
7533		9.765625
7534		1.953125
7535		9.765625
7536		3.906250
7537		7.812500
7538		1.953125
7539		7.812500
7540		0.000000
7541		9.765625
7542		0.000000
7543		9.765625
7544		1.953125
7545		7.812500
7546		1.953125
7547		5.859375
7548		0.000000
7549		5.859375
7550		-1.953125
7551		7.812500
7552		1.953125
7553		3.906250
7554		0.000000
7555		3.906250
7556		-1.953125
7557		7.812500
7558		-1.953125
7559		5.859375
7560		0.000000
7561		3.906250
7562		0.000000
7563		1.953125
7564		-1.953125
7565		1.953125
7566		-3.906250
7567		5.859375
7568		-1.953125
7569		3.906250
7570		-3.906250
7571		1.953125
7572		-5.859375
7573		1.953125
7574		-5.859375
7575		3.906250
7576		-3.906250
7577		1.953125
7578		-3.906250
7579		-1.953125
7580		-3.906250
7581		0.000000
7582		-7.812500
7583		1.953125
7584		-7.812500
7585		0.000000
7586		-5.859375
7587		-1.953125
7588		-5.859375
7589		-1.953125
7590		-9.765625
7591		0.000000
7592		-7.812500
7593		-1.953125
7594		-5.859375
7595		-3.906250
7596		-7.812500
7597		-1.953125
7598		-7.812500
7599		-3.906250
7600		-9.765625
7601		-1.953125
7602		-9.765625
7603		-3.906250
7604		-7.812500
7605		-5.859375
7606		-11.718750
7607		-1.953125
7608		-11.718750
7609		-3.906250
7610		-11.718750
7611		-3.906250
7612		-9.765625
7613		-7.812500
7614		-9.765625
7615		-7.812500
7616		-11.718750
7617		-5.859375
7618		-11.718750
7619		-5.859375
7620		-11.718750
7621		-7.812500
7622		-13.671875
7623		-7.812500
7624		-13.671875
7625		-5.859375
7626		-13.671875
7627		-5.859375
7628		-11.718750
7629		-9.765625
7630		-11.718750
7631		-9.765625
7632		-15.625000
7633		-7.812500
7634		-17.578125
7635		-7.812500
7636		-13.671875
7637		-9.765625
7638		-15.625000
7639		-11.718750
7640		-15.625000
7641		-11.718750
7642		-17.578125
7643		-9.765625
7644		-15.625000
7645		-11.718750
7646		-15.625000
7647		-13.671875
7648		-15.625000
7649		-11.718750
7650		-19.531250
7651		-11.718750
7652		-17.578125
7653		-11.718750
7654		-15.625000
7655		-13.671875
7656		-19.531250
7657		-13.671875
7658		-17.578125
7659		-13.671875
7660		-17.578125
7661		-13.671875
7662		-17.578125
7663		-13.671875
7664		-17.578125
7665		-15.625000
7666		-17.578125
7667		-13.671875
7668		-19.531250
7669		-13.671875
7670		-19.531250
7671		-15.625000
7672		-19.531250
7673		-15.625000
7674		-21.484375
7675		-15.625000
7676		-19.531250
7677		-15.625000
7678		-19.531250
7679		-17.578125
7680		-19.531250
7681		-17.578125
7682		-21.484375
7683		-15.625000
7684		-19.531250
7685		-17.578125
7686		-21.484375
7687		-15.625000
7688		-19.531250
7689		-17.578125
7690		-19.531250
7691		-17.578125
7692		-21.484375
7693		-17.578125
7694		-21.484375
7695		-17.578125
7696		-21.484375
7697		-17.578125
7698		-23.437500
7699		-17.578125
7700		-21.484375
7701		-19.531250
7702		-21.484375
7703		-19.531250
7704		-23.437500
7705		-17.578125
7706		-21.484375
7707		-19.531250
7708		-21.484375
7709		-17.578125
7710		-21.484375
7711		-19.531250
7712		-23.437500
7713		-19.531250
7714		-21.484375
7715		-19.531250
7716		-23.437500
7717		-19.531250
7718		-23.437500
7719		-19.531250
7720		-23.437500
7721		-19.531250
7722		-23.437500
7723		-17.578125
7724		-23.437500
7725		-19.531250
7726		-23.437500
7727		-19.531250
7728		-23.437500
7729		-19.531250
7730		-23.437500
7731		-21.484375
7732		-23.437500
7733		-19.531250
7734		-23.437500
7735		-19.531250
7736		-25.390625
7737		-19.531250
7738		-23.437500
7739		-19.531250
7740		-23.437500
7741		-19.531250
7742		-25.390625
7743		-19.531250
7744		-25.390625
7745		-19.531250
7746		-25.390625
7747		-19.531250
7748		-23.437500
7749		-21.484375
7750		-25.390625
7751		-19.531250
7752		-25.390625
7753		-19.531250
7754		-25.390625
7755		-19.531250
7756		-25.390625
7757		-19.531250
7758		-25.390625
7759		-19.531250
7760		-23.437500
7761		-19.531250
7762		-23.437500
7763		-19.531250
7764		-23.437500
7765		-19.531250
7766		-23.437500
7767		-19.531250
7768		-25.390625
7769		-19.531250
7770		-23.437500
7771		-19.531250
7772		-25.390625
7773		-17.578125
7774		-25.390625
7775		-17.578125
7776		-23.437500
7777		-19.531250
7778		-23.437500
7779		-19.531250
7780		-21.484375
7781		-19.531250
7782		-23.437500
7783		-19.531250
7784		-23.437500
7785		-17.578125
7786		-23.437500
7787		-17.578125
7788		-23.437500
7789		-17.578125
7790		-21.484375
7791		-17.578125
7792		-21.484375
7793		-19.531250
7794		-21.484375
7795		-17.578125
7796		-21.484375
7797		-19.531250
7798		-21.484375
7799		-17.578125
7800		-21.484375
7801		-17.578125
7802		-21.484375
7803		-17.578125
7804		-21.484375
7805		-17.578125
7806		-21.484375
7807		-15.625000
7808		-21.484375
7809		-17.578125
7810		-21.484375
7811		-17.578125
7812		-21.484375
7813		-17.578125
7814		-19.531250
7815		-17.578125
7816		-19.531250
7817		-17.578125
7818		-21.484375
7819		-15.625000
7820		-19.531250
7821		-15.625000
7822		-21.484375
7823		-13.671875
7824		-19.531250
7825		-15.625000
7826		-19.531250
7827		-15.625000
7828		-19.531250
7829		-15.625000
7830		-17.578125
7831		-13.671875
7832		-17.578125
7833		-15.625000
7834		-19.531250
7835		-13.671875
7836		-17.578125
7837		-13.671875
7838		-19.531250
7839		-11.718750
7840		-19.531250
7841		-11.718750
7842		-15.625000
7843		-13.671875
7844		-17.578125
7845		-13.671875
7846		-15.625000
7847		-13.671875
7848		-15.625000
7849		-13.671875
7850		-15.625000
7851		-11.718750
7852		-15.625000
7853		-11.718750
7854		-15.625000
7855		-11.718750
7856		-17.578125
7857		-9.765625
7858		-13.671875
7859		-11.718750
7860		-13.671875
7861		-9.765625
7862		-13.671875
7863		-7.812500
7864		-13.671875
7865		-9.765625
7866		-13.671875
7867		-9.765625
7868		-13.671875
7869		-9.765625
7870		-11.718750
7871		-9.765625
7872		-13.671875
7873		-5.859375
7874		-11.718750
7875		-7.812500
7876		-11.718750
7877		-7.812500
7878		-11.718750
7879		-7.812500
7880		-9.765625
7881		-7.812500
7882		-9.765625
7883		-5.859375
7884		-11.718750
7885		-5.859375
7886		-9.765625
7887		-7.812500
7888		-9.765625
7889		-5.859375
7890		-11.718750
7891		-5.859375
7892		-9.765625
7893		-5.859375
7894		-9.765625
7895		-5.859375
7896		-7.812500
7897		-5.859375
7898		-9.765625
7899		-3.906250
7900		-7.812500
7901		-3.906250
7902		-7.812500
7903		-3.906250
7904		-5.859375
7905		-3.906250
7906		-5.859375
7907		-1.953125
7908		-5.859375
7909		-1.953125
7910		-5.859375
7911		-1.953125
7912		-5.859375
7913		-1.953125
7914		-3.906250
7915		-1.953125
7916		-3.906250
7917		-1.953125
7918		-5.859375
7919		-1.953125
7920		-3.906250
7921		0.000000
7922		-3.906250
7923		0.000000
7924		-3.906250
7925		0.000000
7926		-3.906250
7927		0.000000
7928		-1.953125
7929		1.953125
7930		-3.906250
7931		1.953125
7932		-1.953125
7933		1.953125
7934		-1.953125
7935		1.953125
7936		-1.953125
7937		1.953125
7938		0.000000
7939		1.953125
7940		0.000000
7941		3.906250
7942		0.000000
7943		3.906250
7944		0.000000
7945		3.906250
7946		0.000000
7947		3.906250
7948		1.953125
7949		3.906250
7950		1.953125
7951		5.859375
7952		1.953125
7953		5.859375
7954		1.953125
7955		5.859375
7956		1.953125
7957		5.859375
7958		1.953125
7959		5.859375
7960		3.906250
7961		5.859375
7962		1.953125
7963		7.812500
7964		3.906250
7965		7.812500
7966		3.906250
7967		7.812500
7968		3.906250
7969		9.765625
7970		5.859375
7971		7.812500
7972		5.859375
7973		9.765625
7974		5.859375
7975		9.765625
7976		5.859375
7977		9.765625
7978		5.859375
7979		9.765625
7980		5.859375
7981		9.765625
7982		7.812500
7983		9.765625
7984		7.812500
7985		9.765625
7986		7.812500
7987		11.718750
7988		7.812500
7989		11.718750
7990		7.812500
7991		11.718750
7992		9.765625
7993		11.718750
7994		9.765625
7995		13.671875
7996		9.765625
7997		11.718750
7998		9.765625
7999		11.718750
8000		9.765625
8001		13.671875
8002		9.765625
8003		13.671875
8004		9.765625
8005		13.671875
8006		9.765625
8007		13.671875
8008		9.765625
8009		13.671875
8010		9.765625
8011		15.625000
8012		11.718750
8013		13.671875
8014		11.718750
8015		15.625000
8016		11.718750
8017		15.625000
8018		11.718750
8019		15.625000
8020		11.718750
8021		15.625000
8022		11.718750
8023		15.625000
8024		13.671875
8025		15.625000
8026		13.671875
8027		15.625000
8028		13.671875
8029		17.578125
8030		13.671875
8031		17.578125
8032		13.671875
8033		17.578125
8034		13.671875
8035		17.578125
8036		13.671875
8037		17.578125
8038		13.671875
8039		17.578125
8040		13.671875
8041		17.578125
8042		13.671875
8043		17.578125
8044		13.671875
8045		17.578125
8046		15.625000
8047		19.531250
8048		15.625000
8049		17.578125
8050		15.625000
8051		19.531250
8052		15.625000
8053		19.531250
8054		15.625000
8055		19.531250
8056		15.625000
8057		19.531250
8058		15.625000
8059		19.531250
8060		15.625000
8061		19.531250
8062		15.625000
8063		19.531250
8064		15.625000
8065		19.531250
8066		15.625000
8067		19.531250
8068		15.625000
8069		19.531250
8070		15.625000
8071		19.531250
8072		17.578125
8073		19.531250
8074		17.578125
8075		19.531250
8076		17.578125
8077		21.484375
8078		17.578125
8079		21.484375
8080		17.578125
8081		21.484375
8082		15.625000
8083		21.484375
8084		17.578125
8085		19.531250
8086		17.578125
8087		21.484375
8088		17.578125
8089		21.484375
8090		17.578125
8091		21.484375
8092		17.578125
8093		21.484375
8094		17.578125
8095		21.484375
8096		17.578125
8097		21.484375
8098		17.578125
8099		21.484375
8100		19.531250
8101		21.484375
8102		17.578125
8103		21.484375
8104		17.578125
8105		23.437500
8106		17.578125
8107		21.484375
8108		17.578125
8109		21.484375
8110		17.578125
8111		21.484375
8112		17.578125
8113		21.484375
8114		17.578125
8115		21.484375
8116		17.578125
8117		21.484375
8118		17.578125
8119		21.484375
8120		17.578125
8121		21.484375
8122		17.578125
8123		21.484375
8124		17.578125
8125		21.484375
8126		17.578125
8127		21.484375
8128		17.578125
8129		21.484375
8130		17.578125
8131		21.484375
8132		17.578125
8133		21.484375
8134		17.578125
8135		21.484375
8136		17.578125
8137		21.484375
8138		17.578125
8139		21.484375
8140		17.578125
8141		21.484375
8142		17.578125
8143		21.484375
8144		17.578125
8145		21.484375
8146		17.578125
8147		21.484375
8148		17.578125
8149		21.484375
8150		17.578125
8151		21.484375
8152		17.578125
8153		21.484375
8154		17.578125
8155		21.484375
8156		17.578125
8157		21.484375
8158		17.578125
8159		19.531250
8160		17.578125
8161		21.484375
8162		17.578125
8163		19.531250
8164		17.578125
8165		19.531250
8166		17.578125
8167		19.531250
8168		17.578125
8169		19.531250
8170		15.625000
8171		19.531250
8172		15.625000
8173		19.531250
8174		15.625000
8175		19.531250
8176		13.671875
8177		19.531250
8178		15.625000
8179		19.531250
8180		15.625000
8181		19.531250
8182		15.625000
8183		19.531250
8184		15.625000
8185		17.578125
8186		15.625000
8187		19.531250
8188		13.671875
8189		17.578125
8190		15.625000
8191		17.578125
8192		13.671875
8193		17.578125
8194		13.671875
8195		17.578125
8196		13.671875
8197		17.578125
8198		13.671875
8199		17.578125
8200		13.671875
8201		17.578125
8202		13.671875
8203		17.578125
8204		13.671875
8205		15.625000
8206		13.671875
8207		17.578125
8208		13.671875
8209		15.625000
8210		11.718750
8211		15.625000
8212		11.718750
8213		15.625000
8214		11.718750
8215		15.625000
8216		11.718750
8217		13.671875
8218		11.718750
8219		15.625000
8220		11.718750
8221		15.625000
8222		11.718750
8223		13.671875
8224		9.765625
8225		15.625000
8226		9.765625
8227		13.671875
8228		9.765625
8229		13.671875
8230		9.765625
8231		13.671875
8232		9.765625
8233		13.671875
8234		9.765625
8235		13.671875
8236		9.765625
8237		11.718750
8238		7.812500
8239		11.718750
8240		7.812500
8241		11.718750
8242		7.812500
8243		11.718750
8244		7.812500
8245		11.718750
8246		7.812500
8247		11.718750
8248		5.859375
8249		11.718750
8250		7.812500
8251		11.718750
8252		7.812500
8253		9.765625
8254		5.859375
8255		9.765625
8256		5.859375
8257		9.765625
8258		5.859375
8259		9.765625
8260		5.859375
8261		7.812500
8262		5.859375
8263		9.765625
8264		3.906250
8265		9.765625
8266		3.906250
8267		7.812500
8268		3.906250
8269		7.812500
8270		3.906250
8271		7.812500
8272		3.906250
8273		5.859375
8274		3.906250
8275		5.859375
8276		1.953125
8277		5.859375
8278		1.953125
8279		5.859375
8280		1.953125
8281		5.859375
8282		0.000000
8283		5.859375
8284		1.953125
8285		3.906250
8286		0.000000
8287		3.906250
8288		0.000000
8289		3.906250
8290		0.000000
8291		3.906250
8292		-1.953125
8293		3.906250
8294		0.000000
8295		3.906250
8296		0.000000
8297		1.953125
8298		-1.953125
8299		1.953125
8300		-1.953125
8301		1.953125
8302		-1.953125
8303		0.000000
8304		-1.953125
8305		1.953125
8306		-3.906250
8307		0.000000
8308		-3.906250
8309		0.000000
8310		-3.906250
8311		0.000000
8312		-3.906250
8313		0.000000
8314		-5.859375
8315		0.000000
8316		-3.906250
8317		0.000000
8318		-3.906250
8319		-1.953125
8320		-5.859375
8321		0.000000
8322		-5.859375
8323		-1.953125
8324		-5.859375
8325		-1.953125
8326		-5.859375
8327		-1.953125
8328		-7.812500
8329		-3.906250
8330		-7.812500
8331		-3.906250
8332		-7.812500
8333		-3.906250
8334		-7.812500
8335		-3.906250
8336		-7.812500
8337		-3.906250
8338		-9.765625
8339		-3.906250
8340		-7.812500
8341		-5.859375
8342		-9.765625
8343		-5.859375
8344		-9.765625
8345		-5.859375
8346		-9.765625
8347		-5.859375
8348		-9.765625
8349		-5.859375
8350		-11.718750
8351		-7.812500
8352		-11.718750
8353		-7.812500
8354		-11.718750
8355		-7.812500
8356		-11.718750
8357		-7.812500
8358		-11.718750
8359		-7.812500
8360		-11.718750
8361		-7.812500
8362		-11.718750
8363		-9.765625
8364		-13.671875
8365		-9.765625
8366		-13.671875
8367		-9.765625
8368		-13.671875
8369		-9.765625
8370		-13.671875
8371		-9.765625
8372		-13.671875
8373		-9.765625
8374		-15.625000
8375		-11.718750
8376		-15.625000
8377		-11.718750
8378		-15.625000
8379		-11.718750
8380		-15.625000
8381		-11.718750
8382		-15.625000
8383		-11.718750
8384		-15.625000
8385		-13.671875
8386		-15.625000
8387		-13.671875
8388		-15.625000
8389		-13.671875
8390		-17.578125
8391		-13.671875
8392		-17.578125
8393		-13.671875
8394		-17.578125
8395		-13.671875
8396		-17.578125
8397		-13.671875
8398		-17.578125
8399		-13.671875
8400		-17.578125
8401		-13.671875
8402		-17.578125
8403		-13.671875
8404		-19.531250
8405		-15.625000
8406		-19.531250
8407		-15.625000
8408		-19.531250
8409		-15.625000
8410		-19.531250
8411		-15.625000
8412		-19.531250
8413		-15.625000
8414		-19.531250
8415		-15.625000
8416		-21.484375
8417		-15.625000
8418		-19.531250
8419		-17.578125
8420		-19.531250
8421		-15.625000
8422		-21.484375
8423		-15.625000
8424		-21.484375
8425		-17.578125
8426		-21.484375
8427		-17.578125
8428		-21.484375
8429		-17.578125
8430		-21.484375
8431		-17.578125
8432		-21.484375
8433		-17.578125
8434		-21.484375
8435		-17.578125
8436		-21.484375
8437		-19.531250
8438		-21.484375
8439		-17.578125
8440		-21.484375
8441		-19.531250
8442		-21.484375
8443		-19.531250
8444		-21.484375
8445		-19.531250
8446		-21.484375
8447		-19.531250
8448		-23.437500
8449		-17.578125
8450		-23.437500
8451		-19.531250
8452		-21.484375
8453		-19.531250
8454		-23.437500
8455		-19.531250
8456		-23.437500
8457		-19.531250
8458		-23.437500
8459		-19.531250
8460		-23.437500
8461		-19.531250
8462		-23.437500
8463		-19.531250
8464		-23.437500
8465		-19.531250
8466		-23.437500
8467		-19.531250
8468		-23.437500
8469		-21.484375
8470		-23.437500
8471		-19.531250
8472		-23.437500
8473		-19.531250
8474		-23.437500
8475		-19.531250
8476		-23.437500
8477		-19.531250
8478		-23.437500
8479		-19.531250
8480		-23.437500
8481		-19.531250
8482		-23.437500
8483		-19.531250
8484		-23.437500
8485		-19.531250
8486		-23.437500
8487		-19.531250
8488		-23.437500
8489		-19.531250
8490		-23.437500
8491		-19.531250
8492		-23.437500
8493		-19.531250
8494		-23.437500
8495		-19.531250
8496		-23.437500
8497		-19.531250
8498		-23.437500
8499		-19.531250
8500		-23.437500
8501		-19.531250
8502		-23.437500
8503		-21.484375
8504		-23.437500
8505		-19.531250
8506		-23.437500
8507		-19.531250
8508		-23.437500
8509		-19.531250
8510		-23.437500
8511		-19.531250
8512		-23.437500
8513		-19.531250
8514		-23.437500
8515		-19.531250
8516		-23.437500
8517		-19.531250
8518		-23.437500
8519		-19.531250
8520		-21.484375
8521		-19.531250
8522		-23.437500
8523		-19.531250
8524		-21.484375
8525		-19.531250
8526		-21.484375
8527		-19.531250
8528		-21.484375
8529		-17.578125
8530		-21.484375
8531		-19.531250
8532		-21.484375
8533		-17.578125
8534		-23.437500
8535		-17.578125
8536		-21.484375
8537		-19.531250
8538		-21.484375
8539		-17.578125
8540		-21.484375
8541		-17.578125
8542		-21.484375
8543		-17.578125
8544		-21.484375
8545		-17.578125
8546		-19.531250
8547		-17.578125
8548		-21.484375
8549		-15.625000
8550		-19.531250
8551		-17.578125
8552		-19.531250
8553		-15.625000
8554		-19.531250
8555		-15.625000
8556		-19.531250
8557		-15.625000
8558		-19.531250
8559		-15.625000
8560		-17.578125
8561		-15.625000
8562		-17.578125
8563		-15.625000
8564		-19.531250
8565		-13.671875
8566		-17.578125
8567		-15.625000
8568		-19.531250
8569		-13.671875
8570		-17.578125
8571		-13.671875
8572		-17.578125
8573		-13.671875
8574		-17.578125
8575		-13.671875
8576		-17.578125
8577		-11.718750
8578		-15.625000
8579		-13.671875
8580		-15.625000
8581		-13.671875
8582		-17.578125
8583		-11.718750
8584		-17.578125
8585		-11.718750
8586		-15.625000
8587		-11.718750
8588		-15.625000
8589		-11.718750
8590		-15.625000
8591		-11.718750
8592		-15.625000
8593		-11.718750
8594		-13.671875
8595		-11.718750
8596		-13.671875
8597		-11.718750
8598		-13.671875
8599		-9.765625
8600		-13.671875
8601		-9.765625
8602		-13.671875
8603		-9.765625
8604		-13.671875
8605		-9.765625
8606		-13.671875
8607		-9.765625
8608		-11.718750
8609		-9.765625
8610		-11.718750
8611		-7.812500
8612		-11.718750
8613		-7.812500
8614		-11.718750
8615		-7.812500
8616		-11.718750
8617		-7.812500
8618		-9.765625
8619		-5.859375
8620		-11.718750
8621		-5.859375
8622		-9.765625
8623		-7.812500
8624		-9.765625
8625		-5.859375
8626		-9.765625
8627		-5.859375
8628		-9.765625
8629		-5.859375
8630		-7.812500
8631		-3.906250
8632		-7.812500
8633		-3.906250
8634		-7.812500
8635		-3.906250
8636		-7.812500
8637		-3.906250
8638		-7.812500
8639		-3.906250
8640		-5.859375
8641		-1.953125
8642		-5.859375
8643		-1.953125
8644		-5.859375
8645		-1.953125
8646		-5.859375
8647		-1.953125
8648		-5.859375
8649		-1.953125
8650		-5.859375
8651		-1.953125
8652		-3.906250
8653		0.000000
8654		-3.906250
8655		0.000000
8656		-3.906250
8657		0.000000
8658		-3.906250
8659		0.000000
8660		-3.906250
8661		0.000000
8662		-1.953125
8663		0.000000
8664		-1.953125
8665		1.953125
8666		-1.953125
8667		1.953125
8668		-1.953125
8669		1.953125
8670		0.000000
8671		1.953125
8672		0.000000
8673		1.953125
8674		0.000000
8675		3.906250
8676		0.000000
8677		3.906250
8678		0.000000
8679		3.906250
8680		1.953125
8681		3.906250
8682		0.000000
8683		3.906250
8684		1.953125
8685		3.906250
8686		1.953125
8687		5.859375
8688		1.953125
8689		3.906250
8690		1.953125
8691		5.859375
8692		1.953125
8693		5.859375
8694		3.906250
8695		5.859375
8696		1.953125
8697		7.812500
8698		3.906250
8699		7.812500
8700		3.906250
8701		7.812500
8702		3.906250
8703		7.812500
8704		5.859375
8705		7.812500
8706		5.859375
8707		9.765625
8708		5.859375
8709		9.765625
8710		5.859375
8711		9.765625
8712		5.859375
8713		9.765625
8714		5.859375
8715		9.765625
8716		5.859375
8717		11.718750
8718		7.812500
8719		9.765625
8720		7.812500
8721		11.718750
8722		7.812500
8723		11.718750
8724		7.812500
8725		11.718750
8726		7.812500
8727		11.718750
8728		9.765625
8729		11.718750
8730		9.765625
8731		13.671875
8732		7.812500
8733		13.671875
8734		9.765625
8735		13.671875
8736		9.765625
8737		13.671875
8738		9.765625
8739		13.671875
8740		9.765625
8741		13.671875
8742		9.765625
8743		15.625000
8744		11.718750
8745		13.671875
8746		11.718750
8747		13.671875
8748		11.718750
8749		15.625000
8750		11.718750
8751		15.625000
8752		9.765625
8753		15.625000
8754		13.671875
8755		15.625000
8756		13.671875
8757		15.625000
8758		13.671875
8759		17.578125
8760		13.671875
8761		17.578125
8762		13.671875
8763		15.625000
8764		13.671875
8765		17.578125
8766		13.671875
8767		17.578125
8768		13.671875
8769		17.578125
8770		13.671875
8771		17.578125
8772		15.625000
8773		17.578125
8774		15.625000
8775		19.531250
8776		15.625000
8777		19.531250
8778		15.625000
8779		17.578125
8780		15.625000
8781		17.578125
8782		15.625000
8783		19.531250
8784		15.625000
8785		19.531250
8786		15.625000
8787		19.531250
8788		15.625000
8789		19.531250
8790		17.578125
8791		19.531250
8792		17.578125
8793		19.531250
8794		15.625000
8795		21.484375
8796		17.578125
8797		19.531250
8798		17.578125
8799		19.531250
8800		17.578125
8801		21.484375
8802		17.578125
8803		21.484375
8804		15.625000
8805		21.484375
8806		17.578125
8807		21.484375
8808		17.578125
8809		21.484375
8810		17.578125
8811		21.484375
8812		17.578125
8813		21.484375
8814		17.578125
8815		21.484375
8816		17.578125
8817		21.484375
8818		17.578125
8819		21.484375
8820		17.578125
8821		21.484375
8822		19.531250
8823		21.484375
8824		17.578125
8825		21.484375
8826		17.578125
8827		23.437500
8828		19.531250
8829		21.484375
8830		19.531250
8831		21.484375
8832		17.578125
8833		21.484375
8834		19.531250
8835		21.484375
8836		17.578125
8837		23.437500
8838		17.578125
8839		21.484375
8840		19.531250
8841		21.484375
8842		19.531250
8843		23.437500
8844		17.578125
8845		21.484375
8846		19.531250
8847		21.484375
8848		19.531250
8849		23.437500
8850		19.531250
8851		21.484375
8852		19.531250
8853		21.484375
8854		17.578125
8855		21.484375
8856		19.531250
8857		21.484375
8858		17.578125
8859		21.484375
8860		19.531250
8861		21.484375
8862		19.531250
8863		21.484375
8864		19.531250
8865		21.484375
8866		19.531250
8867		21.484375
8868		17.578125
8869		21.484375
8870		17.578125
8871		21.484375
8872		17.578125
8873		21.484375
8874		19.531250
8875		21.484375
8876		17.578125
8877		23.437500
8878		17.578125
8879		21.484375
8880		17.578125
8881		21.484375
8882		17.578125
8883		21.484375
8884		17.578125
8885		21.484375
8886		17.578125
8887		21.484375
8888		17.578125
8889		21.484375
8890		17.578125
8891		19.531250
8892		17.578125
8893		21.484375
8894		17.578125
8895		21.484375
8896		17.578125
8897		19.531250
8898		15.625000
8899		21.484375
8900		17.578125
8901		19.531250
8902		17.578125
8903		19.531250
8904		15.625000
8905		21.484375
8906		17.578125
8907		19.531250
8908		15.625000
8909		19.531250
8910		15.625000
8911		19.531250
8912		15.625000
8913		19.531250
8914		15.625000
8915		19.531250
8916		15.625000
8917		19.531250
8918		15.625000
8919		19.531250
8920		13.671875
8921		19.531250
8922		15.625000
8923		17.578125
8924		15.625000
8925		17.578125
8926		15.625000
8927		17.578125
8928		13.671875
8929		17.578125
8930		13.671875
8931		17.578125
8932		13.671875
8933		17.578125
8934		13.671875
8935		17.578125
8936		13.671875
8937		17.578125
8938		13.671875
8939		17.578125
8940		13.671875
8941		15.625000
8942		11.718750
8943		15.625000
8944		11.718750
8945		15.625000
8946		11.718750
8947		15.625000
8948		11.718750
8949		15.625000
8950		11.718750
8951		15.625000
8952		9.765625
8953		15.625000
8954		11.718750
8955		15.625000
8956		11.718750
8957		13.671875
8958		11.718750
8959		13.671875
8960		9.765625
8961		13.671875
8962		9.765625
8963		13.671875
8964		9.765625
8965		13.671875
8966		9.765625
8967		11.718750
8968		9.765625
8969		11.718750
8970		9.765625
8971		11.718750
8972		7.812500
8973		11.718750
8974		7.812500
8975		11.718750
8976		7.812500
8977		11.718750
8978		7.812500
8979		11.718750
8980		7.812500
8981		11.718750
8982		7.812500
8983		9.765625
8984		7.812500
8985		11.718750
8986		5.859375
8987		9.765625
8988		5.859375
8989		9.765625
8990		5.859375
8991		9.765625
8992		5.859375
8993		7.812500
8994		3.906250
8995		7.812500
8996		5.859375
8997		7.812500
8998		3.906250
8999		7.812500
9000		3.906250
9001		7.812500
9002		3.906250
9003		7.812500
9004		1.953125
9005		7.812500
9006		3.906250
9007		5.859375
9008		1.953125
9009		5.859375
9010		1.953125
9011		5.859375
9012		1.953125
9013		5.859375
9014		1.953125
9015		5.859375
9016		0.000000
9017		3.906250
9018		1.953125
9019		5.859375
9020		0.000000
9021		3.906250
9022		0.000000
9023		3.906250
9024		0.000000
9025		3.906250
9026		-1.953125
9027		3.906250
9028		-1.953125
9029		3.906250
9030		0.000000
9031		1.953125
9032		0.000000
9033		1.953125
9034		-1.953125
9035		1.953125
9036		-1.953125
9037		0.000000
9038		-1.953125
9039		1.953125
9040		-3.906250
9041		0.000000
9042		-1.953125
9043		0.000000
9044		-3.906250
9045		0.000000
9046		-3.906250
9047		0.000000
9048		-3.906250
9049		0.000000
9050		-3.906250
9051		-1.953125
9052		-5.859375
9053		-1.953125
9054		-5.859375
9055		-1.953125
9056		-5.859375
9057		-1.953125
9058		-5.859375
9059		-1.953125
9060		-7.812500
9061		-1.953125
9062		-5.859375
9063		-1.953125
9064		-7.812500
9065		-3.906250
9066		-7.812500
9067		-3.906250
9068		-7.812500
9069		-3.906250
9070		-7.812500
9071		-3.906250
9072		-7.812500
9073		-5.859375
9074		-9.765625
9075		-5.859375
9076		-7.812500
9077		-5.859375
9078		-9.765625
9079		-5.859375
9080		-11.718750
9081		-5.859375
9082		-9.765625
9083		-7.812500
9084		-11.718750
9085		-7.812500
9086		-11.718750
9087		-7.812500
9088		-11.718750
9089		-7.812500
9090		-11.718750
9091		-7.812500
9092		-11.718750
9093		-9.765625
9094		-13.671875
9095		-7.812500
9096		-13.671875
9097		-7.812500
9098		-11.718750
9099		-9.765625
9100		-13.671875
9101		-9.765625
9102		-13.671875
9103		-9.765625
9104		-13.671875
9105		-9.765625
9106		-15.625000
9107		-9.765625
9108		-13.671875
9109		-11.718750
9110		-15.625000
9111		-11.718750
9112		-15.625000
9113		-11.718750
9114		-15.625000
9115		-11.718750
9116		-15.625000
9117		-11.718750
9118		-15.625000
9119		-11.718750
9120		-15.625000
9121		-13.671875
9122		-15.625000
9123		-13.671875
9124		-17.578125
9125		-13.671875
9126		-15.625000
9127		-13.671875
9128		-17.578125
9129		-13.671875
9130		-17.578125
9131		-13.671875
9132		-17.578125
9133		-13.671875
9134		-17.578125
9135		-15.625000
9136		-17.578125
9137		-15.625000
9138		-19.531250
9139		-13.671875
9140		-19.531250
9141		-15.625000
9142		-17.578125
9143		-15.625000
9144		-19.531250
9145		-15.625000
9146		-19.531250
9147		-15.625000
9148		-19.531250
9149		-15.625000
9150		-19.531250
9151		-15.625000
9152		-19.531250
9153		-17.578125
9154		-21.484375
9155		-13.671875
9156		-19.531250
9157		-17.578125
9158		-19.531250
9159		-17.578125
9160		-19.531250
9161		-17.578125
9162		-21.484375
9163		-17.578125
9164		-21.484375
9165		-17.578125
9166		-21.484375
9167		-17.578125
9168		-21.484375
9169		-17.578125
9170		-21.484375
9171		-17.578125
9172		-21.484375
9173		-17.578125
9174		-21.484375
9175		-17.578125
9176		-21.484375
9177		-17.578125
9178		-21.484375
9179		-17.578125
9180		-21.484375
9181		-19.531250
9182		-21.484375
9183		-17.578125
9184		-21.484375
9185		-19.531250
9186		-21.484375
9187		-17.578125
9188		-23.437500
9189		-19.531250
9190		-23.437500
9191		-19.531250
9192		-23.437500
9193		-17.578125
9194		-21.484375
9195		-17.578125
9196		-23.437500
9197		-19.531250
9198		-23.437500
9199		-19.531250
9200		-23.437500
9201		-19.531250
9202		-23.437500
9203		-19.531250
9204		-23.437500
9205		-19.531250
9206		-23.437500
9207		-19.531250
9208		-21.484375
9209		-19.531250
9210		-23.437500
9211		-19.531250
9212		-23.437500
9213		-19.531250
9214		-23.437500
9215		-19.531250
9216		-23.437500
9217		-19.531250
9218		-23.437500
9219		-19.531250
9220		-23.437500
9221		-19.531250
9222		-23.437500
9223		-19.531250
9224		-23.437500
9225		-19.531250
9226		-23.437500
9227		-19.531250
9228		-23.437500
9229		-19.531250
9230		-23.437500
9231		-19.531250
9232		-23.437500
9233		-19.531250
9234		-23.437500
9235		-19.531250
9236		-23.437500
9237		-17.578125
9238		-23.437500
9239		-19.531250
9240		-23.437500
9241		-19.531250
9242		-21.484375
9243		-19.531250
9244		-21.484375
9245		-19.531250
9246		-23.437500
9247		-19.531250
9248		-21.484375
9249		-19.531250
9250		-21.484375
9251		-19.531250
9252		-21.484375
9253		-17.578125
9254		-21.484375
9255		-19.531250
9256		-21.484375
9257		-17.578125
9258		-23.437500
9259		-17.578125
9260		-21.484375
9261		-19.531250
9262		-21.484375
9263		-17.578125
9264		-21.484375
9265		-17.578125
9266		-21.484375
9267		-17.578125
9268		-21.484375
9269		-17.578125
9270		-19.531250
9271		-17.578125
9272		-21.484375
9273		-17.578125
9274		-21.484375
9275		-15.625000
9276		-19.531250
9277		-17.578125
9278		-19.531250
9279		-15.625000
9280		-19.531250
9281		-15.625000
9282		-19.531250
9283		-15.625000
9284		-19.531250
9285		-15.625000
9286		-19.531250
9287		-15.625000
9288		-19.531250
9289		-15.625000
9290		-19.531250
9291		-15.625000
9292		-19.531250
9293		-15.625000
9294		-17.578125
9295		-15.625000
9296		-17.578125
9297		-13.671875
9298		-17.578125
9299		-13.671875
9300		-17.578125
9301		-13.671875
9302		-17.578125
9303		-13.671875
9304		-17.578125
9305		-13.671875
9306		-17.578125
9307		-13.671875
9308		-15.625000
9309		-13.671875
9310		-15.625000
9311		-13.671875
9312		-15.625000
9313		-11.718750
9314		-15.625000
9315		-13.671875
9316		-15.625000
9317		-11.718750
9318		-15.625000
9319		-11.718750
9320		-15.625000
9321		-11.718750
9322		-15.625000
9323		-11.718750
9324		-15.625000
9325		-9.765625
9326		-13.671875
9327		-11.718750
9328		-13.671875
9329		-9.765625
9330		-13.671875
9331		-9.765625
9332		-13.671875
9333		-9.765625
9334		-13.671875
9335		-9.765625
9336		-13.671875
9337		-9.765625
9338		-11.718750
9339		-9.765625
9340		-11.718750
9341		-7.812500
9342		-11.718750
9343		-7.812500
9344		-11.718750
9345		-7.812500
9346		-11.718750
9347		-7.812500
9348		-9.765625
9349		-7.812500
9350		-9.765625
9351		-7.812500
9352		-9.765625
9353		-5.859375
9354		-9.765625
9355		-5.859375
9356		-9.765625
9357		-5.859375
9358		-9.765625
9359		-5.859375
9360		-7.812500
9361		-5.859375
9362		-7.812500
9363		-5.859375
9364		-9.765625
9365		-3.906250
9366		-7.812500
9367		-3.906250
9368		-7.812500
9369		-3.906250
9370		-7.812500
9371		-3.906250
9372		-5.859375
9373		-3.906250
9374		-7.812500
9375		-1.953125
9376		-5.859375
9377		-1.953125
9378		-5.859375
9379		-1.953125
9380		-5.859375
9381		-1.953125
9382		-3.906250
9383		-1.953125
9384		-3.906250
9385		-1.953125
9386		-3.906250
9387		0.000000
9388		-3.906250
9389		0.000000
9390		-3.906250
9391		0.000000
9392		-1.953125
9393		0.000000
9394		-1.953125
9395		0.000000
9396		-1.953125
9397		1.953125
9398		-1.953125
9399		1.953125
9400		-1.953125
9401		1.953125
9402		-1.953125
9403		1.953125
9404		0.000000
9405		1.953125
9406		0.000000
9407		3.906250
9408		0.000000
9409		3.906250
9410		0.000000
9411		3.906250
9412		0.000000
9413		3.906250
9414		1.953125
9415		3.906250
9416		0.000000
9417		3.906250
9418		1.953125
9419		5.859375
9420		1.953125
9421		5.859375
9422		1.953125
9423		5.859375
9424		1.953125
9425		5.859375
9426		1.953125
9427		5.859375
9428		3.906250
9429		5.859375
9430		3.906250
9431		7.812500
9432		3.906250
9433		7.812500
9434		3.906250
9435		7.812500
9436		3.906250
9437		7.812500
9438		5.859375
9439		9.765625
9440		5.859375
9441		9.765625
9442		5.859375
9443		9.765625
9444		7.812500
9445		9.765625
9446		5.859375
9447		9.765625
9448		7.812500
9449		9.765625
9450		7.812500
9451		9.765625
9452		7.812500
9453		11.718750
9454		7.812500
9455		11.718750
9456		7.812500
9457		11.718750
9458		7.812500
9459		11.718750
9460		7.812500
9461		11.718750
9462		9.765625
9463		11.718750
9464		9.765625
9465		13.671875
9466		9.765625
9467		13.671875
9468		9.765625
9469		13.671875
9470		9.765625
9471		13.671875
9472		9.765625
9473		13.671875
9474		11.718750
9475		13.671875
9476		9.765625
9477		15.625000
9478		11.718750
9479		13.671875
9480		11.718750
9481		15.625000
9482		11.718750
9483		15.625000
9484		11.718750
9485		15.625000
9486		13.671875
9487		15.625000
9488		13.671875
9489		17.578125
9490		13.671875
9491		15.625000
9492		13.671875
9493		17.578125
9494		13.671875
9495		17.578125
9496		13.671875
9497		17.578125
9498		13.671875
9499		17.578125
9500		13.671875
9501		17.578125
9502		15.625000
9503		17.578125
9504		15.625000
9505		17.578125
9506		15.625000
9507		17.578125
9508		15.625000
9509		19.531250
9510		15.625000
9511		19.531250
9512		15.625000
9513		19.531250
9514		15.625000
9515		19.531250
9516		15.625000
9517		19.531250
9518		15.625000
9519		19.531250
9520		17.578125
9521		19.531250
9522		17.578125
9523		19.531250
9524		15.625000
9525		21.484375
9526		17.578125
9527		19.531250
9528		17.578125
9529		19.531250
9530		17.578125
9531		21.484375
9532		17.578125
9533		19.531250
9534		17.578125
9535		21.484375
9536		17.578125
9537		21.484375
9538		17.578125
9539		21.484375
9540		17.578125
9541		21.484375
9542		17.578125
9543		21.484375
9544		19.531250
9545		21.484375
9546		17.578125
9547		21.484375
9548		17.578125
9549		21.484375
9550		17.578125
9551		21.484375
9552		19.531250
9553		21.484375
9554		17.578125
9555		21.484375
9556		19.531250
9557		21.484375
9558		19.531250
9559		21.484375
9560		17.578125
9561		23.437500
9562		19.531250
9563		21.484375
9564		19.531250
9565		21.484375
9566		19.531250
9567		23.437500
9568		19.531250
9569		23.437500
9570		19.531250
9571		23.437500
9572		19.531250
9573		23.437500
9574		19.531250
9575		21.484375
9576		17.578125
9577		23.437500
9578		19.531250
9579		23.437500
9580		19.531250
9581		21.484375
9582		19.531250
9583		23.437500
9584		17.578125
9585		23.437500
9586		19.531250
9587		21.484375
9588		19.531250
9589		23.437500
9590		19.531250
9591		25.390625
9592		19.531250
9593		23.437500
9594		19.531250
9595		21.484375
9596		19.531250
9597		23.437500
9598		17.578125
9599		23.437500
9600		19.531250
9601		21.484375
9602		17.578125
9603		23.437500
9604		17.578125
9605		21.484375
9606		19.531250
9607		21.484375
9608		17.578125
9609		21.484375
9610		17.578125
9611		23.437500
9612		19.531250
9613		21.484375
9614		19.531250
9615		21.484375
9616		19.531250
9617		21.484375
9618		17.578125
9619		21.484375
9620		17.578125
9621		21.484375
9622		17.578125
9623		21.484375
9624		17.578125
9625		21.484375
9626		17.578125
9627		21.484375
9628		17.578125
9629		21.484375
9630		17.578125
9631		21.484375
9632		17.578125
9633		21.484375
9634		17.578125
9635		21.484375
9636		17.578125
9637		21.484375
9638		17.578125
9639		19.531250
9640		17.578125
9641		19.531250
9642		17.578125
9643		19.531250
9644		15.625000
9645		21.484375
9646		17.578125
9647		19.531250
9648		15.625000
9649		19.531250
9650		15.625000
9651		19.531250
9652		15.625000
9653		19.531250
9654		15.625000
9655		19.531250
9656		15.625000
9657		19.531250
9658		15.625000
9659		17.578125
9660		15.625000
9661		19.531250
9662		15.625000
9663		17.578125
9664		15.625000
9665		17.578125
9666		13.671875
9667		17.578125
9668		13.671875
9669		17.578125
9670		13.671875
9671		17.578125
9672		13.671875
9673		17.578125
9674		13.671875
9675		17.578125
9676		13.671875
9677		17.578125
9678		11.718750
9679		17.578125
9680		13.671875
9681		15.625000
9682		11.718750
9683		17.578125
9684		11.718750
9685		15.625000
9686		11.718750
9687		15.625000
9688		11.718750
9689		15.625000
9690		11.718750
9691		15.625000
9692		11.718750
9693		15.625000
9694		9.765625
9695		15.625000
9696		9.765625
9697		13.671875
9698		11.718750
9699		13.671875
9700		9.765625
9701		13.671875
9702		9.765625
9703		13.671875
9704		7.812500
9705		13.671875
9706		9.765625
9707		11.718750
9708		7.812500
9709		11.718750
9710		7.812500
9711		11.718750
9712		7.812500
9713		11.718750
9714		7.812500
9715		11.718750
9716		7.812500
9717		11.718750
9718		7.812500
9719		9.765625
9720		5.859375
9721		9.765625
9722		5.859375
9723		9.765625
9724		5.859375
9725		9.765625
9726		5.859375
9727		9.765625
9728		5.859375
9729		9.765625
9730		5.859375
9731		7.812500
9732		3.906250
9733		7.812500
9734		3.906250
9735		7.812500
9736		3.906250
9737		7.812500
9738		3.906250
9739		7.812500
9740		3.906250
9741		7.812500
9742		3.906250
9743		7.812500
9744		1.953125
9745		5.859375
9746		1.953125
9747		5.859375
9748		1.953125
9749		5.859375
9750		1.953125
9751		5.859375
9752		1.953125
9753		3.906250
9754		1.953125
9755		3.906250
9756		0.000000
9757		3.906250
9758		0.000000
9759		3.906250
9760		0.000000
9761		3.906250
9762		0.000000
9763		3.906250
9764		0.000000
9765		1.953125
9766		-1.953125
9767		1.953125
9768		-1.953125
9769		1.953125
9770		-1.953125
9771		1.953125
9772		-1.953125
9773		0.000000
9774		-1.953125
9775		1.953125
9776		-3.906250
9777		1.953125
9778		-1.953125
9779		0.000000
9780		-3.906250
9781		0.000000
9782		-3.906250
9783		0.000000
9784		-3.906250
9785		0.000000
9786		-3.906250
9787		-1.953125
9788		-3.906250
9789		-1.953125
9790		-5.859375
9791		-1.953125
9792		-5.859375
9793		-1.953125
9794		-5.859375
9795		-3.906250
9796		-5.859375
9797		-1.953125
9798		-7.812500
9799		-3.906250
9800		-7.812500
9801		-3.906250
9802		-7.812500
9803		-3.906250
9804		-7.812500
9805		-3.906250
9806		-7.812500
9807		-5.859375
9808		-9.765625
9809		-5.859375
9810		-9.765625
9811		-5.859375
9812		-9.765625
9813		-5.859375
9814		-9.765625
9815		-5.859375
9816		-9.765625
9817		-5.859375
9818		-9.765625
9819		-5.859375
9820		-11.718750
9821		-5.859375
9822		-9.765625
9823		-7.812500
9824		-11.718750
9825		-7.812500
9826		-11.718750
9827		-7.812500
9828		-11.718750
9829		-7.812500
9830		-11.718750
9831		-9.765625
9832		-11.718750
9833		-9.765625
9834		-13.671875
9835		-9.765625
9836		-13.671875
9837		-9.765625
9838		-13.671875
9839		-9.765625
9840		-13.671875
9841		-9.765625
9842		-13.671875
9843		-9.765625
9844		-13.671875
9845		-11.718750
9846		-15.625000
9847		-9.765625
9848		-13.671875
9849		-11.718750
9850		-15.625000
9851		-11.718750
9852		-15.625000
9853		-11.718750
9854		-15.625000
9855		-11.718750
9856		-15.625000
9857		-11.718750
9858		-15.625000
9859		-11.718750
9860		-15.625000
9861		-13.671875
9862		-15.625000
9863		-13.671875
9864		-17.578125
9865		-13.671875
9866		-15.625000
9867		-13.671875
9868		-17.578125
9869		-13.671875
9870		-17.578125
9871		-13.671875
9872		-17.578125
9873		-13.671875
9874		-17.578125
9875		-13.671875
9876		-17.578125
9877		-15.625000
9878		-17.578125
9879		-15.625000
9880		-19.531250
9881		-15.625000
9882		-17.578125
9883		-15.625000
9884		-19.531250
9885		-15.625000
9886		-19.531250
9887		-15.625000
9888		-19.531250
9889		-15.625000
9890		-19.531250
9891		-15.625000
9892		-19.531250
9893		-17.578125
9894		-19.531250
9895		-15.625000
9896		-21.484375
9897		-15.625000
9898		-19.531250
9899		-17.578125
9900		-21.484375
9901		-17.578125
9902		-19.531250
9903		-17.578125
9904		-21.484375
9905		-17.578125
9906		-21.484375
9907		-17.578125
9908		-21.484375
9909		-17.578125
9910		-21.484375
9911		-17.578125
9912		-21.484375
9913		-17.578125
9914		-21.484375
9915		-17.578125
9916		-21.484375
9917		-17.578125
9918		-21.484375
9919		-17.578125
9920		-21.484375
9921		-19.531250
9922		-23.437500
9923		-17.578125
9924		-21.484375
9925		-19.531250
9926		-21.484375
9927		-19.531250
9928		-21.484375
9929		-17.578125
9930		-21.484375
9931		-19.531250
9932		-21.484375
9933		-19.531250
9934		-23.437500
9935		-17.578125
9936		-23.437500
9937		-19.531250
9938		-21.484375
9939		-19.531250
9940		-21.484375
9941		-19.531250
9942		-21.484375
9943		-17.578125
9944		-21.484375
9945		-19.531250
9946		-23.437500
9947		-19.531250
9948		-21.484375
9949		-19.531250
9950		-23.437500
9951		-17.578125
9952		-23.437500
9953		-19.531250
9954		-21.484375
9955		-19.531250
9956		-23.437500
9957		-19.531250
9958		-21.484375
9959		-19.531250
9960		-23.437500
9961		-19.531250
9962		-21.484375
9963		-19.531250
9964		-23.437500
9965		-17.578125
9966		-23.437500
9967		-17.578125
9968		-21.484375
9969		-19.531250
9970		-21.484375
9971		-19.531250
9972		-21.484375
9973		-17.578125
9974		-21.484375
9975		-19.531250
9976		-23.437500
9977		-17.578125
9978		-21.484375
9979		-17.578125
9980		-23.437500
9981		-17.578125
9982		-21.484375
9983		-19.531250
9984		-21.484375
9985		-19.531250
9986		-21.484375
9987		-17.578125
9988		-21.484375
9989		-17.578125
9990		-21.484375
9991		-17.578125
9992		-21.484375
9993		-17.578125
9994		-21.484375
9995		-17.578125
9996		-21.484375
9997		-15.625000
9998		-19.531250
9999		-17.578125
10000		-19.531250
