Channel              :		CH1
Frequency            :		681.2Hz
Period               :		1.468ms
PK-PK                :		35.16mV
Probe attenuation    :		1X
Voltage per ADC value:		0.122070mV
Time interval        :		2.00000us

index		CH1_Voltage(mV)
1		17.578125
2		17.578125
3		9.765625
4		17.578125
5		11.718750
6		17.578125
7		11.718750
8		17.578125
9		9.765625
10		17.578125
11		11.718750
12		17.578125
13		13.671875
14		17.578125
15		11.718750
16		17.578125
17		11.718750
18		17.578125
19		11.718750
20		17.578125
21		11.718750
22		17.578125
23		11.718750
24		17.578125
25		11.718750
26		17.578125
27		11.718750
28		17.578125
29		13.671875
30		15.625000
31		11.718750
32		17.578125
33		11.718750
34		17.578125
35		11.718750
36		17.578125
37		11.718750
38		17.578125
39		11.718750
40		17.578125
41		11.718750
42		17.578125
43		11.718750
44		17.578125
45		11.718750
46		17.578125
47		13.671875
48		15.625000
49		11.718750
50		17.578125
51		9.765625
52		17.578125
53		11.718750
54		17.578125
55		11.718750
56		17.578125
57		11.718750
58		17.578125
59		9.765625
60		17.578125
61		11.718750
62		17.578125
63		13.671875
64		15.625000
65		11.718750
66		17.578125
67		11.718750
68		17.578125
69		11.718750
70		17.578125
71		11.718750
72		17.578125
73		9.765625
74		17.578125
75		11.718750
76		17.578125
77		9.765625
78		17.578125
79		11.718750
80		15.625000
81		11.718750
82		15.625000
83		9.765625
84		17.578125
85		9.765625
86		15.625000
87		9.765625
88		15.625000
89		9.765625
90		15.625000
91		9.765625
92		17.578125
93		9.765625
94		15.625000
95		9.765625
96		15.625000
97		9.765625
98		13.671875
99		9.765625
100		15.625000
101		9.765625
102		15.625000
103		9.765625
104		15.625000
105		7.812500
106		15.625000
107		7.812500
108		15.625000
109		7.812500
110		15.625000
111		7.812500
112		15.625000
113		9.765625
114		13.671875
115		9.765625
116		11.718750
117		7.812500
118		13.671875
119		7.812500
120		13.671875
121		7.812500
122		13.671875
123		7.812500
124		13.671875
125		5.859375
126		15.625000
127		7.812500
128		11.718750
129		7.812500
130		13.671875
131		7.812500
132		11.718750
133		5.859375
134		13.671875
135		5.859375
136		11.718750
137		5.859375
138		11.718750
139		5.859375
140		11.718750
141		5.859375
142		11.718750
143		5.859375
144		11.718750
145		5.859375
146		11.718750
147		5.859375
148		11.718750
149		5.859375
150		9.765625
151		3.906250
152		11.718750
153		3.906250
154		11.718750
155		3.906250
156		11.718750
157		3.906250
158		11.718750
159		3.906250
160		11.718750
161		3.906250
162		9.765625
163		5.859375
164		7.812500
165		5.859375
166		7.812500
167		3.906250
168		9.765625
169		3.906250
170		9.765625
171		1.953125
172		9.765625
173		3.906250
174		9.765625
175		1.953125
176		9.765625
177		1.953125
178		7.812500
179		1.953125
180		7.812500
181		3.906250
182		5.859375
183		1.953125
184		7.812500
185		0.000000
186		7.812500
187		0.000000
188		5.859375
189		1.953125
190		5.859375
191		0.000000
192		7.812500
193		0.000000
194		7.812500
195		0.000000
196		7.812500
197		0.000000
198		5.859375
199		1.953125
200		3.906250
201		0.000000
202		5.859375
203		0.000000
204		5.859375
205		-1.953125
206		5.859375
207		-1.953125
208		5.859375
209		-1.953125
210		3.906250
211		-1.953125
212		3.906250
213		0.000000
214		3.906250
215		0.000000
216		1.953125
217		-1.953125
218		3.906250
219		-1.953125
220		3.906250
221		-1.953125
222		3.906250
223		-3.906250
224		3.906250
225		-3.906250
226		3.906250
227		-3.906250
228		3.906250
229		-3.906250
230		1.953125
231		-1.953125
232		0.000000
233		-1.953125
234		1.953125
235		-3.906250
236		1.953125
237		-5.859375
238		1.953125
239		-5.859375
240		1.953125
241		-3.906250
242		1.953125
243		-5.859375
244		1.953125
245		-5.859375
246		1.953125
247		-3.906250
248		0.000000
249		-3.906250
250		-1.953125
251		-5.859375
252		0.000000
253		-5.859375
254		0.000000
255		-7.812500
256		0.000000
257		-7.812500
258		0.000000
259		-7.812500
260		0.000000
261		-5.859375
262		0.000000
263		-5.859375
264		-1.953125
265		-5.859375
266		-3.906250
267		-7.812500
268		-1.953125
269		-7.812500
270		-1.953125
271		-7.812500
272		-3.906250
273		-9.765625
274		-1.953125
275		-7.812500
276		-1.953125
277		-9.765625
278		-3.906250
279		-9.765625
280		-3.906250
281		-7.812500
282		-5.859375
283		-7.812500
284		-5.859375
285		-9.765625
286		-3.906250
287		-9.765625
288		-5.859375
289		-9.765625
290		-3.906250
291		-9.765625
292		-3.906250
293		-11.718750
294		-3.906250
295		-11.718750
296		-3.906250
297		-9.765625
298		-3.906250
299		-9.765625
300		-7.812500
301		-9.765625
302		-5.859375
303		-11.718750
304		-5.859375
305		-11.718750
306		-5.859375
307		-13.671875
308		-5.859375
309		-13.671875
310		-5.859375
311		-13.671875
312		-5.859375
313		-11.718750
314		-5.859375
315		-11.718750
316		-7.812500
317		-11.718750
318		-7.812500
319		-13.671875
320		-5.859375
321		-13.671875
322		-7.812500
323		-13.671875
324		-7.812500
325		-13.671875
326		-7.812500
327		-13.671875
328		-7.812500
329		-13.671875
330		-7.812500
331		-11.718750
332		-9.765625
333		-13.671875
334		-9.765625
335		-15.625000
336		-9.765625
337		-15.625000
338		-7.812500
339		-15.625000
340		-7.812500
341		-15.625000
342		-9.765625
343		-15.625000
344		-9.765625
345		-15.625000
346		-9.765625
347		-15.625000
348		-9.765625
349		-15.625000
350		-11.718750
351		-13.671875
352		-9.765625
353		-15.625000
354		-9.765625
355		-15.625000
356		-9.765625
357		-15.625000
358		-11.718750
359		-15.625000
360		-9.765625
361		-17.578125
362		-9.765625
363		-15.625000
364		-9.765625
365		-15.625000
366		-11.718750
367		-15.625000
368		-11.718750
369		-17.578125
370		-11.718750
371		-15.625000
372		-11.718750
373		-15.625000
374		-11.718750
375		-15.625000
376		-11.718750
377		-15.625000
378		-11.718750
379		-17.578125
380		-11.718750
381		-15.625000
382		-11.718750
383		-15.625000
384		-11.718750
385		-15.625000
386		-11.718750
387		-17.578125
388		-11.718750
389		-15.625000
390		-11.718750
391		-15.625000
392		-11.718750
393		-15.625000
394		-11.718750
395		-17.578125
396		-11.718750
397		-15.625000
398		-11.718750
399		-15.625000
400		-13.671875
401		-15.625000
402		-13.671875
403		-17.578125
404		-11.718750
405		-15.625000
406		-11.718750
407		-15.625000
408		-11.718750
409		-15.625000
410		-11.718750
411		-15.625000
412		-13.671875
413		-15.625000
414		-11.718750
415		-15.625000
416		-11.718750
417		-15.625000
418		-13.671875
419		-15.625000
420		-11.718750
421		-15.625000
422		-11.718750
423		-15.625000
424		-11.718750
425		-15.625000
426		-11.718750
427		-15.625000
428		-13.671875
429		-15.625000
430		-11.718750
431		-15.625000
432		-11.718750
433		-15.625000
434		-11.718750
435		-15.625000
436		-11.718750
437		-15.625000
438		-11.718750
439		-15.625000
440		-11.718750
441		-15.625000
442		-11.718750
443		-15.625000
444		-11.718750
445		-15.625000
446		-11.718750
447		-15.625000
448		-11.718750
449		-13.671875
450		-11.718750
451		-13.671875
452		-11.718750
453		-15.625000
454		-11.718750
455		-15.625000
456		-11.718750
457		-15.625000
458		-11.718750
459		-13.671875
460		-9.765625
461		-13.671875
462		-11.718750
463		-15.625000
464		-11.718750
465		-13.671875
466		-9.765625
467		-13.671875
468		-11.718750
469		-15.625000
470		-9.765625
471		-13.671875
472		-11.718750
473		-13.671875
474		-9.765625
475		-13.671875
476		-9.765625
477		-13.671875
478		-9.765625
479		-13.671875
480		-9.765625
481		-13.671875
482		-9.765625
483		-11.718750
484		-9.765625
485		-13.671875
486		-9.765625
487		-11.718750
488		-9.765625
489		-11.718750
490		-9.765625
491		-11.718750
492		-7.812500
493		-11.718750
494		-7.812500
495		-11.718750
496		-7.812500
497		-11.718750
498		-7.812500
499		-11.718750
500		-7.812500
501		-11.718750
502		-7.812500
503		-11.718750
504		-7.812500
505		-11.718750
506		-7.812500
507		-9.765625
508		-5.859375
509		-9.765625
510		-7.812500
511		-9.765625
512		-5.859375
513		-9.765625
514		-5.859375
515		-9.765625
516		-5.859375
517		-9.765625
518		-5.859375
519		-9.765625
520		-5.859375
521		-7.812500
522		-5.859375
523		-9.765625
524		-3.906250
525		-9.765625
526		-5.859375
527		-7.812500
528		-3.906250
529		-7.812500
530		-3.906250
531		-7.812500
532		-3.906250
533		-7.812500
534		-3.906250
535		-7.812500
536		-3.906250
537		-7.812500
538		-3.906250
539		-7.812500
540		-3.906250
541		-5.859375
542		-1.953125
543		-5.859375
544		-3.906250
545		-5.859375
546		-1.953125
547		-5.859375
548		-1.953125
549		-5.859375
550		-1.953125
551		-5.859375
552		-1.953125
553		-5.859375
554		-1.953125
555		-5.859375
556		-1.953125
557		-3.906250
558		-1.953125
559		-3.906250
560		-1.953125
561		-3.906250
562		0.000000
563		-3.906250
564		0.000000
565		-3.906250
566		0.000000
567		-1.953125
568		0.000000
569		-1.953125
570		0.000000
571		-1.953125
572		1.953125
573		-1.953125
574		1.953125
575		-1.953125
576		0.000000
577		-1.953125
578		1.953125
579		-1.953125
580		1.953125
581		-1.953125
582		1.953125
583		-1.953125
584		1.953125
585		0.000000
586		1.953125
587		0.000000
588		1.953125
589		0.000000
590		1.953125
591		0.000000
592		1.953125
593		0.000000
594		3.906250
595		0.000000
596		3.906250
597		0.000000
598		3.906250
599		0.000000
600		3.906250
601		1.953125
602		3.906250
603		0.000000
604		5.859375
605		1.953125
606		5.859375
607		1.953125
608		5.859375
609		1.953125
610		5.859375
611		1.953125
612		5.859375
613		1.953125
614		5.859375
615		1.953125
616		5.859375
617		3.906250
618		5.859375
619		3.906250
620		5.859375
621		1.953125
622		7.812500
623		3.906250
624		5.859375
625		3.906250
626		7.812500
627		3.906250
628		7.812500
629		3.906250
630		7.812500
631		3.906250
632		7.812500
633		3.906250
634		7.812500
635		3.906250
636		9.765625
637		3.906250
638		9.765625
639		5.859375
640		7.812500
641		5.859375
642		9.765625
643		5.859375
644		9.765625
645		5.859375
646		9.765625
647		5.859375
648		9.765625
649		5.859375
650		9.765625
651		7.812500
652		9.765625
653		7.812500
654		9.765625
655		5.859375
656		9.765625
657		7.812500
658		11.718750
659		7.812500
660		9.765625
661		7.812500
662		11.718750
663		5.859375
664		11.718750
665		7.812500
666		11.718750
667		7.812500
668		11.718750
669		7.812500
670		11.718750
671		7.812500
672		11.718750
673		7.812500
674		11.718750
675		7.812500
676		11.718750
677		9.765625
678		11.718750
679		7.812500
680		11.718750
681		9.765625
682		11.718750
683		7.812500
684		13.671875
685		9.765625
686		13.671875
687		9.765625
688		13.671875
689		9.765625
690		13.671875
691		9.765625
692		13.671875
693		9.765625
694		13.671875
695		9.765625
696		13.671875
697		9.765625
698		13.671875
699		9.765625
700		13.671875
701		9.765625
702		13.671875
703		11.718750
704		13.671875
705		9.765625
706		13.671875
707		9.765625
708		13.671875
709		11.718750
710		15.625000
711		11.718750
712		15.625000
713		11.718750
714		15.625000
715		11.718750
716		15.625000
717		9.765625
718		15.625000
719		11.718750
720		15.625000
721		11.718750
722		15.625000
723		11.718750
724		15.625000
725		11.718750
726		15.625000
727		11.718750
728		15.625000
729		11.718750
730		15.625000
731		11.718750
732		15.625000
733		11.718750
734		15.625000
735		11.718750
736		15.625000
737		13.671875
738		15.625000
739		11.718750
740		15.625000
741		11.718750
742		15.625000
743		11.718750
744		15.625000
745		11.718750
746		15.625000
747		11.718750
748		15.625000
749		11.718750
750		15.625000
751		11.718750
752		15.625000
753		11.718750
754		15.625000
755		11.718750
756		15.625000
757		11.718750
758		15.625000
759		13.671875
760		15.625000
761		11.718750
762		15.625000
763		11.718750
764		15.625000
765		13.671875
766		15.625000
767		11.718750
768		15.625000
769		11.718750
770		15.625000
771		11.718750
772		15.625000
773		11.718750
774		15.625000
775		11.718750
776		15.625000
777		11.718750
778		15.625000
779		11.718750
780		15.625000
781		11.718750
782		15.625000
783		11.718750
784		15.625000
785		11.718750
786		15.625000
787		11.718750
788		15.625000
789		11.718750
790		15.625000
791		11.718750
792		15.625000
793		11.718750
794		15.625000
795		11.718750
796		15.625000
797		11.718750
798		15.625000
799		11.718750
800		15.625000
801		11.718750
802		15.625000
803		11.718750
804		15.625000
805		11.718750
806		15.625000
807		11.718750
808		15.625000
809		11.718750
810		13.671875
811		9.765625
812		13.671875
813		11.718750
814		13.671875
815		11.718750
816		15.625000
817		11.718750
818		13.671875
819		11.718750
820		13.671875
821		9.765625
822		15.625000
823		11.718750
824		15.625000
825		11.718750
826		13.671875
827		9.765625
828		13.671875
829		9.765625
830		13.671875
831		9.765625
832		13.671875
833		9.765625
834		13.671875
835		9.765625
836		13.671875
837		9.765625
838		13.671875
839		7.812500
840		13.671875
841		9.765625
842		13.671875
843		9.765625
844		13.671875
845		7.812500
846		13.671875
847		9.765625
848		11.718750
849		7.812500
850		13.671875
851		7.812500
852		11.718750
853		9.765625
854		11.718750
855		7.812500
856		11.718750
857		9.765625
858		11.718750
859		7.812500
860		11.718750
861		7.812500
862		11.718750
863		7.812500
864		11.718750
865		7.812500
866		11.718750
867		7.812500
868		11.718750
869		7.812500
870		9.765625
871		7.812500
872		11.718750
873		7.812500
874		11.718750
875		7.812500
876		9.765625
877		7.812500
878		9.765625
879		7.812500
880		9.765625
881		5.859375
882		9.765625
883		5.859375
884		9.765625
885		5.859375
886		9.765625
887		5.859375
888		9.765625
889		3.906250
890		11.718750
891		5.859375
892		9.765625
893		5.859375
894		9.765625
895		5.859375
896		9.765625
897		3.906250
898		9.765625
899		5.859375
900		7.812500
901		3.906250
902		7.812500
903		5.859375
904		7.812500
905		3.906250
906		7.812500
907		1.953125
908		7.812500
909		3.906250
910		7.812500
911		3.906250
912		5.859375
913		3.906250
914		5.859375
915		3.906250
916		7.812500
917		3.906250
918		5.859375
919		1.953125
920		7.812500
921		3.906250
922		5.859375
923		0.000000
924		5.859375
925		1.953125
926		5.859375
927		1.953125
928		5.859375
929		1.953125
930		3.906250
931		0.000000
932		5.859375
933		1.953125
934		3.906250
935		0.000000
936		3.906250
937		0.000000
938		3.906250
939		0.000000
940		3.906250
941		0.000000
942		3.906250
943		0.000000
944		3.906250
945		0.000000
946		1.953125
947		-1.953125
948		3.906250
949		0.000000
950		1.953125
951		0.000000
952		1.953125
953		-1.953125
954		1.953125
955		0.000000
956		1.953125
957		-3.906250
958		3.906250
959		-1.953125
960		1.953125
961		-1.953125
962		0.000000
963		-3.906250
964		1.953125
965		-1.953125
966		0.000000
967		-3.906250
968		0.000000
969		-3.906250
970		0.000000
971		-3.906250
972		0.000000
973		-5.859375
974		0.000000
975		-3.906250
976		0.000000
977		-3.906250
978		0.000000
979		-3.906250
980		0.000000
981		-3.906250
982		-1.953125
983		-5.859375
984		-1.953125
985		-5.859375
986		-1.953125
987		-3.906250
988		-1.953125
989		-5.859375
990		-3.906250
991		-7.812500
992		-1.953125
993		-5.859375
994		-1.953125
995		-5.859375
996		-3.906250
997		-5.859375
998		-3.906250
999		-5.859375
1000		-3.906250
1001		-5.859375
1002		-3.906250
1003		-7.812500
1004		-3.906250
1005		-7.812500
1006		-3.906250
1007		-7.812500
1008		-3.906250
1009		-7.812500
1010		-3.906250
1011		-7.812500
1012		-5.859375
1013		-7.812500
1014		-5.859375
1015		-9.765625
1016		-3.906250
1017		-9.765625
1018		-5.859375
1019		-9.765625
1020		-5.859375
1021		-9.765625
1022		-5.859375
1023		-9.765625
1024		-5.859375
1025		-9.765625
1026		-5.859375
1027		-9.765625
1028		-5.859375
1029		-9.765625
1030		-5.859375
1031		-11.718750
1032		-7.812500
1033		-9.765625
1034		-7.812500
1035		-9.765625
1036		-7.812500
1037		-11.718750
1038		-7.812500
1039		-9.765625
1040		-7.812500
1041		-11.718750
1042		-7.812500
1043		-11.718750
1044		-7.812500
1045		-11.718750
1046		-7.812500
1047		-11.718750
1048		-7.812500
1049		-11.718750
1050		-7.812500
1051		-11.718750
1052		-7.812500
1053		-11.718750
1054		-7.812500
1055		-11.718750
1056		-9.765625
1057		-11.718750
1058		-9.765625
1059		-11.718750
1060		-9.765625
1061		-13.671875
1062		-9.765625
1063		-13.671875
1064		-9.765625
1065		-13.671875
1066		-9.765625
1067		-13.671875
1068		-9.765625
1069		-13.671875
1070		-9.765625
1071		-13.671875
1072		-9.765625
1073		-13.671875
1074		-9.765625
1075		-13.671875
1076		-9.765625
1077		-13.671875
1078		-9.765625
1079		-15.625000
1080		-9.765625
1081		-13.671875
1082		-9.765625
1083		-13.671875
1084		-9.765625
1085		-15.625000
1086		-9.765625
1087		-15.625000
1088		-11.718750
1089		-15.625000
1090		-9.765625
1091		-15.625000
1092		-11.718750
1093		-15.625000
1094		-11.718750
1095		-15.625000
1096		-11.718750
1097		-15.625000
1098		-11.718750
1099		-15.625000
1100		-11.718750
1101		-15.625000
1102		-11.718750
1103		-15.625000
1104		-11.718750
1105		-15.625000
1106		-11.718750
1107		-15.625000
1108		-11.718750
1109		-15.625000
1110		-11.718750
1111		-15.625000
1112		-11.718750
1113		-15.625000
1114		-11.718750
1115		-15.625000
1116		-11.718750
1117		-15.625000
1118		-11.718750
1119		-15.625000
1120		-11.718750
1121		-15.625000
1122		-11.718750
1123		-15.625000
1124		-13.671875
1125		-15.625000
1126		-11.718750
1127		-15.625000
1128		-11.718750
1129		-15.625000
1130		-11.718750
1131		-15.625000
1132		-13.671875
1133		-15.625000
1134		-13.671875
1135		-15.625000
1136		-11.718750
1137		-17.578125
1138		-13.671875
1139		-15.625000
1140		-13.671875
1141		-15.625000
1142		-13.671875
1143		-15.625000
1144		-13.671875
1145		-15.625000
1146		-13.671875
1147		-17.578125
1148		-11.718750
1149		-15.625000
1150		-13.671875
1151		-15.625000
1152		-13.671875
1153		-17.578125
1154		-11.718750
1155		-15.625000
1156		-13.671875
1157		-15.625000
1158		-13.671875
1159		-17.578125
1160		-11.718750
1161		-15.625000
1162		-11.718750
1163		-15.625000
1164		-13.671875
1165		-15.625000
1166		-11.718750
1167		-15.625000
1168		-11.718750
1169		-15.625000
1170		-11.718750
1171		-15.625000
1172		-11.718750
1173		-15.625000
1174		-13.671875
1175		-15.625000
1176		-11.718750
1177		-15.625000
1178		-13.671875
1179		-15.625000
1180		-11.718750
1181		-15.625000
1182		-11.718750
1183		-15.625000
1184		-11.718750
1185		-15.625000
1186		-11.718750
1187		-15.625000
1188		-11.718750
1189		-13.671875
1190		-11.718750
1191		-13.671875
1192		-11.718750
1193		-15.625000
1194		-11.718750
1195		-13.671875
1196		-11.718750
1197		-15.625000
1198		-11.718750
1199		-13.671875
1200		-11.718750
1201		-13.671875
1202		-11.718750
1203		-13.671875
1204		-11.718750
1205		-13.671875
1206		-9.765625
1207		-13.671875
1208		-9.765625
1209		-13.671875
1210		-9.765625
1211		-13.671875
1212		-9.765625
1213		-13.671875
1214		-9.765625
1215		-13.671875
1216		-9.765625
1217		-13.671875
1218		-9.765625
1219		-13.671875
1220		-9.765625
1221		-11.718750
1222		-9.765625
1223		-11.718750
1224		-9.765625
1225		-13.671875
1226		-9.765625
1227		-11.718750
1228		-7.812500
1229		-11.718750
1230		-9.765625
1231		-11.718750
1232		-7.812500
1233		-11.718750
1234		-7.812500
1235		-11.718750
1236		-7.812500
1237		-11.718750
1238		-7.812500
1239		-11.718750
1240		-7.812500
1241		-11.718750
1242		-7.812500
1243		-9.765625
1244		-7.812500
1245		-9.765625
1246		-7.812500
1247		-11.718750
1248		-7.812500
1249		-9.765625
1250		-5.859375
1251		-9.765625
1252		-5.859375
1253		-9.765625
1254		-5.859375
1255		-9.765625
1256		-5.859375
1257		-9.765625
1258		-5.859375
1259		-9.765625
1260		-5.859375
1261		-9.765625
1262		-5.859375
1263		-7.812500
1264		-5.859375
1265		-7.812500
1266		-5.859375
1267		-9.765625
1268		-3.906250
1269		-7.812500
1270		-3.906250
1271		-7.812500
1272		-3.906250
1273		-7.812500
1274		-3.906250
1275		-7.812500
1276		-3.906250
1277		-5.859375
1278		-3.906250
1279		-7.812500
1280		-3.906250
1281		-5.859375
1282		-3.906250
1283		-5.859375
1284		-1.953125
1285		-5.859375
1286		-1.953125
1287		-5.859375
1288		-1.953125
1289		-5.859375
1290		-1.953125
1291		-5.859375
1292		-1.953125
1293		-5.859375
1294		-1.953125
1295		-3.906250
1296		-1.953125
1297		-3.906250
1298		-1.953125
1299		-3.906250
1300		0.000000
1301		-3.906250
1302		0.000000
1303		-3.906250
1304		0.000000
1305		-3.906250
1306		0.000000
1307		-3.906250
1308		0.000000
1309		-3.906250
1310		1.953125
1311		-3.906250
1312		0.000000
1313		-1.953125
1314		1.953125
1315		-1.953125
1316		1.953125
1317		-1.953125
1318		1.953125
1319		-1.953125
1320		1.953125
1321		-1.953125
1322		1.953125
1323		0.000000
1324		1.953125
1325		-1.953125
1326		1.953125
1327		-1.953125
1328		3.906250
1329		0.000000
1330		3.906250
1331		0.000000
1332		3.906250
1333		0.000000
1334		3.906250
1335		0.000000
1336		3.906250
1337		0.000000
1338		3.906250
1339		0.000000
1340		3.906250
1341		0.000000
1342		3.906250
1343		1.953125
1344		5.859375
1345		1.953125
1346		3.906250
1347		1.953125
1348		5.859375
1349		1.953125
1350		5.859375
1351		1.953125
1352		5.859375
1353		1.953125
1354		5.859375
1355		1.953125
1356		5.859375
1357		3.906250
1358		5.859375
1359		3.906250
1360		5.859375
1361		1.953125
1362		7.812500
1363		3.906250
1364		7.812500
1365		3.906250
1366		7.812500
1367		3.906250
1368		7.812500
1369		3.906250
1370		7.812500
1371		3.906250
1372		7.812500
1373		5.859375
1374		7.812500
1375		5.859375
1376		7.812500
1377		3.906250
1378		7.812500
1379		5.859375
1380		7.812500
1381		5.859375
1382		9.765625
1383		5.859375
1384		9.765625
1385		5.859375
1386		9.765625
1387		5.859375
1388		9.765625
1389		5.859375
1390		9.765625
1391		7.812500
1392		9.765625
1393		5.859375
1394		9.765625
1395		7.812500
1396		9.765625
1397		7.812500
1398		11.718750
1399		7.812500
1400		11.718750
1401		7.812500
1402		11.718750
1403		7.812500
1404		11.718750
1405		7.812500
1406		11.718750
1407		7.812500
1408		11.718750
1409		7.812500
1410		11.718750
1411		7.812500
1412		11.718750
1413		9.765625
1414		11.718750
1415		9.765625
1416		11.718750
1417		9.765625
1418		13.671875
1419		7.812500
1420		13.671875
1421		9.765625
1422		11.718750
1423		9.765625
1424		13.671875
1425		9.765625
1426		13.671875
1427		9.765625
1428		13.671875
1429		9.765625
1430		13.671875
1431		9.765625
1432		13.671875
1433		9.765625
1434		13.671875
1435		9.765625
1436		15.625000
1437		9.765625
1438		13.671875
1439		9.765625
1440		15.625000
1441		9.765625
1442		13.671875
1443		11.718750
1444		13.671875
1445		9.765625
1446		13.671875
1447		9.765625
1448		15.625000
1449		11.718750
1450		15.625000
1451		11.718750
1452		15.625000
1453		11.718750
1454		15.625000
1455		11.718750
1456		15.625000
1457		11.718750
1458		15.625000
1459		11.718750
1460		15.625000
1461		11.718750
1462		15.625000
1463		11.718750
1464		15.625000
1465		11.718750
1466		15.625000
1467		11.718750
1468		15.625000
1469		11.718750
1470		15.625000
1471		11.718750
1472		15.625000
1473		11.718750
1474		15.625000
1475		11.718750
1476		15.625000
1477		11.718750
1478		15.625000
1479		11.718750
1480		15.625000
1481		11.718750
1482		15.625000
1483		11.718750
1484		15.625000
1485		11.718750
1486		15.625000
1487		11.718750
1488		15.625000
1489		11.718750
1490		15.625000
1491		11.718750
1492		15.625000
1493		13.671875
1494		15.625000
1495		11.718750
1496		15.625000
1497		11.718750
1498		15.625000
1499		11.718750
1500		15.625000
1501		11.718750
1502		15.625000
1503		11.718750
1504		15.625000
1505		11.718750
1506		15.625000
1507		11.718750
1508		15.625000
1509		11.718750
1510		15.625000
1511		11.718750
1512		17.578125
1513		11.718750
1514		15.625000
1515		11.718750
1516		15.625000
1517		11.718750
1518		15.625000
1519		11.718750
1520		15.625000
1521		11.718750
1522		15.625000
1523		11.718750
1524		15.625000
1525		11.718750
1526		13.671875
1527		11.718750
1528		15.625000
1529		11.718750
1530		15.625000
1531		11.718750
1532		15.625000
1533		11.718750
1534		15.625000
1535		11.718750
1536		15.625000
1537		11.718750
1538		15.625000
1539		11.718750
1540		15.625000
1541		11.718750
1542		15.625000
1543		11.718750
1544		13.671875
1545		11.718750
1546		15.625000
1547		9.765625
1548		13.671875
1549		11.718750
1550		13.671875
1551		11.718750
1552		15.625000
1553		9.765625
1554		13.671875
1555		9.765625
1556		15.625000
1557		9.765625
1558		13.671875
1559		9.765625
1560		13.671875
1561		9.765625
1562		13.671875
1563		9.765625
1564		13.671875
1565		9.765625
1566		13.671875
1567		9.765625
1568		13.671875
1569		9.765625
1570		13.671875
1571		9.765625
1572		13.671875
1573		9.765625
1574		13.671875
1575		9.765625
1576		11.718750
1577		9.765625
1578		13.671875
1579		9.765625
1580		11.718750
1581		7.812500
1582		13.671875
1583		9.765625
1584		11.718750
1585		7.812500
1586		11.718750
1587		7.812500
1588		11.718750
1589		7.812500
1590		11.718750
1591		7.812500
1592		11.718750
1593		7.812500
1594		11.718750
1595		7.812500
1596		11.718750
1597		7.812500
1598		11.718750
1599		7.812500
1600		11.718750
1601		7.812500
1602		9.765625
1603		5.859375
1604		11.718750
1605		7.812500
1606		9.765625
1607		5.859375
1608		11.718750
1609		5.859375
1610		9.765625
1611		7.812500
1612		9.765625
1613		5.859375
1614		9.765625
1615		5.859375
1616		9.765625
1617		5.859375
1618		9.765625
1619		5.859375
1620		9.765625
1621		5.859375
1622		7.812500
1623		5.859375
1624		9.765625
1625		3.906250
1626		9.765625
1627		3.906250
1628		7.812500
1629		3.906250
1630		7.812500
1631		3.906250
1632		7.812500
1633		3.906250
1634		7.812500
1635		3.906250
1636		7.812500
1637		3.906250
1638		7.812500
1639		3.906250
1640		7.812500
1641		3.906250
1642		7.812500
1643		3.906250
1644		5.859375
1645		3.906250
1646		7.812500
1647		1.953125
1648		5.859375
1649		1.953125
1650		5.859375
1651		1.953125
1652		5.859375
1653		1.953125
1654		5.859375
1655		1.953125
1656		5.859375
1657		1.953125
1658		3.906250
1659		1.953125
1660		3.906250
1661		0.000000
1662		3.906250
1663		0.000000
1664		3.906250
1665		0.000000
1666		3.906250
1667		0.000000
1668		3.906250
1669		0.000000
1670		3.906250
1671		-1.953125
1672		3.906250
1673		0.000000
1674		3.906250
1675		-1.953125
1676		3.906250
1677		0.000000
1678		1.953125
1679		0.000000
1680		1.953125
1681		-1.953125
1682		1.953125
1683		-1.953125
1684		1.953125
1685		-1.953125
1686		1.953125
1687		-3.906250
1688		1.953125
1689		-1.953125
1690		1.953125
1691		-3.906250
1692		1.953125
1693		-1.953125
1694		0.000000
1695		-1.953125
1696		0.000000
1697		-3.906250
1698		0.000000
1699		-3.906250
1700		0.000000
1701		-3.906250
1702		0.000000
1703		-3.906250
1704		0.000000
1705		-3.906250
1706		0.000000
1707		-3.906250
1708		-1.953125
1709		-5.859375
1710		0.000000
1711		-3.906250
1712		-1.953125
1713		-5.859375
1714		-1.953125
1715		-5.859375
1716		-1.953125
1717		-5.859375
1718		-1.953125
1719		-5.859375
1720		-1.953125
1721		-5.859375
1722		-1.953125
1723		-7.812500
1724		-1.953125
1725		-5.859375
1726		-1.953125
1727		-7.812500
1728		-1.953125
1729		-5.859375
1730		-3.906250
1731		-7.812500
1732		-3.906250
1733		-7.812500
1734		-3.906250
1735		-7.812500
1736		-3.906250
1737		-7.812500
1738		-3.906250
1739		-7.812500
1740		-3.906250
1741		-9.765625
1742		-5.859375
1743		-7.812500
1744		-5.859375
1745		-9.765625
1746		-3.906250
1747		-7.812500
1748		-5.859375
1749		-7.812500
1750		-5.859375
1751		-9.765625
1752		-5.859375
1753		-9.765625
1754		-5.859375
1755		-9.765625
1756		-5.859375
1757		-9.765625
1758		-5.859375
1759		-11.718750
1760		-5.859375
1761		-9.765625
1762		-7.812500
1763		-9.765625
1764		-5.859375
1765		-11.718750
1766		-7.812500
1767		-11.718750
1768		-7.812500
1769		-11.718750
1770		-7.812500
1771		-11.718750
1772		-7.812500
1773		-11.718750
1774		-7.812500
1775		-11.718750
1776		-7.812500
1777		-11.718750
1778		-7.812500
1779		-11.718750
1780		-7.812500
1781		-11.718750
1782		-9.765625
1783		-11.718750
1784		-7.812500
1785		-11.718750
1786		-9.765625
1787		-11.718750
1788		-9.765625
1789		-13.671875
1790		-9.765625
1791		-13.671875
1792		-9.765625
1793		-13.671875
1794		-7.812500
1795		-11.718750
1796		-9.765625
1797		-13.671875
1798		-9.765625
1799		-13.671875
1800		-9.765625
1801		-13.671875
1802		-9.765625
1803		-13.671875
1804		-11.718750
1805		-13.671875
1806		-9.765625
1807		-13.671875
1808		-11.718750
1809		-13.671875
1810		-11.718750
1811		-15.625000
1812		-9.765625
1813		-13.671875
1814		-11.718750
1815		-15.625000
1816		-11.718750
1817		-15.625000
1818		-11.718750
1819		-15.625000
1820		-11.718750
1821		-15.625000
1822		-11.718750
1823		-15.625000
1824		-11.718750
1825		-15.625000
1826		-11.718750
1827		-15.625000
1828		-11.718750
1829		-15.625000
1830		-11.718750
1831		-15.625000
1832		-11.718750
1833		-15.625000
1834		-11.718750
1835		-15.625000
1836		-11.718750
1837		-17.578125
1838		-11.718750
1839		-15.625000
1840		-13.671875
1841		-15.625000
1842		-13.671875
1843		-17.578125
1844		-11.718750
1845		-15.625000
1846		-13.671875
1847		-17.578125
1848		-13.671875
1849		-17.578125
1850		-11.718750
1851		-17.578125
1852		-13.671875
1853		-17.578125
1854		-11.718750
1855		-15.625000
1856		-13.671875
1857		-17.578125
1858		-13.671875
1859		-17.578125
1860		-13.671875
1861		-15.625000
1862		-13.671875
1863		-15.625000
1864		-11.718750
1865		-17.578125
1866		-11.718750
1867		-17.578125
1868		-13.671875
1869		-17.578125
1870		-11.718750
1871		-17.578125
1872		-13.671875
1873		-17.578125
1874		-13.671875
1875		-15.625000
1876		-13.671875
1877		-17.578125
1878		-11.718750
1879		-17.578125
1880		-13.671875
1881		-17.578125
1882		-11.718750
1883		-15.625000
1884		-13.671875
1885		-15.625000
1886		-13.671875
1887		-17.578125
1888		-13.671875
1889		-15.625000
1890		-13.671875
1891		-17.578125
1892		-13.671875
1893		-17.578125
1894		-13.671875
1895		-15.625000
1896		-13.671875
1897		-17.578125
1898		-13.671875
1899		-15.625000
1900		-13.671875
1901		-17.578125
1902		-13.671875
1903		-17.578125
1904		-11.718750
1905		-15.625000
1906		-13.671875
1907		-15.625000
1908		-11.718750
1909		-15.625000
1910		-11.718750
1911		-17.578125
1912		-13.671875
1913		-15.625000
1914		-11.718750
1915		-15.625000
1916		-11.718750
1917		-15.625000
1918		-11.718750
1919		-15.625000
1920		-11.718750
1921		-15.625000
1922		-11.718750
1923		-15.625000
1924		-11.718750
1925		-15.625000
1926		-11.718750
1927		-15.625000
1928		-11.718750
1929		-13.671875
1930		-11.718750
1931		-15.625000
1932		-11.718750
1933		-15.625000
1934		-11.718750
1935		-15.625000
1936		-9.765625
1937		-13.671875
1938		-11.718750
1939		-13.671875
1940		-9.765625
1941		-15.625000
1942		-9.765625
1943		-13.671875
1944		-9.765625
1945		-13.671875
1946		-9.765625
1947		-13.671875
1948		-9.765625
1949		-13.671875
1950		-9.765625
1951		-13.671875
1952		-9.765625
1953		-13.671875
1954		-9.765625
1955		-13.671875
1956		-9.765625
1957		-13.671875
1958		-9.765625
1959		-11.718750
1960		-9.765625
1961		-13.671875
1962		-7.812500
1963		-11.718750
1964		-9.765625
1965		-11.718750
1966		-7.812500
1967		-11.718750
1968		-7.812500
1969		-11.718750
1970		-7.812500
1971		-11.718750
1972		-7.812500
1973		-11.718750
1974		-7.812500
1975		-11.718750
1976		-7.812500
1977		-11.718750
1978		-7.812500
1979		-11.718750
1980		-7.812500
1981		-11.718750
1982		-7.812500
1983		-11.718750
1984		-7.812500
1985		-9.765625
1986		-5.859375
1987		-9.765625
1988		-5.859375
1989		-9.765625
1990		-5.859375
1991		-9.765625
1992		-5.859375
1993		-9.765625
1994		-5.859375
1995		-9.765625
1996		-5.859375
1997		-7.812500
1998		-5.859375
1999		-9.765625
2000		-5.859375
2001		-9.765625
2002		-5.859375
2003		-7.812500
2004		-5.859375
2005		-9.765625
2006		-3.906250
2007		-7.812500
2008		-3.906250
2009		-7.812500
2010		-3.906250
2011		-7.812500
2012		-3.906250
2013		-7.812500
2014		-3.906250
2015		-7.812500
2016		-3.906250
2017		-5.859375
2018		-3.906250
2019		-7.812500
2020		-1.953125
2021		-5.859375
2022		-3.906250
2023		-5.859375
2024		-3.906250
2025		-5.859375
2026		-1.953125
2027		-5.859375
2028		-1.953125
2029		-3.906250
2030		-1.953125
2031		-5.859375
2032		-1.953125
2033		-3.906250
2034		-1.953125
2035		-5.859375
2036		-1.953125
2037		-5.859375
2038		0.000000
2039		-3.906250
2040		-1.953125
2041		-3.906250
2042		0.000000
2043		-3.906250
2044		0.000000
2045		-3.906250
2046		0.000000
2047		-3.906250
2048		0.000000
2049		-3.906250
2050		0.000000
2051		-1.953125
2052		0.000000
2053		-1.953125
2054		0.000000
2055		-1.953125
2056		1.953125
2057		-1.953125
2058		1.953125
2059		-1.953125
2060		1.953125
2061		-1.953125
2062		1.953125
2063		0.000000
2064		1.953125
2065		-1.953125
2066		1.953125
2067		-1.953125
2068		1.953125
2069		0.000000
2070		1.953125
2071		0.000000
2072		3.906250
2073		0.000000
2074		3.906250
2075		0.000000
2076		3.906250
2077		0.000000
2078		3.906250
2079		0.000000
2080		3.906250
2081		0.000000
2082		3.906250
2083		1.953125
2084		3.906250
2085		1.953125
2086		5.859375
2087		1.953125
2088		5.859375
2089		1.953125
2090		5.859375
2091		1.953125
2092		5.859375
2093		1.953125
2094		5.859375
2095		1.953125
2096		5.859375
2097		3.906250
2098		7.812500
2099		3.906250
2100		5.859375
2101		3.906250
2102		5.859375
2103		1.953125
2104		7.812500
2105		3.906250
2106		7.812500
2107		3.906250
2108		7.812500
2109		3.906250
2110		7.812500
2111		3.906250
2112		7.812500
2113		3.906250
2114		7.812500
2115		5.859375
2116		7.812500
2117		3.906250
2118		7.812500
2119		3.906250
2120		9.765625
2121		5.859375
2122		7.812500
2123		5.859375
2124		9.765625
2125		5.859375
2126		9.765625
2127		5.859375
2128		9.765625
2129		5.859375
2130		9.765625
2131		5.859375
2132		9.765625
2133		5.859375
2134		9.765625
2135		5.859375
2136		11.718750
2137		5.859375
2138		11.718750
2139		7.812500
2140		9.765625
2141		7.812500
2142		11.718750
2143		7.812500
2144		11.718750
2145		7.812500
2146		11.718750
2147		7.812500
2148		11.718750
2149		7.812500
2150		11.718750
2151		7.812500
2152		11.718750
2153		7.812500
2154		11.718750
2155		9.765625
2156		11.718750
2157		7.812500
2158		11.718750
2159		9.765625
2160		13.671875
2161		9.765625
2162		11.718750
2163		7.812500
2164		13.671875
2165		9.765625
2166		11.718750
2167		9.765625
2168		13.671875
2169		9.765625
2170		13.671875
2171		9.765625
2172		13.671875
2173		9.765625
2174		13.671875
2175		9.765625
2176		13.671875
2177		9.765625
2178		13.671875
2179		9.765625
2180		13.671875
2181		9.765625
2182		13.671875
2183		11.718750
2184		13.671875
2185		9.765625
2186		13.671875
2187		11.718750
2188		13.671875
2189		9.765625
2190		13.671875
2191		11.718750
2192		13.671875
2193		11.718750
2194		13.671875
2195		11.718750
2196		15.625000
2197		9.765625
2198		15.625000
2199		11.718750
2200		13.671875
2201		9.765625
2202		13.671875
2203		11.718750
2204		15.625000
2205		11.718750
2206		15.625000
2207		11.718750
2208		13.671875
2209		11.718750
2210		15.625000
2211		11.718750
2212		13.671875
2213		11.718750
2214		15.625000
2215		11.718750
2216		15.625000
2217		9.765625
2218		15.625000
2219		11.718750
2220		15.625000
2221		9.765625
2222		15.625000
2223		11.718750
2224		15.625000
2225		11.718750
2226		13.671875
2227		11.718750
2228		15.625000
2229		11.718750
2230		15.625000
2231		11.718750
2232		13.671875
2233		11.718750
2234		15.625000
2235		11.718750
2236		15.625000
2237		9.765625
2238		15.625000
2239		11.718750
2240		15.625000
2241		11.718750
2242		15.625000
2243		11.718750
2244		15.625000
2245		11.718750
2246		15.625000
2247		11.718750
2248		15.625000
2249		11.718750
2250		13.671875
2251		11.718750
2252		15.625000
2253		11.718750
2254		15.625000
2255		11.718750
2256		15.625000
2257		11.718750
2258		15.625000
2259		11.718750
2260		15.625000
2261		11.718750
2262		15.625000
2263		11.718750
2264		15.625000
2265		11.718750
2266		15.625000
2267		11.718750
2268		13.671875
2269		9.765625
2270		15.625000
2271		9.765625
2272		15.625000
2273		11.718750
2274		13.671875
2275		11.718750
2276		15.625000
2277		9.765625
2278		15.625000
2279		11.718750
2280		13.671875
2281		9.765625
2282		15.625000
2283		9.765625
2284		13.671875
2285		9.765625
2286		13.671875
2287		9.765625
2288		13.671875
2289		11.718750
2290		13.671875
2291		9.765625
2292		13.671875
2293		9.765625
2294		13.671875
2295		9.765625
2296		13.671875
2297		7.812500
2298		13.671875
2299		9.765625
2300		11.718750
2301		9.765625
2302		13.671875
2303		9.765625
2304		13.671875
2305		9.765625
2306		13.671875
2307		9.765625
2308		11.718750
2309		9.765625
2310		11.718750
2311		7.812500
2312		13.671875
2313		7.812500
2314		13.671875
2315		9.765625
2316		11.718750
2317		7.812500
2318		11.718750
2319		7.812500
2320		11.718750
2321		7.812500
2322		11.718750
2323		7.812500
2324		11.718750
2325		7.812500
2326		11.718750
2327		7.812500
2328		11.718750
2329		7.812500
2330		11.718750
2331		7.812500
2332		11.718750
2333		7.812500
2334		11.718750
2335		5.859375
2336		9.765625
2337		5.859375
2338		9.765625
2339		5.859375
2340		9.765625
2341		7.812500
2342		9.765625
2343		5.859375
2344		9.765625
2345		5.859375
2346		9.765625
2347		5.859375
2348		9.765625
2349		5.859375
2350		7.812500
2351		5.859375
2352		7.812500
2353		3.906250
2354		9.765625
2355		5.859375
2356		7.812500
2357		3.906250
2358		7.812500
2359		3.906250
2360		7.812500
2361		3.906250
2362		7.812500
2363		3.906250
2364		7.812500
2365		3.906250
2366		7.812500
2367		3.906250
2368		7.812500
2369		3.906250
2370		7.812500
2371		3.906250
2372		7.812500
2373		3.906250
2374		7.812500
2375		3.906250
2376		5.859375
2377		1.953125
2378		5.859375
2379		1.953125
2380		5.859375
2381		1.953125
2382		5.859375
2383		1.953125
2384		5.859375
2385		1.953125
2386		5.859375
2387		1.953125
2388		5.859375
2389		1.953125
2390		5.859375
2391		1.953125
2392		3.906250
2393		0.000000
2394		3.906250
2395		0.000000
2396		3.906250
2397		0.000000
2398		3.906250
2399		0.000000
2400		3.906250
2401		0.000000
2402		3.906250
2403		-1.953125
2404		1.953125
2405		0.000000
2406		3.906250
2407		0.000000
2408		1.953125
2409		0.000000
2410		1.953125
2411		-1.953125
2412		1.953125
2413		-1.953125
2414		1.953125
2415		-1.953125
2416		1.953125
2417		-1.953125
2418		1.953125
2419		-1.953125
2420		1.953125
2421		-1.953125
2422		0.000000
2423		-1.953125
2424		1.953125
2425		-3.906250
2426		0.000000
2427		-3.906250
2428		0.000000
2429		-3.906250
2430		0.000000
2431		-3.906250
2432		0.000000
2433		-3.906250
2434		0.000000
2435		-3.906250
2436		0.000000
2437		-3.906250
2438		0.000000
2439		-3.906250
2440		0.000000
2441		-3.906250
2442		0.000000
2443		-5.859375
2444		-1.953125
2445		-5.859375
2446		-1.953125
2447		-5.859375
2448		-1.953125
2449		-5.859375
2450		-1.953125
2451		-5.859375
2452		-1.953125
2453		-5.859375
2454		-1.953125
2455		-5.859375
2456		-1.953125
2457		-7.812500
2458		-3.906250
2459		-7.812500
2460		-3.906250
2461		-7.812500
2462		-3.906250
2463		-7.812500
2464		-3.906250
2465		-7.812500
2466		-3.906250
2467		-7.812500
2468		-3.906250
2469		-9.765625
2470		-5.859375
2471		-9.765625
2472		-3.906250
2473		-9.765625
2474		-3.906250
2475		-7.812500
2476		-5.859375
2477		-7.812500
2478		-3.906250
2479		-9.765625
2480		-5.859375
2481		-9.765625
2482		-5.859375
2483		-9.765625
2484		-5.859375
2485		-9.765625
2486		-5.859375
2487		-11.718750
2488		-5.859375
2489		-9.765625
2490		-7.812500
2491		-11.718750
2492		-5.859375
2493		-11.718750
2494		-7.812500
2495		-11.718750
2496		-7.812500
2497		-11.718750
2498		-7.812500
2499		-11.718750
2500		-7.812500
2501		-11.718750
2502		-7.812500
2503		-11.718750
2504		-7.812500
2505		-11.718750
2506		-7.812500
2507		-11.718750
2508		-7.812500
2509		-11.718750
2510		-7.812500
2511		-13.671875
2512		-9.765625
2513		-13.671875
2514		-9.765625
2515		-13.671875
2516		-9.765625
2517		-11.718750
2518		-9.765625
2519		-13.671875
2520		-9.765625
2521		-13.671875
2522		-9.765625
2523		-13.671875
2524		-9.765625
2525		-13.671875
2526		-9.765625
2527		-13.671875
2528		-9.765625
2529		-13.671875
2530		-9.765625
2531		-15.625000
2532		-9.765625
2533		-13.671875
2534		-9.765625
2535		-13.671875
2536		-11.718750
2537		-15.625000
2538		-11.718750
2539		-13.671875
2540		-11.718750
2541		-13.671875
2542		-11.718750
2543		-15.625000
2544		-11.718750
2545		-15.625000
2546		-11.718750
2547		-15.625000
2548		-11.718750
2549		-15.625000
2550		-11.718750
2551		-15.625000
2552		-11.718750
2553		-15.625000
2554		-11.718750
2555		-15.625000
2556		-11.718750
2557		-15.625000
2558		-11.718750
2559		-15.625000
2560		-11.718750
2561		-15.625000
2562		-13.671875
2563		-17.578125
2564		-13.671875
2565		-15.625000
2566		-13.671875
2567		-15.625000
2568		-13.671875
2569		-15.625000
2570		-13.671875
2571		-17.578125
2572		-11.718750
2573		-15.625000
2574		-13.671875
2575		-17.578125
2576		-13.671875
2577		-17.578125
2578		-13.671875
2579		-15.625000
2580		-13.671875
2581		-15.625000
2582		-13.671875
2583		-17.578125
2584		-13.671875
2585		-17.578125
2586		-13.671875
2587		-17.578125
2588		-13.671875
2589		-15.625000
2590		-13.671875
2591		-17.578125
2592		-13.671875
2593		-15.625000
2594		-13.671875
2595		-17.578125
2596		-13.671875
2597		-15.625000
2598		-13.671875
2599		-17.578125
2600		-13.671875
2601		-15.625000
2602		-13.671875
2603		-17.578125
2604		-13.671875
2605		-17.578125
2606		-13.671875
2607		-17.578125
2608		-13.671875
2609		-17.578125
2610		-13.671875
2611		-17.578125
2612		-13.671875
2613		-17.578125
2614		-13.671875
2615		-17.578125
2616		-13.671875
2617		-15.625000
2618		-13.671875
2619		-17.578125
2620		-13.671875
2621		-17.578125
2622		-13.671875
2623		-15.625000
2624		-13.671875
2625		-15.625000
2626		-13.671875
2627		-17.578125
2628		-13.671875
2629		-15.625000
2630		-13.671875
2631		-17.578125
2632		-13.671875
2633		-17.578125
2634		-11.718750
2635		-15.625000
2636		-13.671875
2637		-17.578125
2638		-11.718750
2639		-15.625000
2640		-11.718750
2641		-15.625000
2642		-11.718750
2643		-15.625000
2644		-13.671875
2645		-15.625000
2646		-11.718750
2647		-15.625000
2648		-11.718750
2649		-15.625000
2650		-11.718750
2651		-15.625000
2652		-11.718750
2653		-15.625000
2654		-13.671875
2655		-15.625000
2656		-11.718750
2657		-15.625000
2658		-11.718750
2659		-15.625000
2660		-11.718750
2661		-15.625000
2662		-11.718750
2663		-15.625000
2664		-11.718750
2665		-15.625000
2666		-11.718750
2667		-15.625000
2668		-11.718750
2669		-13.671875
2670		-11.718750
2671		-15.625000
2672		-11.718750
2673		-13.671875
2674		-11.718750
2675		-13.671875
2676		-9.765625
2677		-13.671875
2678		-9.765625
2679		-13.671875
2680		-11.718750
2681		-13.671875
2682		-9.765625
2683		-13.671875
2684		-9.765625
2685		-13.671875
2686		-9.765625
2687		-13.671875
2688		-9.765625
2689		-13.671875
2690		-9.765625
2691		-13.671875
2692		-9.765625
2693		-13.671875
2694		-9.765625
2695		-11.718750
2696		-9.765625
2697		-11.718750
2698		-7.812500
2699		-11.718750
2700		-9.765625
2701		-11.718750
2702		-9.765625
2703		-11.718750
2704		-7.812500
2705		-11.718750
2706		-7.812500
2707		-11.718750
2708		-7.812500
2709		-11.718750
2710		-7.812500
2711		-11.718750
2712		-7.812500
2713		-9.765625
2714		-7.812500
2715		-11.718750
2716		-7.812500
2717		-11.718750
2718		-7.812500
2719		-9.765625
2720		-7.812500
2721		-9.765625
2722		-5.859375
2723		-9.765625
2724		-5.859375
2725		-9.765625
2726		-5.859375
2727		-9.765625
2728		-5.859375
2729		-9.765625
2730		-5.859375
2731		-9.765625
2732		-5.859375
2733		-9.765625
2734		-5.859375
2735		-7.812500
2736		-5.859375
2737		-9.765625
2738		-3.906250
2739		-7.812500
2740		-3.906250
2741		-7.812500
2742		-5.859375
2743		-7.812500
2744		-3.906250
2745		-7.812500
2746		-3.906250
2747		-7.812500
2748		-3.906250
2749		-7.812500
2750		-3.906250
2751		-7.812500
2752		-1.953125
2753		-7.812500
2754		-3.906250
2755		-5.859375
2756		-1.953125
2757		-5.859375
2758		-1.953125
2759		-5.859375
2760		-1.953125
2761		-5.859375
2762		-1.953125
2763		-5.859375
2764		-1.953125
2765		-5.859375
2766		-1.953125
2767		-5.859375
2768		0.000000
2769		-3.906250
2770		-1.953125
2771		-3.906250
2772		-1.953125
2773		-3.906250
2774		0.000000
2775		-3.906250
2776		0.000000
2777		-3.906250
2778		0.000000
2779		-3.906250
2780		0.000000
2781		-3.906250
2782		0.000000
2783		-3.906250
2784		0.000000
2785		-3.906250
2786		1.953125
2787		-1.953125
2788		0.000000
2789		-1.953125
2790		1.953125
2791		-1.953125
2792		1.953125
2793		-1.953125
2794		1.953125
2795		-1.953125
2796		1.953125
2797		-1.953125
2798		1.953125
2799		-1.953125
2800		1.953125
2801		-1.953125
2802		3.906250
2803		0.000000
2804		1.953125
2805		0.000000
2806		3.906250
2807		0.000000
2808		3.906250
2809		0.000000
2810		3.906250
2811		0.000000
2812		3.906250
2813		0.000000
2814		5.859375
2815		1.953125
2816		5.859375
2817		0.000000
2818		5.859375
2819		1.953125
2820		5.859375
2821		1.953125
2822		3.906250
2823		1.953125
2824		5.859375
2825		1.953125
2826		5.859375
2827		1.953125
2828		5.859375
2829		1.953125
2830		5.859375
2831		1.953125
2832		5.859375
2833		1.953125
2834		5.859375
2835		3.906250
2836		7.812500
2837		3.906250
2838		5.859375
2839		3.906250
2840		7.812500
2841		3.906250
2842		7.812500
2843		3.906250
2844		7.812500
2845		3.906250
2846		7.812500
2847		3.906250
2848		7.812500
2849		3.906250
2850		9.765625
2851		3.906250
2852		7.812500
2853		5.859375
2854		9.765625
2855		5.859375
2856		7.812500
2857		5.859375
2858		9.765625
2859		5.859375
2860		9.765625
2861		5.859375
2862		9.765625
2863		5.859375
2864		9.765625
2865		5.859375
2866		9.765625
2867		5.859375
2868		9.765625
2869		5.859375
2870		11.718750
2871		7.812500
2872		9.765625
2873		7.812500
2874		9.765625
2875		5.859375
2876		11.718750
2877		7.812500
2878		11.718750
2879		7.812500
2880		11.718750
2881		7.812500
2882		11.718750
2883		7.812500
2884		11.718750
2885		7.812500
2886		11.718750
2887		9.765625
2888		11.718750
2889		9.765625
2890		11.718750
2891		7.812500
2892		11.718750
2893		7.812500
2894		11.718750
2895		9.765625
2896		11.718750
2897		9.765625
2898		11.718750
2899		9.765625
2900		11.718750
2901		7.812500
2902		13.671875
2903		9.765625
2904		11.718750
2905		9.765625
2906		11.718750
2907		9.765625
2908		13.671875
2909		9.765625
2910		13.671875
2911		9.765625
2912		13.671875
2913		9.765625
2914		13.671875
2915		9.765625
2916		13.671875
2917		9.765625
2918		13.671875
2919		9.765625
2920		13.671875
2921		9.765625
2922		15.625000
2923		9.765625
2924		13.671875
2925		9.765625
2926		13.671875
2927		9.765625
2928		13.671875
2929		9.765625
2930		15.625000
2931		9.765625
2932		15.625000
2933		11.718750
2934		13.671875
2935		9.765625
2936		13.671875
2937		11.718750
2938		15.625000
2939		11.718750
2940		13.671875
2941		11.718750
2942		15.625000
2943		11.718750
2944		15.625000
2945		11.718750
2946		13.671875
2947		11.718750
2948		15.625000
2949		11.718750
2950		15.625000
2951		11.718750
2952		15.625000
2953		11.718750
2954		15.625000
2955		11.718750
2956		13.671875
2957		9.765625
2958		15.625000
2959		11.718750
2960		15.625000
2961		11.718750
2962		15.625000
2963		11.718750
2964		15.625000
2965		11.718750
2966		15.625000
2967		11.718750
2968		15.625000
2969		11.718750
2970		15.625000
2971		9.765625
2972		15.625000
2973		11.718750
2974		13.671875
2975		11.718750
2976		15.625000
2977		11.718750
2978		15.625000
2979		11.718750
2980		13.671875
2981		11.718750
2982		15.625000
2983		11.718750
2984		13.671875
2985		11.718750
2986		15.625000
2987		9.765625
2988		15.625000
2989		11.718750
2990		13.671875
2991		11.718750
2992		15.625000
2993		11.718750
2994		15.625000
2995		9.765625
2996		15.625000
2997		11.718750
2998		15.625000
2999		9.765625
3000		13.671875
3001		11.718750
3002		13.671875
3003		9.765625
3004		15.625000
3005		9.765625
3006		15.625000
3007		11.718750
3008		13.671875
3009		9.765625
3010		15.625000
3011		11.718750
3012		13.671875
3013		9.765625
3014		13.671875
3015		9.765625
3016		13.671875
3017		9.765625
3018		13.671875
3019		9.765625
3020		13.671875
3021		9.765625
3022		13.671875
3023		9.765625
3024		13.671875
3025		9.765625
3026		13.671875
3027		9.765625
3028		13.671875
3029		9.765625
3030		13.671875
3031		9.765625
3032		13.671875
3033		9.765625
3034		13.671875
3035		7.812500
3036		13.671875
3037		9.765625
3038		13.671875
3039		7.812500
3040		11.718750
3041		7.812500
3042		13.671875
3043		9.765625
3044		11.718750
3045		7.812500
3046		11.718750
3047		9.765625
3048		11.718750
3049		7.812500
3050		11.718750
3051		7.812500
3052		11.718750
3053		7.812500
3054		11.718750
3055		7.812500
3056		11.718750
3057		7.812500
3058		9.765625
3059		7.812500
3060		11.718750
3061		7.812500
3062		11.718750
3063		7.812500
3064		11.718750
3065		7.812500
3066		11.718750
3067		7.812500
3068		9.765625
3069		5.859375
3070		9.765625
3071		5.859375
3072		9.765625
3073		5.859375
3074		9.765625
3075		5.859375
3076		9.765625
3077		5.859375
3078		9.765625
3079		5.859375
3080		9.765625
3081		5.859375
3082		9.765625
3083		5.859375
3084		9.765625
3085		5.859375
3086		7.812500
3087		5.859375
3088		9.765625
3089		3.906250
3090		9.765625
3091		3.906250
3092		7.812500
3093		3.906250
3094		7.812500
3095		3.906250
3096		7.812500
3097		3.906250
3098		7.812500
3099		3.906250
3100		7.812500
3101		3.906250
3102		7.812500
3103		1.953125
3104		7.812500
3105		3.906250
3106		5.859375
3107		3.906250
3108		5.859375
3109		0.000000
3110		7.812500
3111		1.953125
3112		5.859375
3113		1.953125
3114		5.859375
3115		1.953125
3116		5.859375
3117		1.953125
3118		5.859375
3119		1.953125
3120		5.859375
3121		0.000000
3122		5.859375
3123		1.953125
3124		3.906250
3125		0.000000
3126		3.906250
3127		0.000000
3128		3.906250
3129		0.000000
3130		3.906250
3131		0.000000
3132		3.906250
3133		0.000000
3134		3.906250
3135		0.000000
3136		3.906250
3137		0.000000
3138		3.906250
3139		0.000000
3140		1.953125
3141		0.000000
3142		3.906250
3143		0.000000
3144		1.953125
3145		-1.953125
3146		1.953125
3147		-1.953125
3148		1.953125
3149		-1.953125
3150		1.953125
3151		-1.953125
3152		1.953125
3153		-1.953125
3154		1.953125
3155		-1.953125
3156		1.953125
3157		-1.953125
3158		0.000000
3159		-3.906250
3160		0.000000
3161		-3.906250
3162		0.000000
3163		-3.906250
3164		0.000000
3165		-3.906250
3166		0.000000
3167		-3.906250
3168		0.000000
3169		-3.906250
3170		0.000000
3171		-3.906250
3172		0.000000
3173		-3.906250
3174		-1.953125
3175		-5.859375
3176		0.000000
3177		-3.906250
3178		-1.953125
3179		-5.859375
3180		-1.953125
3181		-5.859375
3182		-1.953125
3183		-5.859375
3184		-1.953125
3185		-5.859375
3186		-1.953125
3187		-7.812500
3188		-1.953125
3189		-5.859375
3190		-3.906250
3191		-5.859375
3192		-3.906250
3193		-7.812500
3194		-3.906250
3195		-7.812500
3196		-3.906250
3197		-7.812500
3198		-3.906250
3199		-7.812500
3200		-3.906250
3201		-7.812500
3202		-3.906250
3203		-9.765625
3204		-3.906250
3205		-9.765625
3206		-3.906250
3207		-7.812500
3208		-5.859375
3209		-7.812500
3210		-5.859375
3211		-9.765625
3212		-3.906250
3213		-9.765625
3214		-5.859375
3215		-9.765625
3216		-5.859375
3217		-9.765625
3218		-5.859375
3219		-9.765625
3220		-5.859375
3221		-9.765625
3222		-5.859375
3223		-9.765625
3224		-7.812500
3225		-9.765625
3226		-7.812500
3227		-11.718750
3228		-5.859375
3229		-11.718750
3230		-7.812500
3231		-11.718750
3232		-7.812500
3233		-11.718750
3234		-7.812500
3235		-11.718750
3236		-7.812500
3237		-13.671875
3238		-7.812500
3239		-11.718750
3240		-7.812500
3241		-11.718750
3242		-7.812500
3243		-13.671875
3244		-7.812500
3245		-11.718750
3246		-9.765625
3247		-13.671875
3248		-7.812500
3249		-13.671875
3250		-9.765625
3251		-13.671875
3252		-9.765625
3253		-13.671875
3254		-9.765625
3255		-13.671875
3256		-9.765625
3257		-13.671875
3258		-9.765625
3259		-13.671875
3260		-9.765625
3261		-13.671875
3262		-9.765625
3263		-13.671875
3264		-9.765625
3265		-15.625000
3266		-9.765625
3267		-13.671875
3268		-11.718750
3269		-15.625000
3270		-11.718750
3271		-15.625000
3272		-11.718750
3273		-15.625000
3274		-11.718750
3275		-13.671875
3276		-11.718750
3277		-13.671875
3278		-11.718750
3279		-15.625000
3280		-9.765625
3281		-15.625000
3282		-11.718750
3283		-15.625000
3284		-11.718750
3285		-15.625000
3286		-11.718750
3287		-15.625000
3288		-11.718750
3289		-15.625000
3290		-11.718750
3291		-15.625000
3292		-11.718750
3293		-15.625000
3294		-13.671875
3295		-15.625000
3296		-13.671875
3297		-15.625000
3298		-11.718750
3299		-15.625000
3300		-13.671875
3301		-15.625000
3302		-11.718750
3303		-15.625000
3304		-11.718750
3305		-15.625000
3306		-11.718750
3307		-17.578125
3308		-13.671875
3309		-15.625000
3310		-13.671875
3311		-17.578125
3312		-13.671875
3313		-17.578125
3314		-13.671875
3315		-17.578125
3316		-11.718750
3317		-17.578125
3318		-11.718750
3319		-17.578125
3320		-13.671875
3321		-17.578125
3322		-13.671875
3323		-17.578125
3324		-13.671875
3325		-15.625000
3326		-13.671875
3327		-17.578125
3328		-13.671875
3329		-17.578125
3330		-13.671875
3331		-17.578125
3332		-13.671875
3333		-17.578125
3334		-11.718750
3335		-17.578125
3336		-11.718750
3337		-17.578125
3338		-13.671875
3339		-17.578125
3340		-13.671875
3341		-17.578125
3342		-13.671875
3343		-15.625000
3344		-13.671875
3345		-17.578125
3346		-11.718750
3347		-17.578125
3348		-13.671875
3349		-17.578125
3350		-13.671875
3351		-17.578125
3352		-13.671875
3353		-17.578125
3354		-13.671875
3355		-17.578125
3356		-13.671875
3357		-17.578125
3358		-13.671875
3359		-15.625000
3360		-13.671875
3361		-17.578125
3362		-11.718750
3363		-17.578125
3364		-11.718750
3365		-17.578125
3366		-11.718750
3367		-17.578125
3368		-11.718750
3369		-17.578125
3370		-11.718750
3371		-17.578125
3372		-11.718750
3373		-15.625000
3374		-11.718750
3375		-15.625000
3376		-13.671875
3377		-17.578125
3378		-11.718750
3379		-17.578125
3380		-11.718750
3381		-17.578125
3382		-11.718750
3383		-15.625000
3384		-11.718750
3385		-17.578125
3386		-11.718750
3387		-15.625000
3388		-11.718750
3389		-17.578125
3390		-11.718750
3391		-15.625000
3392		-11.718750
3393		-15.625000
3394		-11.718750
3395		-15.625000
3396		-11.718750
3397		-15.625000
3398		-11.718750
3399		-15.625000
3400		-9.765625
3401		-15.625000
3402		-11.718750
3403		-15.625000
3404		-11.718750
3405		-15.625000
3406		-9.765625
3407		-15.625000
3408		-9.765625
3409		-13.671875
3410		-11.718750
3411		-13.671875
3412		-9.765625
3413		-15.625000
3414		-9.765625
3415		-13.671875
3416		-9.765625
3417		-15.625000
3418		-9.765625
3419		-13.671875
3420		-7.812500
3421		-13.671875
3422		-9.765625
3423		-13.671875
3424		-9.765625
3425		-11.718750
3426		-9.765625
3427		-11.718750
3428		-9.765625
3429		-13.671875
3430		-9.765625
3431		-11.718750
3432		-9.765625
3433		-11.718750
3434		-9.765625
3435		-11.718750
3436		-9.765625
3437		-11.718750
3438		-9.765625
3439		-11.718750
3440		-7.812500
3441		-11.718750
3442		-7.812500
3443		-11.718750
3444		-7.812500
3445		-11.718750
3446		-7.812500
3447		-9.765625
3448		-7.812500
3449		-9.765625
3450		-7.812500
3451		-9.765625
3452		-5.859375
3453		-9.765625
3454		-7.812500
3455		-11.718750
3456		-7.812500
3457		-9.765625
3458		-5.859375
3459		-9.765625
3460		-5.859375
3461		-9.765625
3462		-5.859375
3463		-9.765625
3464		-5.859375
3465		-7.812500
3466		-5.859375
3467		-9.765625
3468		-5.859375
3469		-7.812500
3470		-5.859375
3471		-7.812500
3472		-5.859375
3473		-9.765625
3474		-3.906250
3475		-7.812500
3476		-5.859375
3477		-7.812500
3478		-3.906250
3479		-7.812500
3480		-3.906250
3481		-5.859375
3482		-3.906250
3483		-5.859375
3484		-3.906250
3485		-7.812500
3486		-3.906250
3487		-5.859375
3488		-3.906250
3489		-5.859375
3490		-3.906250
3491		-7.812500
3492		-1.953125
3493		-5.859375
3494		-1.953125
3495		-5.859375
3496		-1.953125
3497		-3.906250
3498		-1.953125
3499		-3.906250
3500		-1.953125
3501		-3.906250
3502		0.000000
3503		-3.906250
3504		-1.953125
3505		-3.906250
3506		-1.953125
3507		-3.906250
3508		0.000000
3509		-3.906250
3510		0.000000
3511		-1.953125
3512		0.000000
3513		-1.953125
3514		0.000000
3515		-1.953125
3516		0.000000
3517		-1.953125
3518		0.000000
3519		-1.953125
3520		0.000000
3521		-1.953125
3522		0.000000
3523		-1.953125
3524		0.000000
3525		-1.953125
3526		1.953125
3527		-1.953125
3528		1.953125
3529		-3.906250
3530		5.859375
3531		-3.906250
3532		3.906250
3533		-3.906250
3534		5.859375
3535		0.000000
3536		1.953125
3537		0.000000
3538		3.906250
3539		0.000000
3540		1.953125
3541		0.000000
3542		3.906250
3543		0.000000
3544		3.906250
3545		-1.953125
3546		5.859375
3547		-1.953125
3548		7.812500
3549		-1.953125
3550		7.812500
3551		-1.953125
3552		7.812500
3553		1.953125
3554		3.906250
3555		1.953125
3556		5.859375
3557		1.953125
3558		5.859375
3559		1.953125
3560		5.859375
3561		1.953125
3562		5.859375
3563		0.000000
3564		7.812500
3565		0.000000
3566		9.765625
3567		0.000000
3568		9.765625
3569		3.906250
3570		5.859375
3571		3.906250
3572		5.859375
3573		3.906250
3574		5.859375
3575		3.906250
3576		7.812500
3577		3.906250
3578		7.812500
3579		0.000000
3580		11.718750
3581		1.953125
3582		9.765625
3583		1.953125
3584		11.718750
3585		1.953125
3586		11.718750
3587		3.906250
3588		7.812500
3589		5.859375
3590		7.812500
3591		5.859375
3592		7.812500
3593		5.859375
3594		9.765625
3595		5.859375
3596		9.765625
3597		3.906250
3598		13.671875
3599		3.906250
3600		13.671875
3601		3.906250
3602		11.718750
3603		7.812500
3604		9.765625
3605		7.812500
3606		9.765625
3607		7.812500
3608		11.718750
3609		7.812500
3610		9.765625
3611		7.812500
3612		9.765625
3613		5.859375
3614		13.671875
3615		3.906250
3616		13.671875
3617		3.906250
3618		13.671875
3619		7.812500
3620		11.718750
3621		9.765625
3622		11.718750
3623		9.765625
3624		11.718750
3625		7.812500
3626		11.718750
3627		9.765625
3628		11.718750
3629		5.859375
3630		15.625000
3631		5.859375
3632		15.625000
3633		5.859375
3634		15.625000
3635		5.859375
3636		15.625000
3637		9.765625
3638		11.718750
3639		9.765625
3640		11.718750
3641		9.765625
3642		13.671875
3643		9.765625
3644		11.718750
3645		9.765625
3646		13.671875
3647		7.812500
3648		17.578125
3649		7.812500
3650		17.578125
3651		7.812500
3652		17.578125
3653		9.765625
3654		13.671875
3655		9.765625
3656		13.671875
3657		11.718750
3658		13.671875
3659		11.718750
3660		13.671875
3661		11.718750
3662		13.671875
3663		7.812500
3664		17.578125
3665		7.812500
3666		17.578125
3667		7.812500
3668		17.578125
3669		9.765625
3670		15.625000
3671		11.718750
3672		13.671875
3673		11.718750
3674		13.671875
3675		11.718750
3676		15.625000
3677		11.718750
3678		13.671875
3679		11.718750
3680		13.671875
3681		7.812500
3682		17.578125
3683		9.765625
3684		17.578125
3685		7.812500
3686		17.578125
3687		11.718750
3688		13.671875
3689		11.718750
3690		15.625000
3691		11.718750
3692		13.671875
3693		11.718750
3694		15.625000
3695		9.765625
3696		15.625000
3697		7.812500
3698		17.578125
3699		9.765625
3700		17.578125
3701		7.812500
3702		17.578125
3703		11.718750
3704		13.671875
3705		11.718750
3706		15.625000
3707		11.718750
3708		13.671875
3709		11.718750
3710		15.625000
3711		11.718750
3712		13.671875
3713		11.718750
3714		13.671875
3715		9.765625
3716		17.578125
3717		9.765625
3718		17.578125
3719		11.718750
3720		13.671875
3721		11.718750
3722		13.671875
3723		11.718750
3724		13.671875
3725		11.718750
3726		13.671875
3727		9.765625
3728		13.671875
3729		11.718750
3730		13.671875
3731		11.718750
3732		15.625000
3733		9.765625
3734		17.578125
3735		9.765625
3736		15.625000
3737		11.718750
3738		15.625000
3739		11.718750
3740		15.625000
3741		9.765625
3742		13.671875
3743		9.765625
3744		13.671875
3745		11.718750
3746		13.671875
3747		9.765625
3748		13.671875
3749		9.765625
3750		15.625000
3751		9.765625
3752		15.625000
3753		9.765625
3754		13.671875
3755		9.765625
3756		13.671875
3757		9.765625
3758		11.718750
3759		9.765625
3760		11.718750
3761		9.765625
3762		13.671875
3763		9.765625
3764		13.671875
3765		9.765625
3766		11.718750
3767		9.765625
3768		11.718750
3769		9.765625
3770		11.718750
3771		9.765625
3772		11.718750
3773		7.812500
3774		11.718750
3775		9.765625
3776		11.718750
3777		9.765625
3778		11.718750
3779		7.812500
3780		11.718750
3781		9.765625
3782		11.718750
3783		7.812500
3784		11.718750
3785		7.812500
3786		11.718750
3787		9.765625
3788		11.718750
3789		7.812500
3790		11.718750
3791		7.812500
3792		9.765625
3793		7.812500
3794		9.765625
3795		5.859375
3796		11.718750
3797		7.812500
3798		11.718750
3799		7.812500
3800		9.765625
3801		7.812500
3802		11.718750
3803		7.812500
3804		9.765625
3805		5.859375
3806		9.765625
3807		5.859375
3808		9.765625
3809		7.812500
3810		9.765625
3811		5.859375
3812		9.765625
3813		5.859375
3814		7.812500
3815		5.859375
3816		9.765625
3817		5.859375
3818		9.765625
3819		5.859375
3820		7.812500
3821		3.906250
3822		7.812500
3823		3.906250
3824		7.812500
3825		5.859375
3826		7.812500
3827		3.906250
3828		7.812500
3829		3.906250
3830		7.812500
3831		3.906250
3832		7.812500
3833		3.906250
3834		7.812500
3835		3.906250
3836		7.812500
3837		3.906250
3838		5.859375
3839		3.906250
3840		7.812500
3841		3.906250
3842		5.859375
3843		3.906250
3844		5.859375
3845		1.953125
3846		7.812500
3847		3.906250
3848		5.859375
3849		1.953125
3850		5.859375
3851		1.953125
3852		5.859375
3853		1.953125
3854		3.906250
3855		1.953125
3856		5.859375
3857		1.953125
3858		5.859375
3859		1.953125
3860		3.906250
3861		0.000000
3862		3.906250
3863		1.953125
3864		3.906250
3865		0.000000
3866		3.906250
3867		0.000000
3868		3.906250
3869		0.000000
3870		3.906250
3871		0.000000
3872		3.906250
3873		0.000000
3874		3.906250
3875		0.000000
3876		1.953125
3877		0.000000
3878		3.906250
3879		0.000000
3880		1.953125
3881		-3.906250
3882		1.953125
3883		-1.953125
3884		1.953125
3885		-1.953125
3886		1.953125
3887		-1.953125
3888		1.953125
3889		-3.906250
3890		1.953125
3891		-1.953125
3892		0.000000
3893		-1.953125
3894		1.953125
3895		-1.953125
3896		0.000000
3897		-3.906250
3898		0.000000
3899		-5.859375
3900		0.000000
3901		-3.906250
3902		0.000000
3903		-3.906250
3904		-1.953125
3905		-3.906250
3906		0.000000
3907		-5.859375
3908		-1.953125
3909		-3.906250
3910		-1.953125
3911		-3.906250
3912		-1.953125
3913		-3.906250
3914		-1.953125
3915		-5.859375
3916		-1.953125
3917		-5.859375
3918		-1.953125
3919		-5.859375
3920		-1.953125
3921		-5.859375
3922		-1.953125
3923		-5.859375
3924		-1.953125
3925		-5.859375
3926		-3.906250
3927		-5.859375
3928		-3.906250
3929		-5.859375
3930		-3.906250
3931		-7.812500
3932		-3.906250
3933		-7.812500
3934		-3.906250
3935		-7.812500
3936		-3.906250
3937		-7.812500
3938		-3.906250
3939		-7.812500
3940		-3.906250
3941		-7.812500
3942		-3.906250
3943		-9.765625
3944		-5.859375
3945		-7.812500
3946		-5.859375
3947		-7.812500
3948		-5.859375
3949		-9.765625
3950		-5.859375
3951		-9.765625
3952		-5.859375
3953		-9.765625
3954		-5.859375
3955		-9.765625
3956		-5.859375
3957		-9.765625
3958		-5.859375
3959		-9.765625
3960		-7.812500
3961		-9.765625
3962		-7.812500
3963		-9.765625
3964		-7.812500
3965		-11.718750
3966		-5.859375
3967		-11.718750
3968		-7.812500
3969		-11.718750
3970		-7.812500
3971		-11.718750
3972		-9.765625
3973		-11.718750
3974		-7.812500
3975		-11.718750
3976		-7.812500
3977		-11.718750
3978		-9.765625
3979		-11.718750
3980		-7.812500
3981		-11.718750
3982		-9.765625
3983		-13.671875
3984		-9.765625
3985		-13.671875
3986		-9.765625
3987		-11.718750
3988		-9.765625
3989		-13.671875
3990		-9.765625
3991		-13.671875
3992		-9.765625
3993		-13.671875
3994		-9.765625
3995		-13.671875
3996		-9.765625
3997		-13.671875
3998		-11.718750
3999		-13.671875
4000		-11.718750
4001		-13.671875
4002		-9.765625
4003		-13.671875
4004		-11.718750
4005		-13.671875
4006		-11.718750
4007		-13.671875
4008		-11.718750
4009		-13.671875
4010		-11.718750
4011		-15.625000
4012		-11.718750
4013		-15.625000
4014		-9.765625
4015		-13.671875
4016		-11.718750
4017		-15.625000
4018		-11.718750
4019		-15.625000
4020		-11.718750
4021		-15.625000
4022		-11.718750
4023		-15.625000
4024		-11.718750
4025		-15.625000
4026		-13.671875
4027		-15.625000
4028		-11.718750
4029		-15.625000
4030		-13.671875
4031		-15.625000
4032		-11.718750
4033		-15.625000
4034		-13.671875
4035		-15.625000
4036		-13.671875
4037		-15.625000
4038		-11.718750
4039		-15.625000
4040		-13.671875
4041		-15.625000
4042		-13.671875
4043		-15.625000
4044		-13.671875
4045		-15.625000
4046		-13.671875
4047		-17.578125
4048		-13.671875
4049		-15.625000
4050		-13.671875
4051		-15.625000
4052		-13.671875
4053		-17.578125
4054		-11.718750
4055		-15.625000
4056		-13.671875
4057		-17.578125
4058		-13.671875
4059		-15.625000
4060		-13.671875
4061		-15.625000
4062		-13.671875
4063		-17.578125
4064		-13.671875
4065		-15.625000
4066		-13.671875
4067		-17.578125
4068		-13.671875
4069		-17.578125
4070		-11.718750
4071		-15.625000
4072		-13.671875
4073		-15.625000
4074		-13.671875
4075		-17.578125
4076		-13.671875
4077		-15.625000
4078		-13.671875
4079		-17.578125
4080		-13.671875
4081		-17.578125
4082		-13.671875
4083		-17.578125
4084		-13.671875
4085		-15.625000
4086		-13.671875
4087		-15.625000
4088		-13.671875
4089		-15.625000
4090		-13.671875
4091		-15.625000
4092		-13.671875
4093		-15.625000
4094		-13.671875
4095		-15.625000
4096		-13.671875
4097		-17.578125
4098		-13.671875
4099		-15.625000
4100		-13.671875
4101		-15.625000
4102		-13.671875
4103		-15.625000
4104		-13.671875
4105		-15.625000
4106		-13.671875
4107		-17.578125
4108		-13.671875
4109		-15.625000
4110		-13.671875
4111		-15.625000
4112		-11.718750
4113		-15.625000
4114		-13.671875
4115		-15.625000
4116		-13.671875
4117		-15.625000
4118		-11.718750
4119		-15.625000
4120		-13.671875
4121		-15.625000
4122		-11.718750
4123		-15.625000
4124		-11.718750
4125		-15.625000
4126		-11.718750
4127		-15.625000
4128		-11.718750
4129		-15.625000
4130		-11.718750
4131		-15.625000
4132		-11.718750
4133		-15.625000
4134		-11.718750
4135		-13.671875
4136		-11.718750
4137		-13.671875
4138		-9.765625
4139		-13.671875
4140		-11.718750
4141		-13.671875
4142		-9.765625
4143		-13.671875
4144		-11.718750
4145		-13.671875
4146		-11.718750
4147		-13.671875
4148		-9.765625
4149		-13.671875
4150		-9.765625
4151		-13.671875
4152		-7.812500
4153		-13.671875
4154		-9.765625
4155		-13.671875
4156		-9.765625
4157		-13.671875
4158		-9.765625
4159		-11.718750
4160		-9.765625
4161		-13.671875
4162		-9.765625
4163		-11.718750
4164		-9.765625
4165		-11.718750
4166		-7.812500
4167		-13.671875
4168		-7.812500
4169		-13.671875
4170		-7.812500
4171		-13.671875
4172		-7.812500
4173		-11.718750
4174		-7.812500
4175		-11.718750
4176		-7.812500
4177		-9.765625
4178		-7.812500
4179		-9.765625
4180		-7.812500
4181		-11.718750
4182		-7.812500
4183		-9.765625
4184		-7.812500
4185		-11.718750
4186		-5.859375
4187		-9.765625
4188		-5.859375
4189		-9.765625
4190		-5.859375
4191		-9.765625
4192		-5.859375
4193		-9.765625
4194		-5.859375
4195		-9.765625
4196		-5.859375
4197		-7.812500
4198		-5.859375
4199		-7.812500
4200		-3.906250
4201		-9.765625
4202		-3.906250
4203		-9.765625
4204		-1.953125
4205		-7.812500
4206		-3.906250
4207		-7.812500
4208		-3.906250
4209		-7.812500
4210		-3.906250
4211		-5.859375
4212		-3.906250
4213		-5.859375
4214		-3.906250
4215		-5.859375
4216		-3.906250
4217		-5.859375
4218		-1.953125
4219		-7.812500
4220		-1.953125
4221		-7.812500
4222		-1.953125
4223		-5.859375
4224		-1.953125
4225		-5.859375
4226		-1.953125
4227		-5.859375
4228		-1.953125
4229		-3.906250
4230		0.000000
4231		-3.906250
4232		-1.953125
4233		-3.906250
4234		-1.953125
4235		-5.859375
4236		0.000000
4237		-3.906250
4238		0.000000
4239		-3.906250
4240		0.000000
4241		-3.906250
4242		-1.953125
4243		-3.906250
4244		0.000000
4245		-3.906250
4246		0.000000
4247		-1.953125
4248		0.000000
4249		-1.953125
4250		0.000000
4251		-3.906250
4252		1.953125
4253		-3.906250
4254		1.953125
4255		-1.953125
4256		1.953125
4257		-1.953125
4258		1.953125
4259		-1.953125
4260		1.953125
4261		-1.953125
4262		1.953125
4263		-1.953125
4264		1.953125
4265		0.000000
4266		1.953125
4267		0.000000
4268		1.953125
4269		-1.953125
4270		3.906250
4271		-1.953125
4272		3.906250
4273		0.000000
4274		3.906250
4275		0.000000
4276		3.906250
4277		1.953125
4278		3.906250
4279		0.000000
4280		3.906250
4281		1.953125
4282		3.906250
4283		1.953125
4284		5.859375
4285		0.000000
4286		5.859375
4287		0.000000
4288		5.859375
4289		1.953125
4290		5.859375
4291		1.953125
4292		5.859375
4293		1.953125
4294		5.859375
4295		3.906250
4296		5.859375
4297		3.906250
4298		5.859375
4299		1.953125
4300		7.812500
4301		3.906250
4302		7.812500
4303		1.953125
4304		7.812500
4305		3.906250
4306		7.812500
4307		3.906250
4308		7.812500
4309		3.906250
4310		7.812500
4311		5.859375
4312		7.812500
4313		3.906250
4314		7.812500
4315		5.859375
4316		7.812500
4317		5.859375
4318		9.765625
4319		3.906250
4320		9.765625
4321		3.906250
4322		9.765625
4323		5.859375
4324		9.765625
4325		5.859375
4326		9.765625
4327		5.859375
4328		9.765625
4329		7.812500
4330		9.765625
4331		7.812500
4332		9.765625
4333		5.859375
4334		9.765625
4335		7.812500
4336		9.765625
4337		5.859375
4338		9.765625
4339		7.812500
4340		9.765625
4341		7.812500
4342		9.765625
4343		7.812500
4344		11.718750
4345		7.812500
4346		11.718750
4347		7.812500
4348		11.718750
4349		7.812500
4350		11.718750
4351		9.765625
4352		11.718750
4353		7.812500
4354		13.671875
4355		9.765625
4356		11.718750
4357		7.812500
4358		11.718750
4359		9.765625
4360		11.718750
4361		9.765625
4362		11.718750
4363		9.765625
4364		11.718750
4365		9.765625
4366		11.718750
4367		9.765625
4368		13.671875
4369		9.765625
4370		13.671875
4371		9.765625
4372		13.671875
4373		9.765625
4374		13.671875
4375		9.765625
4376		13.671875
4377		9.765625
4378		13.671875
4379		11.718750
4380		13.671875
4381		11.718750
4382		13.671875
4383		9.765625
4384		13.671875
4385		11.718750
4386		13.671875
4387		9.765625
4388		13.671875
4389		11.718750
4390		13.671875
4391		11.718750
4392		13.671875
4393		11.718750
4394		15.625000
4395		11.718750
4396		13.671875
4397		11.718750
4398		13.671875
4399		11.718750
4400		15.625000
4401		11.718750
4402		13.671875
4403		11.718750
4404		13.671875
4405		11.718750
4406		15.625000
4407		11.718750
4408		13.671875
4409		11.718750
4410		13.671875
4411		11.718750
4412		15.625000
4413		11.718750
4414		13.671875
4415		11.718750
4416		15.625000
4417		11.718750
4418		13.671875
4419		11.718750
4420		15.625000
4421		11.718750
4422		15.625000
4423		11.718750
4424		13.671875
4425		11.718750
4426		15.625000
4427		11.718750
4428		13.671875
4429		11.718750
4430		15.625000
4431		11.718750
4432		15.625000
4433		11.718750
4434		15.625000
4435		11.718750
4436		15.625000
4437		11.718750
4438		15.625000
4439		11.718750
4440		13.671875
4441		11.718750
4442		15.625000
4443		11.718750
4444		13.671875
4445		11.718750
4446		15.625000
4447		11.718750
4448		15.625000
4449		11.718750
4450		13.671875
4451		11.718750
4452		15.625000
4453		11.718750
4454		15.625000
4455		11.718750
4456		13.671875
4457		11.718750
4458		15.625000
4459		11.718750
4460		13.671875
4461		11.718750
4462		15.625000
4463		11.718750
4464		15.625000
4465		11.718750
4466		13.671875
4467		9.765625
4468		15.625000
4469		11.718750
4470		13.671875
4471		11.718750
4472		13.671875
4473		11.718750
4474		15.625000
4475		11.718750
4476		13.671875
4477		11.718750
4478		13.671875
4479		11.718750
4480		13.671875
4481		11.718750
4482		13.671875
4483		11.718750
4484		13.671875
4485		9.765625
4486		15.625000
4487		11.718750
4488		13.671875
4489		9.765625
4490		13.671875
4491		9.765625
4492		13.671875
4493		11.718750
4494		13.671875
4495		9.765625
4496		13.671875
4497		9.765625
4498		15.625000
4499		9.765625
4500		13.671875
4501		9.765625
4502		13.671875
4503		9.765625
4504		11.718750
4505		9.765625
4506		13.671875
4507		9.765625
4508		13.671875
4509		9.765625
4510		11.718750
4511		9.765625
4512		11.718750
4513		9.765625
4514		11.718750
4515		9.765625
4516		11.718750
4517		7.812500
4518		11.718750
4519		9.765625
4520		11.718750
4521		9.765625
4522		11.718750
4523		7.812500
4524		11.718750
4525		7.812500
4526		11.718750
4527		7.812500
4528		11.718750
4529		7.812500
4530		11.718750
4531		7.812500
4532		11.718750
4533		7.812500
4534		11.718750
4535		7.812500
4536		9.765625
4537		7.812500
4538		9.765625
4539		7.812500
4540		11.718750
4541		7.812500
4542		9.765625
4543		7.812500
4544		9.765625
4545		7.812500
4546		9.765625
4547		5.859375
4548		9.765625
4549		5.859375
4550		9.765625
4551		5.859375
4552		9.765625
4553		5.859375
4554		7.812500
4555		5.859375
4556		9.765625
4557		5.859375
4558		7.812500
4559		5.859375
4560		7.812500
4561		5.859375
4562		7.812500
4563		5.859375
4564		7.812500
4565		3.906250
4566		7.812500
4567		3.906250
4568		7.812500
4569		3.906250
4570		7.812500
4571		3.906250
4572		5.859375
4573		3.906250
4574		7.812500
4575		3.906250
4576		5.859375
4577		3.906250
4578		5.859375
4579		3.906250
4580		5.859375
4581		3.906250
4582		5.859375
4583		1.953125
4584		5.859375
4585		3.906250
4586		5.859375
4587		1.953125
4588		5.859375
4589		1.953125
4590		5.859375
4591		1.953125
4592		3.906250
4593		1.953125
4594		3.906250
4595		0.000000
4596		3.906250
4597		1.953125
4598		3.906250
4599		0.000000
4600		3.906250
4601		0.000000
4602		3.906250
4603		0.000000
4604		3.906250
4605		0.000000
4606		3.906250
4607		0.000000
4608		1.953125
4609		0.000000
4610		3.906250
4611		0.000000
4612		1.953125
4613		0.000000
4614		1.953125
4615		-1.953125
4616		1.953125
4617		0.000000
4618		1.953125
4619		-1.953125
4620		1.953125
4621		-1.953125
4622		1.953125
4623		-1.953125
4624		0.000000
4625		-1.953125
4626		0.000000
4627		-1.953125
4628		0.000000
4629		-1.953125
4630		0.000000
4631		-1.953125
4632		0.000000
4633		-1.953125
4634		0.000000
4635		-3.906250
4636		0.000000
4637		-3.906250
4638		0.000000
4639		-3.906250
4640		-1.953125
4641		-3.906250
4642		0.000000
4643		-3.906250
4644		-1.953125
4645		-3.906250
4646		-1.953125
4647		-5.859375
4648		-1.953125
4649		-3.906250
4650		-1.953125
4651		-5.859375
4652		-1.953125
4653		-5.859375
4654		-1.953125
4655		-5.859375
4656		-3.906250
4657		-5.859375
4658		-1.953125
4659		-5.859375
4660		-3.906250
4661		-5.859375
4662		-3.906250
4663		-5.859375
4664		-3.906250
4665		-5.859375
4666		-3.906250
4667		-7.812500
4668		-3.906250
4669		-7.812500
4670		-3.906250
4671		-7.812500
4672		-3.906250
4673		-7.812500
4674		-5.859375
4675		-7.812500
4676		-5.859375
4677		-7.812500
4678		-3.906250
4679		-7.812500
4680		-5.859375
4681		-7.812500
4682		-5.859375
4683		-7.812500
4684		-5.859375
4685		-7.812500
4686		-5.859375
4687		-9.765625
4688		-5.859375
4689		-9.765625
4690		-7.812500
4691		-9.765625
4692		-5.859375
4693		-9.765625
4694		-7.812500
4695		-9.765625
4696		-7.812500
4697		-11.718750
4698		-5.859375
4699		-9.765625
4700		-7.812500
4701		-9.765625
4702		-7.812500
4703		-9.765625
4704		-7.812500
4705		-11.718750
4706		-7.812500
4707		-11.718750
4708		-7.812500
4709		-11.718750
4710		-7.812500
4711		-11.718750
4712		-9.765625
4713		-11.718750
4714		-9.765625
4715		-13.671875
4716		-7.812500
4717		-11.718750
4718		-9.765625
4719		-11.718750
4720		-9.765625
4721		-13.671875
4722		-9.765625
4723		-11.718750
4724		-9.765625
4725		-13.671875
4726		-9.765625
4727		-13.671875
4728		-9.765625
4729		-11.718750
4730		-9.765625
4731		-13.671875
4732		-9.765625
4733		-13.671875
4734		-11.718750
4735		-13.671875
4736		-11.718750
4737		-13.671875
4738		-9.765625
4739		-13.671875
4740		-11.718750
4741		-13.671875
4742		-9.765625
4743		-13.671875
4744		-11.718750
4745		-13.671875
4746		-11.718750
4747		-15.625000
4748		-9.765625
4749		-13.671875
4750		-11.718750
4751		-13.671875
4752		-11.718750
4753		-13.671875
4754		-11.718750
4755		-13.671875
4756		-11.718750
4757		-13.671875
4758		-11.718750
4759		-15.625000
4760		-11.718750
4761		-15.625000
4762		-11.718750
4763		-15.625000
4764		-11.718750
4765		-15.625000
4766		-11.718750
4767		-15.625000
4768		-13.671875
4769		-15.625000
4770		-13.671875
4771		-15.625000
4772		-11.718750
4773		-15.625000
4774		-13.671875
4775		-15.625000
4776		-13.671875
4777		-15.625000
4778		-11.718750
4779		-15.625000
4780		-13.671875
4781		-15.625000
4782		-13.671875
4783		-15.625000
4784		-13.671875
4785		-17.578125
4786		-13.671875
4787		-15.625000
4788		-13.671875
4789		-15.625000
4790		-13.671875
4791		-17.578125
4792		-11.718750
4793		-15.625000
4794		-13.671875
4795		-15.625000
4796		-13.671875
4797		-17.578125
4798		-13.671875
4799		-15.625000
4800		-13.671875
4801		-15.625000
4802		-13.671875
4803		-17.578125
4804		-13.671875
4805		-15.625000
4806		-13.671875
4807		-17.578125
4808		-13.671875
4809		-15.625000
4810		-13.671875
4811		-15.625000
4812		-13.671875
4813		-17.578125
4814		-13.671875
4815		-15.625000
4816		-13.671875
4817		-17.578125
4818		-13.671875
4819		-15.625000
4820		-13.671875
4821		-15.625000
4822		-13.671875
4823		-17.578125
4824		-11.718750
4825		-15.625000
4826		-13.671875
4827		-15.625000
4828		-13.671875
4829		-15.625000
4830		-13.671875
4831		-15.625000
4832		-13.671875
4833		-15.625000
4834		-13.671875
4835		-15.625000
4836		-11.718750
4837		-15.625000
4838		-13.671875
4839		-15.625000
4840		-13.671875
4841		-15.625000
4842		-11.718750
4843		-15.625000
4844		-13.671875
4845		-15.625000
4846		-13.671875
4847		-15.625000
4848		-11.718750
4849		-15.625000
4850		-11.718750
4851		-13.671875
4852		-11.718750
4853		-15.625000
4854		-11.718750
4855		-13.671875
4856		-11.718750
4857		-13.671875
4858		-11.718750
4859		-13.671875
4860		-11.718750
4861		-15.625000
4862		-11.718750
4863		-13.671875
4864		-11.718750
4865		-13.671875
4866		-11.718750
4867		-13.671875
4868		-9.765625
4869		-13.671875
4870		-11.718750
4871		-13.671875
4872		-11.718750
4873		-13.671875
4874		-9.765625
4875		-13.671875
4876		-11.718750
4877		-13.671875
4878		-9.765625
4879		-13.671875
4880		-9.765625
4881		-13.671875
4882		-9.765625
4883		-13.671875
4884		-9.765625
4885		-13.671875
4886		-9.765625
4887		-13.671875
4888		-9.765625
4889		-11.718750
4890		-9.765625
4891		-11.718750
4892		-9.765625
4893		-13.671875
4894		-7.812500
4895		-11.718750
4896		-9.765625
4897		-11.718750
4898		-7.812500
4899		-11.718750
4900		-7.812500
4901		-11.718750
4902		-7.812500
4903		-11.718750
4904		-7.812500
4905		-11.718750
4906		-7.812500
4907		-11.718750
4908		-7.812500
4909		-11.718750
4910		-7.812500
4911		-9.765625
4912		-7.812500
4913		-9.765625
4914		-7.812500
4915		-9.765625
4916		-7.812500
4917		-9.765625
4918		-7.812500
4919		-9.765625
4920		-5.859375
4921		-9.765625
4922		-5.859375
4923		-9.765625
4924		-5.859375
4925		-7.812500
4926		-5.859375
4927		-7.812500
4928		-5.859375
4929		-9.765625
4930		-5.859375
4931		-7.812500
4932		-5.859375
4933		-7.812500
4934		-5.859375
4935		-7.812500
4936		-3.906250
4937		-7.812500
4938		-3.906250
4939		-7.812500
4940		-5.859375
4941		-7.812500
4942		-3.906250
4943		-5.859375
4944		-3.906250
4945		-5.859375
4946		-3.906250
4947		-5.859375
4948		-3.906250
4949		-5.859375
4950		-3.906250
4951		-5.859375
4952		-1.953125
4953		-5.859375
4954		-3.906250
4955		-5.859375
4956		-1.953125
4957		-5.859375
4958		-1.953125
4959		-3.906250
4960		-1.953125
4961		-5.859375
4962		-1.953125
4963		-5.859375
4964		-1.953125
4965		-3.906250
4966		-1.953125
4967		-3.906250
4968		0.000000
4969		-3.906250
4970		-1.953125
4971		-3.906250
4972		0.000000
4973		-3.906250
4974		0.000000
4975		-1.953125
4976		0.000000
4977		-3.906250
4978		0.000000
4979		-1.953125
4980		0.000000
4981		-1.953125
4982		0.000000
4983		-1.953125
4984		1.953125
4985		-1.953125
4986		0.000000
4987		-1.953125
4988		0.000000
4989		-1.953125
4990		1.953125
4991		0.000000
4992		1.953125
4993		0.000000
4994		1.953125
4995		-1.953125
4996		3.906250
4997		0.000000
4998		1.953125
4999		0.000000
5000		1.953125
5001		0.000000
5002		3.906250
5003		0.000000
5004		3.906250
5005		0.000000
5006		3.906250
5007		0.000000
5008		3.906250
5009		1.953125
5010		3.906250
5011		1.953125
5012		3.906250
5013		1.953125
5014		3.906250
5015		1.953125
5016		5.859375
5017		1.953125
5018		5.859375
5019		1.953125
5020		5.859375
5021		1.953125
5022		5.859375
5023		1.953125
5024		5.859375
5025		1.953125
5026		5.859375
5027		3.906250
5028		5.859375
5029		1.953125
5030		7.812500
5031		3.906250
5032		5.859375
5033		3.906250
5034		5.859375
5035		3.906250
5036		7.812500
5037		3.906250
5038		7.812500
5039		5.859375
5040		7.812500
5041		3.906250
5042		7.812500
5043		5.859375
5044		7.812500
5045		5.859375
5046		7.812500
5047		5.859375
5048		7.812500
5049		5.859375
5050		7.812500
5051		5.859375
5052		9.765625
5053		5.859375
5054		9.765625
5055		7.812500
5056		9.765625
5057		7.812500
5058		9.765625
5059		7.812500
5060		9.765625
5061		7.812500
5062		9.765625
5063		7.812500
5064		9.765625
5065		7.812500
5066		9.765625
5067		7.812500
5068		11.718750
5069		7.812500
5070		9.765625
5071		7.812500
5072		11.718750
5073		7.812500
5074		11.718750
5075		7.812500
5076		11.718750
5077		9.765625
5078		11.718750
5079		7.812500
5080		11.718750
5081		9.765625
5082		11.718750
5083		9.765625
5084		11.718750
5085		9.765625
5086		11.718750
5087		9.765625
5088		11.718750
5089		9.765625
5090		11.718750
5091		9.765625
5092		13.671875
5093		9.765625
5094		11.718750
5095		9.765625
5096		13.671875
5097		9.765625
5098		13.671875
5099		9.765625
5100		13.671875
5101		9.765625
5102		13.671875
5103		11.718750
5104		13.671875
5105		11.718750
5106		13.671875
5107		9.765625
5108		13.671875
5109		11.718750
5110		13.671875
5111		11.718750
5112		13.671875
5113		9.765625
5114		13.671875
5115		11.718750
5116		13.671875
5117		9.765625
5118		13.671875
5119		11.718750
5120		13.671875
5121		11.718750
5122		13.671875
5123		11.718750
5124		15.625000
5125		11.718750
5126		13.671875
5127		11.718750
5128		15.625000
5129		11.718750
5130		13.671875
5131		11.718750
5132		13.671875
5133		11.718750
5134		15.625000
5135		11.718750
5136		13.671875
5137		11.718750
5138		15.625000
5139		11.718750
5140		15.625000
5141		11.718750
5142		15.625000
5143		11.718750
5144		15.625000
5145		13.671875
5146		15.625000
5147		11.718750
5148		15.625000
5149		11.718750
5150		15.625000
5151		11.718750
5152		15.625000
5153		11.718750
5154		15.625000
5155		11.718750
5156		15.625000
5157		13.671875
5158		15.625000
5159		11.718750
5160		15.625000
5161		11.718750
5162		15.625000
5163		13.671875
5164		15.625000
5165		11.718750
5166		15.625000
5167		11.718750
5168		15.625000
5169		11.718750
5170		15.625000
5171		11.718750
5172		15.625000
5173		11.718750
5174		15.625000
5175		11.718750
5176		15.625000
5177		11.718750
5178		15.625000
5179		13.671875
5180		15.625000
5181		11.718750
5182		15.625000
5183		11.718750
5184		15.625000
5185		11.718750
5186		17.578125
5187		11.718750
5188		15.625000
5189		11.718750
5190		15.625000
5191		11.718750
5192		15.625000
5193		11.718750
5194		15.625000
5195		11.718750
5196		15.625000
5197		9.765625
5198		17.578125
5199		11.718750
5200		15.625000
5201		9.765625
5202		15.625000
5203		11.718750
5204		15.625000
5205		9.765625
5206		17.578125
5207		11.718750
5208		13.671875
5209		11.718750
5210		15.625000
5211		11.718750
5212		15.625000
5213		9.765625
5214		15.625000
5215		11.718750
5216		15.625000
5217		11.718750
5218		15.625000
5219		9.765625
5220		17.578125
5221		9.765625
5222		17.578125
5223		9.765625
5224		15.625000
5225		11.718750
5226		13.671875
5227		9.765625
5228		15.625000
5229		9.765625
5230		15.625000
5231		9.765625
5232		15.625000
5233		11.718750
5234		13.671875
5235		9.765625
5236		15.625000
5237		9.765625
5238		13.671875
5239		9.765625
5240		15.625000
5241		9.765625
5242		13.671875
5243		9.765625
5244		13.671875
5245		7.812500
5246		15.625000
5247		7.812500
5248		13.671875
5249		9.765625
5250		13.671875
5251		7.812500
5252		13.671875
5253		9.765625
5254		11.718750
5255		7.812500
5256		13.671875
5257		9.765625
5258		11.718750
5259		9.765625
5260		11.718750
5261		7.812500
5262		13.671875
5263		5.859375
5264		15.625000
5265		7.812500
5266		13.671875
5267		7.812500
5268		11.718750
5269		5.859375
5270		13.671875
5271		7.812500
5272		11.718750
5273		3.906250
5274		13.671875
5275		7.812500
5276		9.765625
5277		5.859375
5278		11.718750
5279		5.859375
5280		11.718750
5281		5.859375
5282		11.718750
5283		5.859375
5284		9.765625
5285		5.859375
5286		11.718750
5287		3.906250
5288		13.671875
5289		3.906250
5290		11.718750
5291		5.859375
5292		9.765625
5293		5.859375
5294		7.812500
5295		3.906250
5296		9.765625
5297		3.906250
5298		11.718750
5299		3.906250
5300		9.765625
5301		3.906250
5302		7.812500
5303		1.953125
5304		9.765625
5305		1.953125
5306		9.765625
5307		3.906250
5308		7.812500
5309		3.906250
5310		7.812500
5311		1.953125
5312		7.812500
5313		0.000000
5314		9.765625
5315		1.953125
5316		7.812500
5317		3.906250
5318		7.812500
5319		0.000000
5320		9.765625
5321		0.000000
5322		7.812500
5323		0.000000
5324		9.765625
5325		1.953125
5326		5.859375
5327		1.953125
5328		5.859375
5329		0.000000
5330		7.812500
5331		0.000000
5332		7.812500
5333		1.953125
5334		5.859375
5335		1.953125
5336		3.906250
5337		-1.953125
5338		7.812500
5339		-1.953125
5340		5.859375
5341		1.953125
5342		3.906250
5343		0.000000
5344		3.906250
5345		0.000000
5346		3.906250
5347		-3.906250
5348		5.859375
5349		-1.953125
5350		5.859375
5351		0.000000
5352		1.953125
5353		-3.906250
5354		5.859375
5355		-1.953125
5356		1.953125
5357		-3.906250
5358		5.859375
5359		0.000000
5360		1.953125
5361		-1.953125
5362		1.953125
5363		-3.906250
5364		3.906250
5365		-1.953125
5366		3.906250
5367		-3.906250
5368		1.953125
5369		-3.906250
5370		1.953125
5371		-5.859375
5372		3.906250
5373		-5.859375
5374		1.953125
5375		-3.906250
5376		0.000000
5377		-3.906250
5378		0.000000
5379		-3.906250
5380		0.000000
5381		-5.859375
5382		1.953125
5383		-5.859375
5384		0.000000
5385		-5.859375
5386		0.000000
5387		-7.812500
5388		1.953125
5389		-5.859375
5390		0.000000
5391		-3.906250
5392		-1.953125
5393		-5.859375
5394		-1.953125
5395		-5.859375
5396		-1.953125
5397		-7.812500
5398		0.000000
5399		-7.812500
5400		-1.953125
5401		-5.859375
5402		-3.906250
5403		-9.765625
5404		0.000000
5405		-9.765625
5406		0.000000
5407		-9.765625
5408		-1.953125
5409		-7.812500
5410		-3.906250
5411		-7.812500
5412		-3.906250
5413		-9.765625
5414		-1.953125
5415		-9.765625
5416		-1.953125
5417		-7.812500
5418		-3.906250
5419		-7.812500
5420		-3.906250
5421		-9.765625
5422		-1.953125
5423		-11.718750
5424		-3.906250
5425		-7.812500
5426		-5.859375
5427		-9.765625
5428		-5.859375
5429		-9.765625
5430		-5.859375
5431		-11.718750
5432		-3.906250
5433		-9.765625
5434		-3.906250
5435		-11.718750
5436		-5.859375
5437		-11.718750
5438		-3.906250
5439		-11.718750
5440		-5.859375
5441		-11.718750
5442		-3.906250
5443		-9.765625
5444		-7.812500
5445		-11.718750
5446		-7.812500
5447		-13.671875
5448		-5.859375
5449		-11.718750
5450		-5.859375
5451		-11.718750
5452		-7.812500
5453		-13.671875
5454		-7.812500
5455		-11.718750
5456		-9.765625
5457		-13.671875
5458		-7.812500
5459		-11.718750
5460		-9.765625
5461		-11.718750
5462		-9.765625
5463		-13.671875
5464		-9.765625
5465		-15.625000
5466		-7.812500
5467		-13.671875
5468		-7.812500
5469		-13.671875
5470		-9.765625
5471		-13.671875
5472		-9.765625
5473		-13.671875
5474		-9.765625
5475		-13.671875
5476		-9.765625
5477		-13.671875
5478		-11.718750
5479		-13.671875
5480		-9.765625
5481		-13.671875
5482		-9.765625
5483		-15.625000
5484		-7.812500
5485		-13.671875
5486		-11.718750
5487		-15.625000
5488		-9.765625
5489		-15.625000
5490		-11.718750
5491		-13.671875
5492		-11.718750
5493		-15.625000
5494		-11.718750
5495		-13.671875
5496		-11.718750
5497		-15.625000
5498		-9.765625
5499		-13.671875
5500		-11.718750
5501		-15.625000
5502		-11.718750
5503		-15.625000
5504		-11.718750
5505		-15.625000
5506		-11.718750
5507		-15.625000
5508		-11.718750
5509		-15.625000
5510		-11.718750
5511		-15.625000
5512		-11.718750
5513		-15.625000
5514		-11.718750
5515		-15.625000
5516		-13.671875
5517		-15.625000
5518		-11.718750
5519		-15.625000
5520		-11.718750
5521		-15.625000
5522		-13.671875
5523		-15.625000
5524		-11.718750
5525		-15.625000
5526		-11.718750
5527		-15.625000
5528		-13.671875
5529		-15.625000
5530		-11.718750
5531		-17.578125
5532		-11.718750
5533		-17.578125
5534		-11.718750
5535		-17.578125
5536		-11.718750
5537		-15.625000
5538		-11.718750
5539		-17.578125
5540		-11.718750
5541		-17.578125
5542		-11.718750
5543		-15.625000
5544		-13.671875
5545		-15.625000
5546		-11.718750
5547		-15.625000
5548		-11.718750
5549		-15.625000
5550		-11.718750
5551		-17.578125
5552		-11.718750
5553		-15.625000
5554		-11.718750
5555		-15.625000
5556		-11.718750
5557		-17.578125
5558		-11.718750
5559		-15.625000
5560		-11.718750
5561		-15.625000
5562		-13.671875
5563		-15.625000
5564		-11.718750
5565		-15.625000
5566		-9.765625
5567		-15.625000
5568		-11.718750
5569		-17.578125
5570		-11.718750
5571		-15.625000
5572		-11.718750
5573		-15.625000
5574		-11.718750
5575		-15.625000
5576		-11.718750
5577		-15.625000
5578		-11.718750
5579		-15.625000
5580		-11.718750
5581		-15.625000
5582		-9.765625
5583		-15.625000
5584		-11.718750
5585		-15.625000
5586		-9.765625
5587		-15.625000
5588		-9.765625
5589		-15.625000
5590		-9.765625
5591		-15.625000
5592		-9.765625
5593		-13.671875
5594		-11.718750
5595		-13.671875
5596		-11.718750
5597		-13.671875
5598		-11.718750
5599		-13.671875
5600		-9.765625
5601		-13.671875
5602		-9.765625
5603		-15.625000
5604		-9.765625
5605		-13.671875
5606		-9.765625
5607		-13.671875
5608		-9.765625
5609		-13.671875
5610		-9.765625
5611		-11.718750
5612		-9.765625
5613		-13.671875
5614		-9.765625
5615		-13.671875
5616		-9.765625
5617		-13.671875
5618		-9.765625
5619		-13.671875
5620		-7.812500
5621		-13.671875
5622		-7.812500
5623		-13.671875
5624		-7.812500
5625		-13.671875
5626		-7.812500
5627		-11.718750
5628		-9.765625
5629		-11.718750
5630		-7.812500
5631		-11.718750
5632		-7.812500
5633		-11.718750
5634		-7.812500
5635		-11.718750
5636		-7.812500
5637		-13.671875
5638		-5.859375
5639		-11.718750
5640		-7.812500
5641		-11.718750
5642		-5.859375
5643		-11.718750
5644		-5.859375
5645		-9.765625
5646		-5.859375
5647		-9.765625
5648		-5.859375
5649		-9.765625
5650		-5.859375
5651		-9.765625
5652		-5.859375
5653		-11.718750
5654		-3.906250
5655		-9.765625
5656		-5.859375
5657		-9.765625
5658		-5.859375
5659		-9.765625
5660		-5.859375
5661		-7.812500
5662		-5.859375
5663		-9.765625
5664		-3.906250
5665		-9.765625
5666		-3.906250
5667		-7.812500
5668		-3.906250
5669		-9.765625
5670		-1.953125
5671		-9.765625
5672		-3.906250
5673		-7.812500
5674		-3.906250
5675		-7.812500
5676		-1.953125
5677		-5.859375
5678		-3.906250
5679		-5.859375
5680		-3.906250
5681		-5.859375
5682		-1.953125
5683		-5.859375
5684		-1.953125
5685		-5.859375
5686		-1.953125
5687		-7.812500
5688		0.000000
5689		-5.859375
5690		-1.953125
5691		-5.859375
5692		-1.953125
5693		-5.859375
5694		-1.953125
5695		-3.906250
5696		-1.953125
5697		-5.859375
5698		0.000000
5699		-3.906250
5700		0.000000
5701		-3.906250
5702		0.000000
5703		-3.906250
5704		0.000000
5705		-3.906250
5706		0.000000
5707		-3.906250
5708		0.000000
5709		-3.906250
5710		1.953125
5711		-1.953125
5712		0.000000
5713		-1.953125
5714		0.000000
5715		-1.953125
5716		1.953125
5717		-1.953125
5718		1.953125
5719		-1.953125
5720		1.953125
5721		-1.953125
5722		3.906250
5723		0.000000
5724		1.953125
5725		-1.953125
5726		1.953125
5727		0.000000
5728		1.953125
5729		0.000000
5730		3.906250
5731		-1.953125
5732		3.906250
5733		0.000000
5734		3.906250
5735		0.000000
5736		3.906250
5737		0.000000
5738		5.859375
5739		0.000000
5740		3.906250
5741		1.953125
5742		5.859375
5743		1.953125
5744		5.859375
5745		1.953125
5746		5.859375
5747		1.953125
5748		5.859375
5749		1.953125
5750		5.859375
5751		1.953125
5752		5.859375
5753		1.953125
5754		5.859375
5755		3.906250
5756		5.859375
5757		3.906250
5758		7.812500
5759		3.906250
5760		7.812500
5761		3.906250
5762		5.859375
5763		3.906250
5764		7.812500
5765		3.906250
5766		7.812500
5767		5.859375
5768		7.812500
5769		3.906250
5770		7.812500
5771		3.906250
5772		9.765625
5773		5.859375
5774		7.812500
5775		5.859375
5776		9.765625
5777		5.859375
5778		9.765625
5779		5.859375
5780		7.812500
5781		5.859375
5782		9.765625
5783		5.859375
5784		9.765625
5785		5.859375
5786		9.765625
5787		5.859375
5788		9.765625
5789		7.812500
5790		9.765625
5791		7.812500
5792		11.718750
5793		7.812500
5794		11.718750
5795		7.812500
5796		9.765625
5797		7.812500
5798		11.718750
5799		7.812500
5800		11.718750
5801		7.812500
5802		11.718750
5803		7.812500
5804		11.718750
5805		7.812500
5806		11.718750
5807		7.812500
5808		11.718750
5809		9.765625
5810		11.718750
5811		9.765625
5812		11.718750
5813		7.812500
5814		13.671875
5815		9.765625
5816		13.671875
5817		9.765625
5818		13.671875
5819		9.765625
5820		13.671875
5821		9.765625
5822		13.671875
5823		9.765625
5824		13.671875
5825		9.765625
5826		13.671875
5827		9.765625
5828		13.671875
5829		11.718750
5830		13.671875
5831		11.718750
5832		13.671875
5833		9.765625
5834		13.671875
5835		11.718750
5836		15.625000
5837		11.718750
5838		13.671875
5839		11.718750
5840		15.625000
5841		11.718750
5842		13.671875
5843		11.718750
5844		15.625000
5845		11.718750
5846		15.625000
5847		11.718750
5848		15.625000
5849		11.718750
5850		15.625000
5851		11.718750
5852		15.625000
5853		11.718750
5854		15.625000
5855		11.718750
5856		15.625000
5857		11.718750
5858		15.625000
5859		11.718750
5860		15.625000
5861		11.718750
5862		15.625000
5863		11.718750
5864		15.625000
5865		11.718750
5866		15.625000
5867		13.671875
5868		15.625000
5869		13.671875
5870		15.625000
5871		11.718750
5872		15.625000
5873		13.671875
5874		15.625000
5875		13.671875
5876		15.625000
5877		11.718750
5878		17.578125
5879		13.671875
5880		15.625000
5881		11.718750
5882		17.578125
5883		11.718750
5884		17.578125
5885		13.671875
5886		17.578125
5887		13.671875
5888		15.625000
5889		13.671875
5890		15.625000
5891		11.718750
5892		15.625000
5893		13.671875
5894		15.625000
5895		11.718750
5896		15.625000
5897		11.718750
5898		17.578125
5899		13.671875
5900		15.625000
5901		13.671875
5902		15.625000
5903		13.671875
5904		17.578125
5905		13.671875
5906		15.625000
5907		13.671875
5908		15.625000
5909		13.671875
5910		15.625000
5911		11.718750
5912		17.578125
5913		13.671875
5914		15.625000
5915		13.671875
5916		15.625000
5917		11.718750
5918		17.578125
5919		13.671875
5920		17.578125
5921		13.671875
5922		15.625000
5923		13.671875
5924		15.625000
5925		11.718750
5926		15.625000
5927		13.671875
5928		15.625000
5929		13.671875
5930		17.578125
5931		13.671875
5932		15.625000
5933		11.718750
5934		15.625000
5935		11.718750
5936		15.625000
5937		11.718750
5938		15.625000
5939		13.671875
5940		15.625000
5941		11.718750
5942		15.625000
5943		11.718750
5944		15.625000
5945		11.718750
5946		15.625000
5947		11.718750
5948		15.625000
5949		11.718750
5950		15.625000
5951		11.718750
5952		15.625000
5953		11.718750
5954		15.625000
5955		9.765625
5956		15.625000
5957		11.718750
5958		15.625000
5959		11.718750
5960		15.625000
5961		9.765625
5962		15.625000
5963		11.718750
5964		13.671875
5965		9.765625
5966		13.671875
5967		9.765625
5968		15.625000
5969		9.765625
5970		13.671875
5971		11.718750
5972		13.671875
5973		9.765625
5974		13.671875
5975		9.765625
5976		13.671875
5977		9.765625
5978		13.671875
5979		9.765625
5980		13.671875
5981		9.765625
5982		11.718750
5983		9.765625
5984		13.671875
5985		9.765625
5986		11.718750
5987		9.765625
5988		13.671875
5989		9.765625
5990		13.671875
5991		9.765625
5992		13.671875
5993		7.812500
5994		11.718750
5995		7.812500
5996		11.718750
5997		9.765625
5998		11.718750
5999		7.812500
6000		11.718750
6001		7.812500
6002		11.718750
6003		7.812500
6004		11.718750
6005		7.812500
6006		11.718750
6007		7.812500
6008		11.718750
6009		7.812500
6010		11.718750
6011		5.859375
6012		11.718750
6013		7.812500
6014		9.765625
6015		7.812500
6016		9.765625
6017		5.859375
6018		11.718750
6019		5.859375
6020		9.765625
6021		5.859375
6022		9.765625
6023		5.859375
6024		9.765625
6025		5.859375
6026		9.765625
6027		5.859375
6028		9.765625
6029		3.906250
6030		9.765625
6031		5.859375
6032		9.765625
6033		5.859375
6034		7.812500
6035		3.906250
6036		7.812500
6037		3.906250
6038		7.812500
6039		3.906250
6040		7.812500
6041		3.906250
6042		7.812500
6043		3.906250
6044		7.812500
6045		3.906250
6046		7.812500
6047		3.906250
6048		5.859375
6049		1.953125
6050		7.812500
6051		3.906250
6052		5.859375
6053		3.906250
6054		5.859375
6055		1.953125
6056		7.812500
6057		3.906250
6058		5.859375
6059		1.953125
6060		5.859375
6061		1.953125
6062		5.859375
6063		1.953125
6064		5.859375
6065		1.953125
6066		5.859375
6067		0.000000
6068		3.906250
6069		1.953125
6070		3.906250
6071		1.953125
6072		3.906250
6073		0.000000
6074		3.906250
6075		0.000000
6076		3.906250
6077		0.000000
6078		3.906250
6079		0.000000
6080		3.906250
6081		0.000000
6082		3.906250
6083		0.000000
6084		3.906250
6085		-1.953125
6086		3.906250
6087		-1.953125
6088		3.906250
6089		0.000000
6090		1.953125
6091		-1.953125
6092		1.953125
6093		-1.953125
6094		1.953125
6095		-1.953125
6096		1.953125
6097		-1.953125
6098		1.953125
6099		-1.953125
6100		1.953125
6101		-3.906250
6102		1.953125
6103		-1.953125
6104		0.000000
6105		-1.953125
6106		0.000000
6107		-3.906250
6108		1.953125
6109		-3.906250
6110		0.000000
6111		-3.906250
6112		0.000000
6113		-3.906250
6114		0.000000
6115		-3.906250
6116		-1.953125
6117		-3.906250
6118		0.000000
6119		-3.906250
6120		0.000000
6121		-3.906250
6122		0.000000
6123		-5.859375
6124		0.000000
6125		-5.859375
6126		-1.953125
6127		-5.859375
6128		-1.953125
6129		-5.859375
6130		-1.953125
6131		-5.859375
6132		-1.953125
6133		-5.859375
6134		-1.953125
6135		-5.859375
6136		-1.953125
6137		-5.859375
6138		-1.953125
6139		-5.859375
6140		-3.906250
6141		-5.859375
6142		-3.906250
6143		-7.812500
6144		-3.906250
6145		-7.812500
6146		-3.906250
6147		-5.859375
6148		-3.906250
6149		-7.812500
6150		-3.906250
6151		-7.812500
6152		-3.906250
6153		-7.812500
6154		-3.906250
6155		-7.812500
6156		-3.906250
6157		-7.812500
6158		-5.859375
6159		-9.765625
6160		-5.859375
6161		-9.765625
6162		-3.906250
6163		-9.765625
6164		-5.859375
6165		-9.765625
6166		-5.859375
6167		-9.765625
6168		-5.859375
6169		-9.765625
6170		-5.859375
6171		-9.765625
6172		-5.859375
6173		-9.765625
6174		-5.859375
6175		-9.765625
6176		-7.812500
6177		-9.765625
6178		-7.812500
6179		-9.765625
6180		-7.812500
6181		-11.718750
6182		-7.812500
6183		-9.765625
6184		-7.812500
6185		-11.718750
6186		-7.812500
6187		-11.718750
6188		-7.812500
6189		-11.718750
6190		-7.812500
6191		-11.718750
6192		-7.812500
6193		-11.718750
6194		-7.812500
6195		-11.718750
6196		-7.812500
6197		-11.718750
6198		-7.812500
6199		-11.718750
6200		-9.765625
6201		-11.718750
6202		-7.812500
6203		-11.718750
6204		-7.812500
6205		-11.718750
6206		-9.765625
6207		-13.671875
6208		-7.812500
6209		-13.671875
6210		-9.765625
6211		-13.671875
6212		-9.765625
6213		-13.671875
6214		-7.812500
6215		-13.671875
6216		-9.765625
6217		-13.671875
6218		-9.765625
6219		-13.671875
6220		-9.765625
6221		-13.671875
6222		-9.765625
6223		-13.671875
6224		-9.765625
6225		-13.671875
6226		-9.765625
6227		-13.671875
6228		-9.765625
6229		-13.671875
6230		-9.765625
6231		-13.671875
6232		-9.765625
6233		-13.671875
6234		-9.765625
6235		-13.671875
6236		-9.765625
6237		-13.671875
6238		-9.765625
6239		-13.671875
6240		-11.718750
6241		-13.671875
6242		-9.765625
6243		-13.671875
6244		-11.718750
6245		-13.671875
6246		-9.765625
6247		-15.625000
6248		-11.718750
6249		-13.671875
6250		-11.718750
6251		-13.671875
6252		-11.718750
6253		-13.671875
6254		-9.765625
6255		-15.625000
6256		-11.718750
6257		-15.625000
6258		-11.718750
6259		-15.625000
6260		-11.718750
6261		-15.625000
6262		-11.718750
6263		-15.625000
6264		-11.718750
6265		-15.625000
6266		-11.718750
6267		-15.625000
6268		-9.765625
6269		-15.625000
6270		-11.718750
6271		-15.625000
6272		-11.718750
6273		-15.625000
6274		-11.718750
6275		-15.625000
6276		-11.718750
6277		-15.625000
6278		-11.718750
6279		-15.625000
6280		-11.718750
6281		-13.671875
6282		-11.718750
6283		-13.671875
6284		-11.718750
6285		-15.625000
6286		-11.718750
6287		-15.625000
6288		-11.718750
6289		-15.625000
6290		-11.718750
6291		-15.625000
6292		-11.718750
6293		-15.625000
6294		-11.718750
6295		-15.625000
6296		-11.718750
6297		-13.671875
6298		-11.718750
6299		-15.625000
6300		-11.718750
6301		-15.625000
6302		-11.718750
6303		-15.625000
6304		-11.718750
6305		-15.625000
6306		-11.718750
6307		-13.671875
6308		-11.718750
6309		-13.671875
6310		-11.718750
6311		-15.625000
6312		-9.765625
6313		-13.671875
6314		-11.718750
6315		-15.625000
6316		-9.765625
6317		-13.671875
6318		-11.718750
6319		-13.671875
6320		-11.718750
6321		-13.671875
6322		-9.765625
6323		-13.671875
6324		-9.765625
6325		-13.671875
6326		-9.765625
6327		-13.671875
6328		-9.765625
6329		-13.671875
6330		-9.765625
6331		-13.671875
6332		-9.765625
6333		-13.671875
6334		-9.765625
6335		-13.671875
6336		-9.765625
6337		-13.671875
6338		-9.765625
6339		-13.671875
6340		-9.765625
6341		-13.671875
6342		-9.765625
6343		-13.671875
6344		-9.765625
6345		-13.671875
6346		-9.765625
6347		-13.671875
6348		-9.765625
6349		-11.718750
6350		-7.812500
6351		-11.718750
6352		-9.765625
6353		-11.718750
6354		-7.812500
6355		-11.718750
6356		-7.812500
6357		-11.718750
6358		-7.812500
6359		-11.718750
6360		-7.812500
6361		-11.718750
6362		-7.812500
6363		-11.718750
6364		-7.812500
6365		-11.718750
6366		-7.812500
6367		-9.765625
6368		-7.812500
6369		-9.765625
6370		-7.812500
6371		-11.718750
6372		-7.812500
6373		-9.765625
6374		-7.812500
6375		-9.765625
6376		-7.812500
6377		-9.765625
6378		-7.812500
6379		-9.765625
6380		-7.812500
6381		-11.718750
6382		-5.859375
6383		-9.765625
6384		-5.859375
6385		-9.765625
6386		-5.859375
6387		-9.765625
6388		-5.859375
6389		-9.765625
6390		-5.859375
6391		-9.765625
6392		-5.859375
6393		-7.812500
6394		-3.906250
6395		-7.812500
6396		-5.859375
6397		-7.812500
6398		-3.906250
6399		-7.812500
6400		-3.906250
6401		-7.812500
6402		-3.906250
6403		-7.812500
6404		-3.906250
6405		-7.812500
6406		-3.906250
6407		-7.812500
6408		-3.906250
6409		-5.859375
6410		-3.906250
6411		-5.859375
6412		-3.906250
6413		-5.859375
6414		-1.953125
6415		-5.859375
6416		-1.953125
6417		-5.859375
6418		-1.953125
6419		-5.859375
6420		-1.953125
6421		-5.859375
6422		-1.953125
6423		-5.859375
6424		-1.953125
6425		-3.906250
6426		-1.953125
6427		-3.906250
6428		-1.953125
6429		-3.906250
6430		0.000000
6431		-3.906250
6432		0.000000
6433		-3.906250
6434		0.000000
6435		-3.906250
6436		0.000000
6437		-3.906250
6438		0.000000
6439		-1.953125
6440		0.000000
6441		-1.953125
6442		1.953125
6443		-1.953125
6444		0.000000
6445		-1.953125
6446		1.953125
6447		-1.953125
6448		1.953125
6449		-1.953125
6450		1.953125
6451		-1.953125
6452		1.953125
6453		-1.953125
6454		1.953125
6455		-1.953125
6456		3.906250
6457		0.000000
6458		1.953125
6459		0.000000
6460		1.953125
6461		-1.953125
6462		3.906250
6463		0.000000
6464		3.906250
6465		0.000000
6466		3.906250
6467		0.000000
6468		3.906250
6469		1.953125
6470		3.906250
6471		0.000000
6472		3.906250
6473		0.000000
6474		3.906250
6475		0.000000
6476		5.859375
6477		1.953125
6478		5.859375
6479		1.953125
6480		5.859375
6481		1.953125
6482		5.859375
6483		1.953125
6484		5.859375
6485		1.953125
6486		5.859375
6487		1.953125
6488		5.859375
6489		1.953125
6490		5.859375
6491		3.906250
6492		7.812500
6493		3.906250
6494		7.812500
6495		3.906250
6496		7.812500
6497		3.906250
6498		7.812500
6499		3.906250
6500		7.812500
6501		3.906250
6502		7.812500
6503		5.859375
6504		7.812500
6505		3.906250
6506		7.812500
6507		5.859375
6508		7.812500
6509		5.859375
6510		9.765625
6511		5.859375
6512		7.812500
6513		5.859375
6514		9.765625
6515		5.859375
6516		9.765625
6517		5.859375
6518		9.765625
6519		5.859375
6520		9.765625
6521		5.859375
6522		9.765625
6523		5.859375
6524		11.718750
6525		7.812500
6526		9.765625
6527		7.812500
6528		9.765625
6529		7.812500
6530		11.718750
6531		7.812500
6532		11.718750
6533		7.812500
6534		11.718750
6535		7.812500
6536		11.718750
6537		9.765625
6538		11.718750
6539		7.812500
6540		11.718750
6541		7.812500
6542		13.671875
6543		7.812500
6544		11.718750
6545		7.812500
6546		11.718750
6547		9.765625
6548		11.718750
6549		9.765625
6550		13.671875
6551		9.765625
6552		11.718750
6553		9.765625
6554		13.671875
6555		9.765625
6556		13.671875
6557		9.765625
6558		13.671875
6559		9.765625
6560		13.671875
6561		9.765625
6562		13.671875
6563		11.718750
6564		13.671875
6565		9.765625
6566		15.625000
6567		11.718750
6568		15.625000
6569		11.718750
6570		13.671875
6571		9.765625
6572		15.625000
6573		11.718750
6574		13.671875
6575		11.718750
6576		15.625000
6577		11.718750
6578		15.625000
6579		11.718750
6580		15.625000
6581		11.718750
6582		15.625000
6583		11.718750
6584		15.625000
6585		11.718750
6586		15.625000
6587		11.718750
6588		15.625000
6589		11.718750
6590		15.625000
6591		11.718750
6592		15.625000
6593		11.718750
6594		15.625000
6595		13.671875
6596		15.625000
6597		13.671875
6598		15.625000
6599		11.718750
6600		15.625000
6601		11.718750
6602		17.578125
6603		11.718750
6604		17.578125
6605		13.671875
6606		15.625000
6607		13.671875
6608		17.578125
6609		11.718750
6610		17.578125
6611		13.671875
6612		17.578125
6613		11.718750
6614		17.578125
6615		13.671875
6616		17.578125
6617		13.671875
6618		17.578125
6619		13.671875
6620		15.625000
6621		13.671875
6622		15.625000
6623		11.718750
6624		17.578125
6625		13.671875
6626		17.578125
6627		13.671875
6628		17.578125
6629		13.671875
6630		17.578125
6631		13.671875
6632		17.578125
6633		13.671875
6634		17.578125
6635		13.671875
6636		17.578125
6637		13.671875
6638		17.578125
6639		13.671875
6640		17.578125
6641		13.671875
6642		17.578125
6643		13.671875
6644		17.578125
6645		13.671875
6646		17.578125
6647		13.671875
6648		17.578125
6649		13.671875
6650		17.578125
6651		13.671875
6652		17.578125
6653		13.671875
6654		17.578125
6655		13.671875
6656		17.578125
6657		11.718750
6658		17.578125
6659		13.671875
6660		17.578125
6661		13.671875
6662		17.578125
6663		13.671875
6664		17.578125
6665		13.671875
6666		17.578125
6667		11.718750
6668		17.578125
6669		13.671875
6670		15.625000
6671		13.671875
6672		15.625000
6673		13.671875
6674		17.578125
6675		11.718750
6676		17.578125
6677		11.718750
6678		17.578125
6679		13.671875
6680		15.625000
6681		11.718750
6682		15.625000
6683		11.718750
6684		17.578125
6685		13.671875
6686		15.625000
6687		11.718750
6688		15.625000
6689		11.718750
6690		15.625000
6691		11.718750
6692		15.625000
6693		11.718750
6694		15.625000
6695		11.718750
6696		15.625000
6697		11.718750
6698		15.625000
6699		11.718750
6700		15.625000
6701		9.765625
6702		15.625000
6703		11.718750
6704		13.671875
6705		11.718750
6706		13.671875
6707		11.718750
6708		15.625000
6709		11.718750
6710		13.671875
6711		11.718750
6712		13.671875
6713		9.765625
6714		15.625000
6715		11.718750
6716		13.671875
6717		9.765625
6718		13.671875
6719		9.765625
6720		13.671875
6721		11.718750
6722		13.671875
6723		9.765625
6724		13.671875
6725		9.765625
6726		13.671875
6727		9.765625
6728		13.671875
6729		7.812500
6730		13.671875
6731		9.765625
6732		13.671875
6733		9.765625
6734		11.718750
6735		7.812500
6736		13.671875
6737		9.765625
6738		11.718750
6739		9.765625
6740		11.718750
6741		9.765625
6742		11.718750
6743		7.812500
6744		11.718750
6745		7.812500
6746		11.718750
6747		7.812500
6748		11.718750
6749		7.812500
6750		13.671875
6751		7.812500
6752		11.718750
6753		7.812500
6754		9.765625
6755		7.812500
6756		11.718750
6757		7.812500
6758		9.765625
6759		5.859375
6760		9.765625
6761		5.859375
6762		9.765625
6763		5.859375
6764		9.765625
6765		5.859375
6766		9.765625
6767		5.859375
6768		9.765625
6769		5.859375
6770		9.765625
6771		5.859375
6772		7.812500
6773		5.859375
6774		7.812500
6775		3.906250
6776		9.765625
6777		5.859375
6778		7.812500
6779		3.906250
6780		7.812500
6781		3.906250
6782		7.812500
6783		3.906250
6784		7.812500
6785		3.906250
6786		7.812500
6787		3.906250
6788		5.859375
6789		3.906250
6790		5.859375
6791		1.953125
6792		7.812500
6793		1.953125
6794		5.859375
6795		3.906250
6796		5.859375
6797		1.953125
6798		7.812500
6799		1.953125
6800		5.859375
6801		1.953125
6802		5.859375
6803		0.000000
6804		5.859375
6805		1.953125
6806		3.906250
6807		1.953125
6808		5.859375
6809		0.000000
6810		3.906250
6811		0.000000
6812		3.906250
6813		0.000000
6814		3.906250
6815		0.000000
6816		3.906250
6817		0.000000
6818		3.906250
6819		0.000000
6820		3.906250
6821		0.000000
6822		1.953125
6823		0.000000
6824		1.953125
6825		0.000000
6826		3.906250
6827		-1.953125
6828		1.953125
6829		-1.953125
6830		1.953125
6831		-1.953125
6832		1.953125
6833		-1.953125
6834		1.953125
6835		-1.953125
6836		1.953125
6837		-1.953125
6838		0.000000
6839		-3.906250
6840		0.000000
6841		-3.906250
6842		0.000000
6843		-3.906250
6844		0.000000
6845		-3.906250
6846		0.000000
6847		-3.906250
6848		0.000000
6849		-3.906250
6850		0.000000
6851		-3.906250
6852		0.000000
6853		-3.906250
6854		-1.953125
6855		-5.859375
6856		-1.953125
6857		-5.859375
6858		-1.953125
6859		-5.859375
6860		-1.953125
6861		-5.859375
6862		-1.953125
6863		-5.859375
6864		-1.953125
6865		-5.859375
6866		-1.953125
6867		-5.859375
6868		-1.953125
6869		-5.859375
6870		-1.953125
6871		-7.812500
6872		-3.906250
6873		-5.859375
6874		-3.906250
6875		-7.812500
6876		-3.906250
6877		-7.812500
6878		-3.906250
6879		-7.812500
6880		-3.906250
6881		-7.812500
6882		-3.906250
6883		-7.812500
6884		-3.906250
6885		-7.812500
6886		-3.906250
6887		-7.812500
6888		-5.859375
6889		-9.765625
6890		-3.906250
6891		-7.812500
6892		-5.859375
6893		-7.812500
6894		-5.859375
6895		-9.765625
6896		-3.906250
6897		-9.765625
6898		-5.859375
6899		-9.765625
6900		-5.859375
6901		-9.765625
6902		-5.859375
6903		-9.765625
6904		-5.859375
6905		-9.765625
6906		-5.859375
6907		-11.718750
6908		-7.812500
6909		-9.765625
6910		-7.812500
6911		-9.765625
6912		-5.859375
6913		-9.765625
6914		-7.812500
6915		-9.765625
6916		-5.859375
6917		-11.718750
6918		-7.812500
6919		-11.718750
6920		-7.812500
6921		-11.718750
6922		-7.812500
6923		-11.718750
6924		-7.812500
6925		-11.718750
6926		-7.812500
6927		-11.718750
6928		-7.812500
6929		-11.718750
6930		-7.812500
6931		-11.718750
6932		-7.812500
6933		-11.718750
6934		-7.812500
6935		-11.718750
6936		-9.765625
6937		-11.718750
6938		-9.765625
6939		-11.718750
6940		-9.765625
6941		-13.671875
6942		-7.812500
6943		-11.718750
6944		-7.812500
6945		-13.671875
6946		-9.765625
6947		-13.671875
6948		-9.765625
6949		-11.718750
6950		-9.765625
6951		-13.671875
6952		-9.765625
6953		-13.671875
6954		-9.765625
6955		-11.718750
6956		-9.765625
6957		-13.671875
6958		-9.765625
6959		-15.625000
6960		-9.765625
6961		-13.671875
6962		-9.765625
6963		-13.671875
6964		-9.765625
6965		-13.671875
6966		-9.765625
6967		-13.671875
6968		-9.765625
6969		-13.671875
6970		-9.765625
6971		-13.671875
6972		-9.765625
6973		-13.671875
6974		-11.718750
6975		-13.671875
6976		-9.765625
6977		-13.671875
6978		-9.765625
6979		-13.671875
6980		-11.718750
6981		-13.671875
6982		-9.765625
6983		-13.671875
6984		-9.765625
6985		-13.671875
6986		-11.718750
6987		-13.671875
6988		-9.765625
6989		-13.671875
6990		-11.718750
6991		-13.671875
6992		-11.718750
6993		-15.625000
6994		-9.765625
6995		-13.671875
6996		-11.718750
6997		-13.671875
6998		-11.718750
6999		-15.625000
7000		-11.718750
7001		-13.671875
7002		-9.765625
7003		-15.625000
7004		-11.718750
7005		-13.671875
7006		-11.718750
7007		-13.671875
7008		-11.718750
7009		-15.625000
7010		-9.765625
7011		-13.671875
7012		-11.718750
7013		-13.671875
7014		-9.765625
7015		-13.671875
7016		-9.765625
7017		-13.671875
7018		-11.718750
7019		-13.671875
7020		-9.765625
7021		-15.625000
7022		-9.765625
7023		-13.671875
7024		-11.718750
7025		-13.671875
7026		-9.765625
7027		-13.671875
7028		-11.718750
7029		-13.671875
7030		-11.718750
7031		-15.625000
7032		-9.765625
7033		-13.671875
7034		-11.718750
7035		-13.671875
7036		-9.765625
7037		-13.671875
7038		-9.765625
7039		-13.671875
7040		-11.718750
7041		-13.671875
7042		-9.765625
7043		-13.671875
7044		-9.765625
7045		-13.671875
7046		-9.765625
7047		-13.671875
7048		-9.765625
7049		-13.671875
7050		-9.765625
7051		-13.671875
7052		-9.765625
7053		-13.671875
7054		-9.765625
7055		-13.671875
7056		-9.765625
7057		-13.671875
7058		-9.765625
7059		-13.671875
7060		-7.812500
7061		-13.671875
7062		-9.765625
7063		-13.671875
7064		-9.765625
7065		-13.671875
7066		-9.765625
7067		-11.718750
7068		-9.765625
7069		-13.671875
7070		-9.765625
7071		-11.718750
7072		-7.812500
7073		-11.718750
7074		-9.765625
7075		-11.718750
7076		-9.765625
7077		-11.718750
7078		-7.812500
7079		-11.718750
7080		-7.812500
7081		-11.718750
7082		-7.812500
7083		-11.718750
7084		-7.812500
7085		-11.718750
7086		-7.812500
7087		-11.718750
7088		-7.812500
7089		-11.718750
7090		-7.812500
7091		-11.718750
7092		-7.812500
7093		-11.718750
7094		-7.812500
7095		-11.718750
7096		-7.812500
7097		-9.765625
7098		-7.812500
7099		-11.718750
7100		-5.859375
7101		-9.765625
7102		-5.859375
7103		-9.765625
7104		-5.859375
7105		-9.765625
7106		-5.859375
7107		-9.765625
7108		-5.859375
7109		-9.765625
7110		-5.859375
7111		-9.765625
7112		-5.859375
7113		-7.812500
7114		-5.859375
7115		-7.812500
7116		-3.906250
7117		-7.812500
7118		-5.859375
7119		-7.812500
7120		-5.859375
7121		-7.812500
7122		-3.906250
7123		-7.812500
7124		-3.906250
7125		-7.812500
7126		-3.906250
7127		-7.812500
7128		-1.953125
7129		-5.859375
7130		-3.906250
7131		-7.812500
7132		-3.906250
7133		-7.812500
7134		-3.906250
7135		-5.859375
7136		-3.906250
7137		-5.859375
7138		-3.906250
7139		-7.812500
7140		-1.953125
7141		-5.859375
7142		-3.906250
7143		-5.859375
7144		-1.953125
7145		-5.859375
7146		-1.953125
7147		-5.859375
7148		-1.953125
7149		-3.906250
7150		-1.953125
7151		-3.906250
7152		-1.953125
7153		-5.859375
7154		0.000000
7155		-5.859375
7156		0.000000
7157		-3.906250
7158		0.000000
7159		-3.906250
7160		0.000000
7161		-3.906250
7162		0.000000
7163		-3.906250
7164		0.000000
7165		-3.906250
7166		0.000000
7167		-3.906250
7168		0.000000
7169		-1.953125
7170		0.000000
7171		-1.953125
7172		0.000000
7173		-1.953125
7174		1.953125
7175		-1.953125
7176		1.953125
7177		-1.953125
7178		1.953125
7179		-1.953125
7180		1.953125
7181		0.000000
7182		1.953125
7183		-1.953125
7184		1.953125
7185		-1.953125
7186		3.906250
7187		0.000000
7188		1.953125
7189		0.000000
7190		3.906250
7191		0.000000
7192		3.906250
7193		0.000000
7194		3.906250
7195		0.000000
7196		3.906250
7197		0.000000
7198		3.906250
7199		0.000000
7200		3.906250
7201		0.000000
7202		3.906250
7203		1.953125
7204		3.906250
7205		1.953125
7206		5.859375
7207		1.953125
7208		5.859375
7209		1.953125
7210		5.859375
7211		1.953125
7212		5.859375
7213		1.953125
7214		5.859375
7215		1.953125
7216		5.859375
7217		3.906250
7218		5.859375
7219		3.906250
7220		5.859375
7221		3.906250
7222		7.812500
7223		3.906250
7224		7.812500
7225		3.906250
7226		7.812500
7227		3.906250
7228		7.812500
7229		3.906250
7230		7.812500
7231		3.906250
7232		7.812500
7233		3.906250
7234		7.812500
7235		3.906250
7236		7.812500
7237		5.859375
7238		9.765625
7239		5.859375
7240		9.765625
7241		5.859375
7242		7.812500
7243		5.859375
7244		9.765625
7245		5.859375
7246		9.765625
7247		5.859375
7248		9.765625
7249		5.859375
7250		11.718750
7251		7.812500
7252		9.765625
7253		7.812500
7254		9.765625
7255		7.812500
7256		9.765625
7257		7.812500
7258		11.718750
7259		7.812500
7260		9.765625
7261		7.812500
7262		11.718750
7263		7.812500
7264		11.718750
7265		7.812500
7266		11.718750
7267		7.812500
7268		11.718750
7269		7.812500
7270		11.718750
7271		7.812500
7272		11.718750
7273		9.765625
7274		11.718750
7275		9.765625
7276		11.718750
7277		7.812500
7278		13.671875
7279		9.765625
7280		13.671875
7281		9.765625
7282		13.671875
7283		9.765625
7284		13.671875
7285		9.765625
7286		13.671875
7287		9.765625
7288		13.671875
7289		9.765625
7290		13.671875
7291		11.718750
7292		13.671875
7293		11.718750
7294		13.671875
7295		9.765625
7296		15.625000
7297		11.718750
7298		13.671875
7299		9.765625
7300		13.671875
7301		11.718750
7302		15.625000
7303		11.718750
7304		15.625000
7305		11.718750
7306		15.625000
7307		11.718750
7308		15.625000
7309		11.718750
7310		15.625000
7311		11.718750
7312		15.625000
7313		11.718750
7314		15.625000
7315		11.718750
7316		15.625000
7317		11.718750
7318		15.625000
7319		11.718750
7320		15.625000
7321		13.671875
7322		15.625000
7323		11.718750
7324		15.625000
7325		11.718750
7326		15.625000
7327		13.671875
7328		15.625000
7329		11.718750
7330		17.578125
7331		13.671875
7332		15.625000
7333		13.671875
7334		15.625000
7335		13.671875
7336		17.578125
7337		13.671875
7338		15.625000
7339		13.671875
7340		17.578125
7341		11.718750
7342		17.578125
7343		13.671875
7344		17.578125
7345		13.671875
7346		17.578125
7347		13.671875
7348		17.578125
7349		13.671875
7350		17.578125
7351		13.671875
7352		17.578125
7353		13.671875
7354		17.578125
7355		13.671875
7356		17.578125
7357		13.671875
7358		17.578125
7359		13.671875
7360		17.578125
7361		13.671875
7362		17.578125
7363		13.671875
7364		17.578125
7365		13.671875
7366		17.578125
7367		13.671875
7368		17.578125
7369		13.671875
7370		17.578125
7371		13.671875
7372		17.578125
7373		13.671875
7374		17.578125
7375		13.671875
7376		17.578125
7377		13.671875
7378		17.578125
7379		13.671875
7380		17.578125
7381		13.671875
7382		17.578125
7383		13.671875
7384		17.578125
7385		13.671875
7386		17.578125
7387		13.671875
7388		17.578125
7389		11.718750
7390		17.578125
7391		13.671875
7392		17.578125
7393		13.671875
7394		17.578125
7395		13.671875
7396		17.578125
7397		13.671875
7398		17.578125
7399		11.718750
7400		17.578125
7401		13.671875
7402		15.625000
7403		13.671875
7404		15.625000
7405		13.671875
7406		17.578125
7407		11.718750
7408		15.625000
7409		13.671875
7410		17.578125
7411		13.671875
7412		15.625000
7413		11.718750
7414		17.578125
7415		11.718750
7416		17.578125
7417		13.671875
7418		15.625000
7419		13.671875
7420		15.625000
7421		11.718750
7422		17.578125
7423		11.718750
7424		15.625000
7425		11.718750
7426		15.625000
7427		11.718750
7428		15.625000
7429		11.718750
7430		15.625000
7431		11.718750
7432		15.625000
7433		11.718750
7434		15.625000
7435		11.718750
7436		15.625000
7437		11.718750
7438		15.625000
7439		11.718750
7440		15.625000
7441		11.718750
7442		15.625000
7443		11.718750
7444		13.671875
7445		11.718750
7446		15.625000
7447		11.718750
7448		15.625000
7449		11.718750
7450		13.671875
7451		11.718750
7452		13.671875
7453		9.765625
7454		13.671875
7455		9.765625
7456		13.671875
7457		9.765625
7458		13.671875
7459		11.718750
7460		13.671875
7461		9.765625
7462		13.671875
7463		9.765625
7464		13.671875
7465		9.765625
7466		13.671875
7467		9.765625
7468		13.671875
7469		9.765625
7470		13.671875
7471		7.812500
7472		13.671875
7473		9.765625
7474		11.718750
7475		9.765625
7476		13.671875
7477		9.765625
7478		11.718750
7479		7.812500
7480		11.718750
7481		7.812500
7482		13.671875
7483		7.812500
7484		11.718750
7485		7.812500
7486		11.718750
7487		7.812500
7488		11.718750
7489		7.812500
7490		11.718750
7491		5.859375
7492		11.718750
7493		7.812500
7494		11.718750
7495		0.000000
7496		15.625000
7497		7.812500
7498		9.765625
7499		5.859375
7500		11.718750
7501		5.859375
7502		9.765625
7503		5.859375
7504		9.765625
7505		5.859375
7506		9.765625
7507		5.859375
7508		9.765625
7509		5.859375
7510		9.765625
7511		5.859375
7512		9.765625
7513		5.859375
7514		7.812500
7515		5.859375
7516		7.812500
7517		3.906250
7518		7.812500
7519		3.906250
7520		7.812500
7521		3.906250
7522		7.812500
7523		3.906250
7524		7.812500
7525		3.906250
7526		7.812500
7527		3.906250
7528		5.859375
7529		3.906250
7530		7.812500
7531		3.906250
7532		5.859375
7533		1.953125
7534		5.859375
7535		1.953125
7536		5.859375
7537		1.953125
7538		5.859375
7539		1.953125
7540		5.859375
7541		1.953125
7542		5.859375
7543		1.953125
7544		5.859375
7545		1.953125
7546		3.906250
7547		1.953125
7548		5.859375
7549		1.953125
7550		3.906250
7551		0.000000
7552		5.859375
7553		0.000000
7554		3.906250
7555		0.000000
7556		3.906250
7557		0.000000
7558		3.906250
7559		-1.953125
7560		3.906250
7561		0.000000
7562		1.953125
7563		0.000000
7564		3.906250
7565		-1.953125
7566		3.906250
7567		0.000000
7568		1.953125
7569		-1.953125
7570		1.953125
7571		-1.953125
7572		1.953125
7573		-1.953125
7574		1.953125
7575		-1.953125
7576		1.953125
7577		-1.953125
7578		1.953125
7579		-1.953125
7580		0.000000
7581		-1.953125
7582		0.000000
7583		-3.906250
7584		0.000000
7585		-3.906250
7586		0.000000
7587		-3.906250
7588		0.000000
7589		-3.906250
7590		0.000000
7591		-3.906250
7592		-1.953125
7593		-3.906250
7594		0.000000
7595		-3.906250
7596		-1.953125
7597		-5.859375
7598		-1.953125
7599		-5.859375
7600		-1.953125
7601		-5.859375
7602		-1.953125
7603		-5.859375
7604		-1.953125
7605		-5.859375
7606		-1.953125
7607		-5.859375
7608		-3.906250
7609		-5.859375
7610		-1.953125
7611		-5.859375
7612		-1.953125
7613		-7.812500
7614		-3.906250
7615		-7.812500
7616		-1.953125
7617		-7.812500
7618		-3.906250
7619		-7.812500
7620		-3.906250
7621		-9.765625
7622		-3.906250
7623		-7.812500
7624		-3.906250
7625		-7.812500
7626		-3.906250
7627		-7.812500
7628		-3.906250
7629		-7.812500
7630		-5.859375
7631		-7.812500
7632		-5.859375
7633		-9.765625
7634		-5.859375
7635		-9.765625
7636		-5.859375
7637		-9.765625
7638		-5.859375
7639		-9.765625
7640		-5.859375
7641		-9.765625
7642		-5.859375
7643		-9.765625
7644		-5.859375
7645		-9.765625
7646		-7.812500
7647		-9.765625
7648		-5.859375
7649		-9.765625
7650		-7.812500
7651		-9.765625
7652		-7.812500
7653		-11.718750
7654		-7.812500
7655		-9.765625
7656		-7.812500
7657		-11.718750
7658		-7.812500
7659		-11.718750
7660		-7.812500
7661		-11.718750
7662		-7.812500
7663		-11.718750
7664		-7.812500
7665		-11.718750
7666		-7.812500
7667		-11.718750
7668		-7.812500
7669		-11.718750
7670		-7.812500
7671		-11.718750
7672		-9.765625
7673		-11.718750
7674		-7.812500
7675		-13.671875
7676		-9.765625
7677		-11.718750
7678		-9.765625
7679		-13.671875
7680		-9.765625
7681		-13.671875
7682		-9.765625
7683		-13.671875
7684		-9.765625
7685		-13.671875
7686		-9.765625
7687		-13.671875
7688		-9.765625
7689		-13.671875
7690		-9.765625
7691		-13.671875
7692		-9.765625
7693		-13.671875
7694		-9.765625
7695		-13.671875
7696		-9.765625
7697		-13.671875
7698		-9.765625
7699		-13.671875
7700		-9.765625
7701		-13.671875
7702		-9.765625
7703		-13.671875
7704		-9.765625
7705		-13.671875
7706		-11.718750
7707		-15.625000
7708		-11.718750
7709		-15.625000
7710		-9.765625
7711		-15.625000
7712		-11.718750
7713		-13.671875
7714		-11.718750
7715		-15.625000
7716		-11.718750
7717		-15.625000
7718		-11.718750
7719		-15.625000
7720		-11.718750
7721		-15.625000
7722		-11.718750
7723		-15.625000
7724		-11.718750
7725		-15.625000
7726		-11.718750
7727		-15.625000
7728		-11.718750
7729		-15.625000
7730		-11.718750
7731		-15.625000
7732		-11.718750
7733		-15.625000
7734		-11.718750
7735		-15.625000
7736		-11.718750
7737		-15.625000
7738		-11.718750
7739		-15.625000
7740		-11.718750
7741		-15.625000
7742		-11.718750
7743		-15.625000
7744		-11.718750
7745		-15.625000
7746		-11.718750
7747		-15.625000
7748		-11.718750
7749		-15.625000
7750		-11.718750
7751		-15.625000
7752		-11.718750
7753		-15.625000
7754		-11.718750
7755		-15.625000
7756		-11.718750
7757		-15.625000
7758		-11.718750
7759		-15.625000
7760		-11.718750
7761		-15.625000
7762		-11.718750
7763		-15.625000
7764		-11.718750
7765		-13.671875
7766		-11.718750
7767		-13.671875
7768		-11.718750
7769		-15.625000
7770		-9.765625
7771		-13.671875
7772		-11.718750
7773		-13.671875
7774		-11.718750
7775		-13.671875
7776		-9.765625
7777		-15.625000
7778		-11.718750
7779		-13.671875
7780		-9.765625
7781		-13.671875
7782		-11.718750
7783		-13.671875
7784		-9.765625
7785		-13.671875
7786		-9.765625
7787		-13.671875
7788		-9.765625
7789		-13.671875
7790		-9.765625
7791		-13.671875
7792		-9.765625
7793		-13.671875
7794		-9.765625
7795		-13.671875
7796		-9.765625
7797		-13.671875
7798		-9.765625
7799		-13.671875
7800		-9.765625
7801		-13.671875
7802		-9.765625
7803		-11.718750
7804		-9.765625
7805		-13.671875
7806		-9.765625
7807		-11.718750
7808		-7.812500
7809		-11.718750
7810		-7.812500
7811		-11.718750
7812		-7.812500
7813		-11.718750
7814		-7.812500
7815		-11.718750
7816		-7.812500
7817		-11.718750
7818		-7.812500
7819		-11.718750
7820		-7.812500
7821		-11.718750
7822		-7.812500
7823		-11.718750
7824		-7.812500
7825		-11.718750
7826		-7.812500
7827		-11.718750
7828		-7.812500
7829		-9.765625
7830		-7.812500
7831		-9.765625
7832		-7.812500
7833		-11.718750
7834		-5.859375
7835		-9.765625
7836		-5.859375
7837		-9.765625
7838		-5.859375
7839		-9.765625
7840		-3.906250
7841		-9.765625
7842		-5.859375
7843		-9.765625
7844		-5.859375
7845		-9.765625
7846		-3.906250
7847		-7.812500
7848		-5.859375
7849		-7.812500
7850		-3.906250
7851		-7.812500
7852		-3.906250
7853		-7.812500
7854		-3.906250
7855		-7.812500
7856		-3.906250
7857		-7.812500
7858		-3.906250
7859		-7.812500
7860		-3.906250
7861		-7.812500
7862		-3.906250
7863		-5.859375
7864		-3.906250
7865		-5.859375
7866		-3.906250
7867		-7.812500
7868		-3.906250
7869		-5.859375
7870		-1.953125
7871		-5.859375
7872		-1.953125
7873		-5.859375
7874		-1.953125
7875		-5.859375
7876		-1.953125
7877		-5.859375
7878		-1.953125
7879		-3.906250
7880		-1.953125
7881		-5.859375
7882		-1.953125
7883		-3.906250
7884		-1.953125
7885		-3.906250
7886		0.000000
7887		-3.906250
7888		0.000000
7889		-3.906250
7890		0.000000
7891		-3.906250
7892		0.000000
7893		-3.906250
7894		0.000000
7895		-3.906250
7896		0.000000
7897		-1.953125
7898		0.000000
7899		-3.906250
7900		1.953125
7901		-1.953125
7902		1.953125
7903		-1.953125
7904		1.953125
7905		-1.953125
7906		1.953125
7907		-1.953125
7908		1.953125
7909		-1.953125
7910		1.953125
7911		-1.953125
7912		1.953125
7913		0.000000
7914		1.953125
7915		-1.953125
7916		1.953125
7917		0.000000
7918		3.906250
7919		0.000000
7920		1.953125
7921		0.000000
7922		3.906250
7923		0.000000
7924		3.906250
7925		0.000000
7926		3.906250
7927		0.000000
7928		3.906250
7929		0.000000
7930		3.906250
7931		0.000000
7932		5.859375
7933		0.000000
7934		5.859375
7935		1.953125
7936		5.859375
7937		1.953125
7938		3.906250
7939		1.953125
7940		5.859375
7941		1.953125
7942		5.859375
7943		1.953125
7944		5.859375
7945		1.953125
7946		7.812500
7947		3.906250
7948		5.859375
7949		3.906250
7950		7.812500
7951		1.953125
7952		7.812500
7953		3.906250
7954		7.812500
7955		3.906250
7956		7.812500
7957		3.906250
7958		7.812500
7959		3.906250
7960		7.812500
7961		3.906250
7962		7.812500
7963		5.859375
7964		7.812500
7965		3.906250
7966		7.812500
7967		3.906250
7968		9.765625
7969		5.859375
7970		7.812500
7971		5.859375
7972		9.765625
7973		5.859375
7974		9.765625
7975		5.859375
7976		9.765625
7977		5.859375
7978		9.765625
7979		5.859375
7980		9.765625
7981		7.812500
7982		9.765625
7983		5.859375
7984		11.718750
7985		7.812500
7986		9.765625
7987		7.812500
7988		9.765625
7989		7.812500
7990		11.718750
7991		7.812500
7992		11.718750
7993		7.812500
7994		11.718750
7995		7.812500
7996		11.718750
7997		7.812500
7998		11.718750
7999		7.812500
8000		11.718750
8001		9.765625
8002		11.718750
8003		7.812500
8004		11.718750
8005		9.765625
8006		11.718750
8007		7.812500
8008		13.671875
8009		9.765625
8010		11.718750
8011		9.765625
8012		13.671875
8013		9.765625
8014		13.671875
8015		9.765625
8016		13.671875
8017		9.765625
8018		13.671875
8019		9.765625
8020		13.671875
8021		9.765625
8022		13.671875
8023		9.765625
8024		13.671875
8025		11.718750
8026		13.671875
8027		9.765625
8028		15.625000
8029		11.718750
8030		13.671875
8031		11.718750
8032		13.671875
8033		9.765625
8034		13.671875
8035		11.718750
8036		15.625000
8037		11.718750
8038		15.625000
8039		11.718750
8040		15.625000
8041		11.718750
8042		15.625000
8043		11.718750
8044		15.625000
8045		11.718750
8046		15.625000
8047		11.718750
8048		15.625000
8049		11.718750
8050		15.625000
8051		11.718750
8052		15.625000
8053		13.671875
8054		15.625000
8055		13.671875
8056		15.625000
8057		11.718750
8058		15.625000
8059		13.671875
8060		15.625000
8061		13.671875
8062		15.625000
8063		11.718750
8064		15.625000
8065		13.671875
8066		15.625000
8067		11.718750
8068		15.625000
8069		13.671875
8070		15.625000
8071		11.718750
8072		15.625000
8073		13.671875
8074		15.625000
8075		13.671875
8076		15.625000
8077		11.718750
8078		17.578125
8079		13.671875
8080		15.625000
8081		13.671875
8082		17.578125
8083		13.671875
8084		15.625000
8085		13.671875
8086		17.578125
8087		13.671875
8088		17.578125
8089		13.671875
8090		15.625000
8091		11.718750
8092		17.578125
8093		13.671875
8094		15.625000
8095		13.671875
8096		15.625000
8097		13.671875
8098		15.625000
8099		13.671875
8100		15.625000
8101		13.671875
8102		17.578125
8103		11.718750
8104		17.578125
8105		13.671875
8106		15.625000
8107		13.671875
8108		15.625000
8109		13.671875
8110		17.578125
8111		13.671875
8112		15.625000
8113		13.671875
8114		15.625000
8115		13.671875
8116		17.578125
8117		13.671875
8118		15.625000
8119		13.671875
8120		17.578125
8121		13.671875
8122		15.625000
8123		13.671875
8124		15.625000
8125		13.671875
8126		15.625000
8127		13.671875
8128		15.625000
8129		13.671875
8130		15.625000
8131		11.718750
8132		15.625000
8133		11.718750
8134		17.578125
8135		13.671875
8136		17.578125
8137		11.718750
8138		15.625000
8139		11.718750
8140		15.625000
8141		11.718750
8142		15.625000
8143		13.671875
8144		15.625000
8145		13.671875
8146		15.625000
8147		11.718750
8148		15.625000
8149		13.671875
8150		15.625000
8151		11.718750
8152		15.625000
8153		11.718750
8154		15.625000
8155		11.718750
8156		15.625000
8157		11.718750
8158		15.625000
8159		11.718750
8160		15.625000
8161		11.718750
8162		15.625000
8163		11.718750
8164		15.625000
8165		11.718750
8166		15.625000
8167		9.765625
8168		15.625000
8169		11.718750
8170		15.625000
8171		11.718750
8172		15.625000
8173		11.718750
8174		15.625000
8175		11.718750
8176		15.625000
8177		11.718750
8178		13.671875
8179		11.718750
8180		13.671875
8181		9.765625
8182		15.625000
8183		11.718750
8184		13.671875
8185		11.718750
8186		13.671875
8187		11.718750
8188		13.671875
8189		9.765625
8190		13.671875
8191		9.765625
8192		13.671875
8193		9.765625
8194		13.671875
8195		9.765625
8196		13.671875
8197		9.765625
8198		13.671875
8199		9.765625
8200		13.671875
8201		9.765625
8202		11.718750
8203		9.765625
8204		13.671875
8205		9.765625
8206		11.718750
8207		9.765625
8208		11.718750
8209		7.812500
8210		11.718750
8211		7.812500
8212		11.718750
8213		7.812500
8214		11.718750
8215		7.812500
8216		11.718750
8217		7.812500
8218		11.718750
8219		7.812500
8220		11.718750
8221		7.812500
8222		11.718750
8223		5.859375
8224		11.718750
8225		7.812500
8226		9.765625
8227		7.812500
8228		11.718750
8229		5.859375
8230		9.765625
8231		5.859375
8232		9.765625
8233		5.859375
8234		9.765625
8235		5.859375
8236		9.765625
8237		5.859375
8238		9.765625
8239		5.859375
8240		9.765625
8241		5.859375
8242		9.765625
8243		5.859375
8244		7.812500
8245		5.859375
8246		9.765625
8247		3.906250
8248		7.812500
8249		5.859375
8250		7.812500
8251		3.906250
8252		7.812500
8253		3.906250
8254		7.812500
8255		3.906250
8256		7.812500
8257		3.906250
8258		5.859375
8259		3.906250
8260		7.812500
8261		3.906250
8262		7.812500
8263		3.906250
8264		5.859375
8265		1.953125
8266		7.812500
8267		3.906250
8268		5.859375
8269		1.953125
8270		5.859375
8271		1.953125
8272		5.859375
8273		1.953125
8274		5.859375
8275		1.953125
8276		5.859375
8277		1.953125
8278		3.906250
8279		1.953125
8280		3.906250
8281		0.000000
8282		3.906250
8283		1.953125
8284		3.906250
8285		0.000000
8286		3.906250
8287		0.000000
8288		3.906250
8289		0.000000
8290		3.906250
8291		0.000000
8292		3.906250
8293		0.000000
8294		3.906250
8295		0.000000
8296		3.906250
8297		-1.953125
8298		3.906250
8299		0.000000
8300		1.953125
8301		-1.953125
8302		1.953125
8303		-1.953125
8304		1.953125
8305		-1.953125
8306		1.953125
8307		-1.953125
8308		1.953125
8309		-1.953125
8310		1.953125
8311		-1.953125
8312		1.953125
8313		-3.906250
8314		1.953125
8315		-3.906250
8316		0.000000
8317		-1.953125
8318		0.000000
8319		-3.906250
8320		1.953125
8321		-3.906250
8322		0.000000
8323		-3.906250
8324		0.000000
8325		-3.906250
8326		0.000000
8327		-3.906250
8328		0.000000
8329		-3.906250
8330		-1.953125
8331		-3.906250
8332		-1.953125
8333		-5.859375
8334		-1.953125
8335		-3.906250
8336		-1.953125
8337		-3.906250
8338		-1.953125
8339		-5.859375
8340		-1.953125
8341		-5.859375
8342		-1.953125
8343		-5.859375
8344		-1.953125
8345		-5.859375
8346		-1.953125
8347		-5.859375
8348		-3.906250
8349		-5.859375
8350		-1.953125
8351		-7.812500
8352		-1.953125
8353		-7.812500
8354		-3.906250
8355		-7.812500
8356		-3.906250
8357		-7.812500
8358		-3.906250
8359		-7.812500
8360		-3.906250
8361		-7.812500
8362		-3.906250
8363		-7.812500
8364		-3.906250
8365		-7.812500
8366		-3.906250
8367		-7.812500
8368		-5.859375
8369		-7.812500
8370		-5.859375
8371		-9.765625
8372		-5.859375
8373		-7.812500
8374		-5.859375
8375		-9.765625
8376		-5.859375
8377		-9.765625
8378		-5.859375
8379		-9.765625
8380		-5.859375
8381		-9.765625
8382		-5.859375
8383		-9.765625
8384		-5.859375
8385		-9.765625
8386		-7.812500
8387		-9.765625
8388		-7.812500
8389		-11.718750
8390		-7.812500
8391		-11.718750
8392		-7.812500
8393		-11.718750
8394		-7.812500
8395		-11.718750
8396		-7.812500
8397		-11.718750
8398		-7.812500
8399		-11.718750
8400		-7.812500
8401		-11.718750
8402		-7.812500
8403		-11.718750
8404		-7.812500
8405		-11.718750
8406		-7.812500
8407		-11.718750
8408		-7.812500
8409		-11.718750
8410		-7.812500
8411		-11.718750
8412		-9.765625
8413		-13.671875
8414		-9.765625
8415		-13.671875
8416		-9.765625
8417		-11.718750
8418		-7.812500
8419		-13.671875
8420		-9.765625
8421		-13.671875
8422		-9.765625
8423		-13.671875
8424		-9.765625
8425		-13.671875
8426		-9.765625
8427		-13.671875
8428		-9.765625
8429		-13.671875
8430		-9.765625
8431		-13.671875
8432		-9.765625
8433		-13.671875
8434		-9.765625
8435		-13.671875
8436		-11.718750
8437		-15.625000
8438		-9.765625
8439		-13.671875
8440		-11.718750
8441		-15.625000
8442		-11.718750
8443		-13.671875
8444		-11.718750
8445		-13.671875
8446		-11.718750
8447		-15.625000
8448		-11.718750
8449		-15.625000
8450		-11.718750
8451		-13.671875
8452		-11.718750
8453		-15.625000
8454		-11.718750
8455		-15.625000
8456		-11.718750
8457		-15.625000
8458		-11.718750
8459		-15.625000
8460		-11.718750
8461		-15.625000
8462		-11.718750
8463		-15.625000
8464		-11.718750
8465		-15.625000
8466		-11.718750
8467		-15.625000
8468		-11.718750
8469		-15.625000
8470		-11.718750
8471		-15.625000
8472		-11.718750
8473		-15.625000
8474		-11.718750
8475		-15.625000
8476		-11.718750
8477		-15.625000
8478		-11.718750
8479		-15.625000
8480		-11.718750
8481		-15.625000
8482		-11.718750
8483		-15.625000
8484		-11.718750
8485		-15.625000
8486		-11.718750
8487		-15.625000
8488		-11.718750
8489		-15.625000
8490		-11.718750
8491		-15.625000
8492		-11.718750
8493		-15.625000
8494		-11.718750
8495		-15.625000
8496		-11.718750
8497		-15.625000
8498		-11.718750
8499		-15.625000
8500		-11.718750
8501		-15.625000
8502		-11.718750
8503		-13.671875
8504		-11.718750
8505		-15.625000
8506		-11.718750
8507		-15.625000
8508		-11.718750
8509		-13.671875
8510		-11.718750
8511		-15.625000
8512		-11.718750
8513		-15.625000
8514		-11.718750
8515		-13.671875
8516		-11.718750
8517		-15.625000
8518		-11.718750
8519		-13.671875
8520		-11.718750
8521		-15.625000
8522		-9.765625
8523		-13.671875
8524		-9.765625
8525		-13.671875
8526		-9.765625
8527		-13.671875
8528		-9.765625
8529		-13.671875
8530		-9.765625
8531		-13.671875
8532		-9.765625
8533		-13.671875
8534		-9.765625
8535		-13.671875
8536		-9.765625
8537		-11.718750
8538		-9.765625
8539		-13.671875
8540		-7.812500
8541		-13.671875
8542		-9.765625
8543		-11.718750
8544		-9.765625
8545		-11.718750
8546		-9.765625
8547		-13.671875
8548		-7.812500
8549		-11.718750
8550		-9.765625
8551		-11.718750
8552		-7.812500
8553		-11.718750
8554		-9.765625
8555		-13.671875
8556		-7.812500
8557		-11.718750
8558		-9.765625
8559		-11.718750
8560		-7.812500
8561		-13.671875
8562		-7.812500
8563		-11.718750
8564		-7.812500
8565		-13.671875
8566		-5.859375
8567		-11.718750
8568		-7.812500
8569		-9.765625
8570		-7.812500
8571		-11.718750
8572		-5.859375
8573		-9.765625
8574		-7.812500
8575		-9.765625
8576		-5.859375
8577		-9.765625
8578		-5.859375
8579		-9.765625
8580		-5.859375
8581		-9.765625
8582		-3.906250
8583		-9.765625
8584		-5.859375
8585		-7.812500
8586		-5.859375
8587		-9.765625
8588		-5.859375
8589		-9.765625
8590		-5.859375
8591		-9.765625
8592		-3.906250
8593		-9.765625
8594		-3.906250
8595		-9.765625
8596		-1.953125
8597		-9.765625
8598		-1.953125
8599		-9.765625
8600		-3.906250
8601		-7.812500
8602		-3.906250
8603		-5.859375
8604		-3.906250
8605		-5.859375
8606		-3.906250
8607		-7.812500
8608		-1.953125
8609		-7.812500
8610		-1.953125
8611		-7.812500
8612		-1.953125
8613		-7.812500
8614		0.000000
8615		-7.812500
8616		0.000000
8617		-5.859375
8618		-1.953125
8619		-3.906250
8620		-1.953125
8621		-5.859375
8622		0.000000
8623		-5.859375
8624		0.000000
8625		-5.859375
8626		1.953125
8627		-5.859375
8628		0.000000
8629		-3.906250
8630		1.953125
8631		-3.906250
8632		1.953125
8633		-3.906250
8634		1.953125
8635		-3.906250
8636		0.000000
8637		-1.953125
8638		1.953125
8639		-1.953125
8640		1.953125
8641		-3.906250
8642		1.953125
8643		-3.906250
8644		1.953125
8645		-3.906250
8646		3.906250
8647		-3.906250
8648		3.906250
8649		-1.953125
8650		3.906250
8651		0.000000
8652		3.906250
8653		0.000000
8654		1.953125
8655		0.000000
8656		3.906250
8657		0.000000
8658		5.859375
8659		-1.953125
8660		5.859375
8661		-1.953125
8662		5.859375
8663		0.000000
8664		5.859375
8665		0.000000
8666		3.906250
8667		0.000000
8668		5.859375
8669		1.953125
8670		5.859375
8671		1.953125
8672		5.859375
8673		0.000000
8674		5.859375
8675		1.953125
8676		7.812500
8677		1.953125
8678		7.812500
8679		1.953125
8680		7.812500
8681		1.953125
8682		7.812500
8683		1.953125
8684		7.812500
8685		1.953125
8686		7.812500
8687		3.906250
8688		7.812500
8689		3.906250
8690		7.812500
8691		1.953125
8692		9.765625
8693		1.953125
8694		9.765625
8695		3.906250
8696		9.765625
8697		3.906250
8698		9.765625
8699		3.906250
8700		11.718750
8701		3.906250
8702		9.765625
8703		5.859375
8704		9.765625
8705		5.859375
8706		9.765625
8707		3.906250
8708		11.718750
8709		3.906250
8710		11.718750
8711		5.859375
8712		11.718750
8713		5.859375
8714		11.718750
8715		5.859375
8716		11.718750
8717		5.859375
8718		11.718750
8719		5.859375
8720		11.718750
8721		7.812500
8722		11.718750
8723		7.812500
8724		11.718750
8725		5.859375
8726		11.718750
8727		7.812500
8728		13.671875
8729		7.812500
8730		13.671875
8731		5.859375
8732		13.671875
8733		5.859375
8734		13.671875
8735		7.812500
8736		13.671875
8737		9.765625
8738		11.718750
8739		9.765625
8740		11.718750
8741		7.812500
8742		13.671875
8743		7.812500
8744		13.671875
8745		7.812500
8746		13.671875
8747		7.812500
8748		15.625000
8749		9.765625
8750		15.625000
8751		7.812500
8752		15.625000
8753		9.765625
8754		15.625000
8755		9.765625
8756		13.671875
8757		7.812500
8758		15.625000
8759		7.812500
8760		15.625000
8761		9.765625
8762		15.625000
8763		9.765625
8764		15.625000
8765		9.765625
8766		15.625000
8767		9.765625
8768		17.578125
8769		9.765625
8770		15.625000
8771		11.718750
8772		13.671875
8773		9.765625
8774		15.625000
8775		9.765625
8776		15.625000
8777		9.765625
8778		17.578125
8779		9.765625
8780		15.625000
8781		9.765625
8782		17.578125
8783		9.765625
8784		17.578125
8785		9.765625
8786		17.578125
8787		11.718750
8788		15.625000
8789		11.718750
8790		15.625000
8791		11.718750
8792		17.578125
8793		9.765625
8794		17.578125
8795		9.765625
8796		17.578125
8797		11.718750
8798		17.578125
8799		11.718750
8800		17.578125
8801		11.718750
8802		17.578125
8803		11.718750
8804		17.578125
8805		13.671875
8806		15.625000
8807		11.718750
8808		15.625000
8809		11.718750
8810		17.578125
8811		11.718750
8812		17.578125
8813		11.718750
8814		17.578125
8815		11.718750
8816		17.578125
8817		11.718750
8818		17.578125
8819		11.718750
8820		17.578125
8821		13.671875
8822		15.625000
8823		11.718750
8824		17.578125
8825		11.718750
8826		17.578125
8827		11.718750
8828		17.578125
8829		11.718750
8830		17.578125
8831		11.718750
8832		17.578125
8833		11.718750
8834		17.578125
8835		11.718750
8836		17.578125
8837		11.718750
8838		17.578125
8839		13.671875
8840		17.578125
8841		11.718750
8842		17.578125
8843		11.718750
8844		17.578125
8845		11.718750
8846		17.578125
8847		11.718750
8848		17.578125
8849		11.718750
8850		17.578125
8851		11.718750
8852		17.578125
8853		11.718750
8854		17.578125
8855		13.671875
8856		17.578125
8857		13.671875
8858		15.625000
8859		11.718750
8860		17.578125
8861		11.718750
8862		17.578125
8863		11.718750
8864		17.578125
8865		11.718750
8866		17.578125
8867		11.718750
8868		17.578125
8869		11.718750
8870		17.578125
8871		11.718750
8872		15.625000
8873		13.671875
8874		15.625000
8875		9.765625
8876		17.578125
8877		9.765625
8878		17.578125
8879		9.765625
8880		17.578125
8881		9.765625
8882		17.578125
8883		11.718750
8884		17.578125
8885		9.765625
8886		17.578125
8887		9.765625
8888		17.578125
8889		13.671875
8890		15.625000
8891		9.765625
8892		15.625000
8893		9.765625
8894		17.578125
8895		9.765625
8896		17.578125
8897		9.765625
8898		17.578125
8899		9.765625
8900		15.625000
8901		9.765625
8902		15.625000
8903		9.765625
8904		15.625000
8905		11.718750
8906		13.671875
8907		11.718750
8908		13.671875
8909		9.765625
8910		15.625000
8911		9.765625
8912		15.625000
8913		7.812500
8914		15.625000
8915		7.812500
8916		15.625000
8917		7.812500
8918		15.625000
8919		7.812500
8920		13.671875
8921		7.812500
8922		13.671875
8923		9.765625
8924		13.671875
8925		7.812500
8926		13.671875
8927		7.812500
8928		13.671875
8929		7.812500
8930		13.671875
8931		7.812500
8932		13.671875
8933		7.812500
8934		13.671875
8935		5.859375
8936		13.671875
8937		7.812500
8938		13.671875
8939		7.812500
8940		11.718750
8941		7.812500
8942		11.718750
8943		5.859375
8944		13.671875
8945		5.859375
8946		13.671875
8947		5.859375
8948		13.671875
8949		5.859375
8950		13.671875
8951		5.859375
8952		11.718750
8953		5.859375
8954		11.718750
8955		7.812500
8956		11.718750
8957		7.812500
8958		9.765625
8959		5.859375
8960		11.718750
8961		3.906250
8962		11.718750
8963		3.906250
8964		11.718750
8965		3.906250
8966		11.718750
8967		3.906250
8968		11.718750
8969		3.906250
8970		9.765625
8971		3.906250
8972		9.765625
8973		5.859375
8974		7.812500
8975		3.906250
8976		9.765625
8977		3.906250
8978		9.765625
8979		3.906250
8980		9.765625
8981		1.953125
8982		9.765625
8983		1.953125
8984		9.765625
8985		1.953125
8986		9.765625
8987		1.953125
8988		9.765625
8989		3.906250
8990		5.859375
8991		3.906250
8992		5.859375
8993		1.953125
8994		7.812500
8995		0.000000
8996		7.812500
8997		1.953125
8998		7.812500
8999		0.000000
9000		7.812500
9001		0.000000
9002		7.812500
9003		0.000000
9004		7.812500
9005		1.953125
9006		5.859375
9007		1.953125
9008		3.906250
9009		0.000000
9010		7.812500
9011		0.000000
9012		7.812500
9013		0.000000
9014		5.859375
9015		0.000000
9016		5.859375
9017		0.000000
9018		3.906250
9019		-1.953125
9020		5.859375
9021		-1.953125
9022		5.859375
9023		0.000000
9024		1.953125
9025		-1.953125
9026		3.906250
9027		-1.953125
9028		3.906250
9029		-1.953125
9030		3.906250
9031		-1.953125
9032		3.906250
9033		-3.906250
9034		3.906250
9035		-3.906250
9036		3.906250
9037		-3.906250
9038		3.906250
9039		-1.953125
9040		1.953125
9041		-1.953125
9042		0.000000
9043		-3.906250
9044		1.953125
9045		-3.906250
9046		0.000000
9047		-3.906250
9048		1.953125
9049		-5.859375
9050		1.953125
9051		-5.859375
9052		1.953125
9053		-5.859375
9054		1.953125
9055		-5.859375
9056		1.953125
9057		-3.906250
9058		0.000000
9059		-3.906250
9060		1.953125
9061		-5.859375
9062		0.000000
9063		-5.859375
9064		0.000000
9065		-7.812500
9066		0.000000
9067		-7.812500
9068		0.000000
9069		-7.812500
9070		0.000000
9071		-7.812500
9072		0.000000
9073		-5.859375
9074		-1.953125
9075		-5.859375
9076		-1.953125
9077		-7.812500
9078		-1.953125
9079		-7.812500
9080		-1.953125
9081		-7.812500
9082		-1.953125
9083		-7.812500
9084		-1.953125
9085		-9.765625
9086		-1.953125
9087		-9.765625
9088		-1.953125
9089		-9.765625
9090		-1.953125
9091		-7.812500
9092		-3.906250
9093		-9.765625
9094		-3.906250
9095		-9.765625
9096		-3.906250
9097		-9.765625
9098		-3.906250
9099		-9.765625
9100		-3.906250
9101		-11.718750
9102		-5.859375
9103		-9.765625
9104		-3.906250
9105		-11.718750
9106		-5.859375
9107		-9.765625
9108		-5.859375
9109		-9.765625
9110		-7.812500
9111		-11.718750
9112		-5.859375
9113		-11.718750
9114		-5.859375
9115		-11.718750
9116		-5.859375
9117		-11.718750
9118		-5.859375
9119		-11.718750
9120		-5.859375
9121		-11.718750
9122		-7.812500
9123		-11.718750
9124		-7.812500
9125		-11.718750
9126		-9.765625
9127		-13.671875
9128		-7.812500
9129		-13.671875
9130		-7.812500
9131		-13.671875
9132		-7.812500
9133		-13.671875
9134		-7.812500
9135		-13.671875
9136		-7.812500
9137		-13.671875
9138		-7.812500
9139		-13.671875
9140		-7.812500
9141		-11.718750
9142		-7.812500
9143		-13.671875
9144		-7.812500
9145		-13.671875
9146		-7.812500
9147		-15.625000
9148		-7.812500
9149		-15.625000
9150		-7.812500
9151		-15.625000
9152		-7.812500
9153		-13.671875
9154		-7.812500
9155		-15.625000
9156		-7.812500
9157		-13.671875
9158		-9.765625
9159		-13.671875
9160		-11.718750
9161		-13.671875
9162		-9.765625
9163		-15.625000
9164		-9.765625
9165		-15.625000
9166		-9.765625
9167		-15.625000
9168		-9.765625
9169		-15.625000
9170		-7.812500
9171		-15.625000
9172		-9.765625
9173		-15.625000
9174		-9.765625
9175		-13.671875
9176		-11.718750
9177		-13.671875
9178		-11.718750
9179		-15.625000
9180		-9.765625
9181		-15.625000
9182		-9.765625
9183		-15.625000
9184		-11.718750
9185		-15.625000
9186		-9.765625
9187		-15.625000
9188		-9.765625
9189		-15.625000
9190		-9.765625
9191		-13.671875
9192		-11.718750
9193		-13.671875
9194		-11.718750
9195		-15.625000
9196		-9.765625
9197		-15.625000
9198		-11.718750
9199		-15.625000
9200		-11.718750
9201		-15.625000
9202		-11.718750
9203		-15.625000
9204		-11.718750
9205		-15.625000
9206		-11.718750
9207		-15.625000
9208		-11.718750
9209		-15.625000
9210		-9.765625
9211		-15.625000
9212		-11.718750
9213		-15.625000
9214		-9.765625
9215		-15.625000
9216		-11.718750
9217		-15.625000
9218		-11.718750
9219		-15.625000
9220		-11.718750
9221		-15.625000
9222		-11.718750
9223		-15.625000
9224		-11.718750
9225		-13.671875
9226		-11.718750
9227		-15.625000
9228		-9.765625
9229		-15.625000
9230		-11.718750
9231		-15.625000
9232		-11.718750
9233		-15.625000
9234		-9.765625
9235		-15.625000
9236		-11.718750
9237		-15.625000
9238		-11.718750
9239		-15.625000
9240		-9.765625
9241		-15.625000
9242		-11.718750
9243		-13.671875
9244		-11.718750
9245		-15.625000
9246		-11.718750
9247		-13.671875
9248		-11.718750
9249		-13.671875
9250		-11.718750
9251		-13.671875
9252		-9.765625
9253		-13.671875
9254		-11.718750
9255		-13.671875
9256		-9.765625
9257		-13.671875
9258		-9.765625
9259		-13.671875
9260		-11.718750
9261		-13.671875
9262		-9.765625
9263		-13.671875
9264		-9.765625
9265		-13.671875
9266		-9.765625
9267		-13.671875
9268		-9.765625
9269		-13.671875
9270		-9.765625
9271		-13.671875
9272		-9.765625
9273		-13.671875
9274		-9.765625
9275		-13.671875
9276		-9.765625
9277		-11.718750
9278		-9.765625
9279		-13.671875
9280		-9.765625
9281		-11.718750
9282		-9.765625
9283		-11.718750
9284		-9.765625
9285		-11.718750
9286		-9.765625
9287		-11.718750
9288		-9.765625
9289		-13.671875
9290		-7.812500
9291		-11.718750
9292		-9.765625
9293		-11.718750
9294		-7.812500
9295		-11.718750
9296		-7.812500
9297		-11.718750
9298		-7.812500
9299		-11.718750
9300		-7.812500
9301		-11.718750
9302		-7.812500
9303		-9.765625
9304		-7.812500
9305		-11.718750
9306		-7.812500
9307		-11.718750
9308		-5.859375
9309		-9.765625
9310		-5.859375
9311		-9.765625
9312		-5.859375
9313		-9.765625
9314		-5.859375
9315		-9.765625
9316		-5.859375
9317		-9.765625
9318		-5.859375
9319		-9.765625
9320		-5.859375
9321		-9.765625
9322		-5.859375
9323		-7.812500
9324		-5.859375
9325		-7.812500
9326		-3.906250
9327		-7.812500
9328		-5.859375
9329		-7.812500
9330		-5.859375
9331		-7.812500
9332		-3.906250
9333		-7.812500
9334		-3.906250
9335		-7.812500
9336		-3.906250
9337		-7.812500
9338		-3.906250
9339		-7.812500
9340		-3.906250
9341		-5.859375
9342		-3.906250
9343		-5.859375
9344		-3.906250
9345		-7.812500
9346		-1.953125
9347		-5.859375
9348		-1.953125
9349		-5.859375
9350		-1.953125
9351		-5.859375
9352		-1.953125
9353		-5.859375
9354		-1.953125
9355		-5.859375
9356		-1.953125
9357		-5.859375
9358		-1.953125
9359		-5.859375
9360		-1.953125
9361		-3.906250
9362		-1.953125
9363		-3.906250
9364		0.000000
9365		-3.906250
9366		-1.953125
9367		-3.906250
9368		0.000000
9369		-3.906250
9370		0.000000
9371		-3.906250
9372		0.000000
9373		-1.953125
9374		0.000000
9375		-3.906250
9376		1.953125
9377		-1.953125
9378		0.000000
9379		-1.953125
9380		1.953125
9381		-1.953125
9382		1.953125
9383		-1.953125
9384		1.953125
9385		-1.953125
9386		1.953125
9387		-1.953125
9388		1.953125
9389		0.000000
9390		1.953125
9391		0.000000
9392		3.906250
9393		0.000000
9394		1.953125
9395		0.000000
9396		1.953125
9397		0.000000
9398		3.906250
9399		0.000000
9400		3.906250
9401		0.000000
9402		3.906250
9403		0.000000
9404		3.906250
9405		0.000000
9406		3.906250
9407		1.953125
9408		5.859375
9409		1.953125
9410		3.906250
9411		1.953125
9412		5.859375
9413		0.000000
9414		5.859375
9415		1.953125
9416		5.859375
9417		1.953125
9418		5.859375
9419		1.953125
9420		5.859375
9421		3.906250
9422		5.859375
9423		3.906250
9424		5.859375
9425		1.953125
9426		7.812500
9427		3.906250
9428		5.859375
9429		3.906250
9430		7.812500
9431		3.906250
9432		7.812500
9433		5.859375
9434		7.812500
9435		5.859375
9436		7.812500
9437		3.906250
9438		7.812500
9439		5.859375
9440		7.812500
9441		3.906250
9442		9.765625
9443		5.859375
9444		7.812500
9445		5.859375
9446		9.765625
9447		5.859375
9448		9.765625
9449		5.859375
9450		9.765625
9451		5.859375
9452		9.765625
9453		5.859375
9454		9.765625
9455		7.812500
9456		9.765625
9457		5.859375
9458		9.765625
9459		5.859375
9460		9.765625
9461		7.812500
9462		9.765625
9463		7.812500
9464		11.718750
9465		7.812500
9466		11.718750
9467		7.812500
9468		11.718750
9469		7.812500
9470		11.718750
9471		7.812500
9472		11.718750
9473		7.812500
9474		11.718750
9475		9.765625
9476		11.718750
9477		9.765625
9478		11.718750
9479		7.812500
9480		11.718750
9481		9.765625
9482		13.671875
9483		9.765625
9484		11.718750
9485		9.765625
9486		11.718750
9487		9.765625
9488		13.671875
9489		9.765625
9490		13.671875
9491		9.765625
9492		13.671875
9493		9.765625
9494		13.671875
9495		9.765625
9496		13.671875
9497		9.765625
9498		15.625000
9499		9.765625
9500		13.671875
9501		9.765625
9502		13.671875
9503		9.765625
9504		15.625000
9505		11.718750
9506		13.671875
9507		11.718750
9508		13.671875
9509		9.765625
9510		15.625000
9511		11.718750
9512		13.671875
9513		11.718750
9514		15.625000
9515		11.718750
9516		15.625000
9517		11.718750
9518		13.671875
9519		11.718750
9520		15.625000
9521		11.718750
9522		15.625000
9523		11.718750
9524		15.625000
9525		11.718750
9526		15.625000
9527		11.718750
9528		15.625000
9529		11.718750
9530		15.625000
9531		11.718750
9532		15.625000
9533		11.718750
9534		15.625000
9535		13.671875
9536		15.625000
9537		11.718750
9538		15.625000
9539		11.718750
9540		15.625000
9541		13.671875
9542		15.625000
9543		11.718750
9544		17.578125
9545		13.671875
9546		15.625000
9547		11.718750
9548		15.625000
9549		13.671875
9550		15.625000
9551		13.671875
9552		15.625000
9553		11.718750
9554		15.625000
9555		13.671875
9556		15.625000
9557		13.671875
9558		15.625000
9559		11.718750
9560		15.625000
9561		13.671875
9562		15.625000
9563		13.671875
9564		17.578125
9565		13.671875
9566		17.578125
9567		13.671875
9568		15.625000
9569		13.671875
9570		15.625000
9571		11.718750
9572		17.578125
9573		13.671875
9574		17.578125
9575		13.671875
9576		15.625000
9577		11.718750
9578		17.578125
9579		13.671875
9580		15.625000
9581		13.671875
9582		17.578125
9583		13.671875
9584		17.578125
9585		11.718750
9586		15.625000
9587		11.718750
9588		15.625000
9589		11.718750
9590		17.578125
9591		13.671875
9592		15.625000
9593		11.718750
9594		15.625000
9595		11.718750
9596		15.625000
9597		11.718750
9598		15.625000
9599		11.718750
9600		15.625000
9601		11.718750
9602		15.625000
9603		11.718750
9604		15.625000
9605		11.718750
9606		15.625000
9607		11.718750
9608		15.625000
9609		13.671875
9610		15.625000
9611		11.718750
9612		15.625000
9613		11.718750
9614		15.625000
9615		11.718750
9616		15.625000
9617		11.718750
9618		15.625000
9619		11.718750
9620		15.625000
9621		11.718750
9622		15.625000
9623		11.718750
9624		15.625000
9625		11.718750
9626		13.671875
9627		11.718750
9628		15.625000
9629		11.718750
9630		13.671875
9631		11.718750
9632		13.671875
9633		9.765625
9634		13.671875
9635		11.718750
9636		13.671875
9637		11.718750
9638		13.671875
9639		9.765625
9640		15.625000
9641		9.765625
9642		13.671875
9643		9.765625
9644		13.671875
9645		9.765625
9646		13.671875
9647		9.765625
9648		13.671875
9649		7.812500
9650		13.671875
9651		9.765625
9652		13.671875
9653		9.765625
9654		13.671875
9655		9.765625
9656		13.671875
9657		9.765625
9658		13.671875
9659		7.812500
9660		11.718750
9661		7.812500
9662		11.718750
9663		9.765625
9664		11.718750
9665		7.812500
9666		13.671875
9667		7.812500
9668		11.718750
9669		7.812500
9670		11.718750
9671		7.812500
9672		11.718750
9673		7.812500
9674		11.718750
9675		7.812500
9676		11.718750
9677		7.812500
9678		11.718750
9679		7.812500
9680		9.765625
9681		5.859375
9682		11.718750
9683		5.859375
9684		11.718750
9685		7.812500
9686		9.765625
9687		5.859375
9688		9.765625
9689		5.859375
9690		9.765625
9691		5.859375
9692		9.765625
9693		5.859375
9694		9.765625
9695		5.859375
9696		9.765625
9697		5.859375
9698		9.765625
9699		5.859375
9700		9.765625
9701		5.859375
9702		7.812500
9703		3.906250
9704		9.765625
9705		5.859375
9706		7.812500
9707		3.906250
9708		7.812500
9709		3.906250
9710		9.765625
9711		3.906250
9712		7.812500
9713		5.859375
9714		7.812500
9715		3.906250
9716		7.812500
9717		3.906250
9718		7.812500
9719		3.906250
9720		7.812500
9721		3.906250
9722		7.812500
9723		3.906250
9724		7.812500
9725		3.906250
9726		5.859375
9727		1.953125
9728		7.812500
9729		1.953125
9730		5.859375
9731		1.953125
9732		5.859375
9733		1.953125
9734		5.859375
9735		1.953125
9736		5.859375
9737		1.953125
9738		3.906250
9739		1.953125
9740		3.906250
9741		0.000000
9742		5.859375
9743		1.953125
9744		3.906250
9745		0.000000
9746		3.906250
9747		0.000000
9748		3.906250
9749		0.000000
9750		3.906250
9751		-1.953125
9752		3.906250
9753		0.000000
9754		1.953125
9755		0.000000
9756		1.953125
9757		-1.953125
9758		3.906250
9759		0.000000
9760		1.953125
9761		-1.953125
9762		3.906250
9763		0.000000
9764		1.953125
9765		-1.953125
9766		1.953125
9767		-1.953125
9768		1.953125
9769		-1.953125
9770		1.953125
9771		-1.953125
9772		0.000000
9773		-3.906250
9774		1.953125
9775		-3.906250
9776		0.000000
9777		-3.906250
9778		0.000000
9779		-1.953125
9780		0.000000
9781		-3.906250
9782		0.000000
9783		-3.906250
9784		0.000000
9785		-3.906250
9786		0.000000
9787		-3.906250
9788		0.000000
9789		-3.906250
9790		-1.953125
9791		-5.859375
9792		-1.953125
9793		-3.906250
9794		-1.953125
9795		-5.859375
9796		-1.953125
9797		-5.859375
9798		-1.953125
9799		-5.859375
9800		-1.953125
9801		-5.859375
9802		-1.953125
9803		-5.859375
9804		-1.953125
9805		-5.859375
9806		-3.906250
9807		-5.859375
9808		-3.906250
9809		-7.812500
9810		-3.906250
9811		-7.812500
9812		-3.906250
9813		-5.859375
9814		-3.906250
9815		-7.812500
9816		-3.906250
9817		-9.765625
9818		-3.906250
9819		-7.812500
9820		-3.906250
9821		-7.812500
9822		-3.906250
9823		-7.812500
9824		-5.859375
9825		-9.765625
9826		-3.906250
9827		-9.765625
9828		-5.859375
9829		-9.765625
9830		-5.859375
9831		-9.765625
9832		-5.859375
9833		-9.765625
9834		-5.859375
9835		-9.765625
9836		-5.859375
9837		-9.765625
9838		-5.859375
9839		-9.765625
9840		-5.859375
9841		-9.765625
9842		-5.859375
9843		-9.765625
9844		-7.812500
9845		-11.718750
9846		-7.812500
9847		-9.765625
9848		-7.812500
9849		-11.718750
9850		-7.812500
9851		-11.718750
9852		-7.812500
9853		-11.718750
9854		-7.812500
9855		-11.718750
9856		-7.812500
9857		-11.718750
9858		-7.812500
9859		-11.718750
9860		-7.812500
9861		-13.671875
9862		-7.812500
9863		-11.718750
9864		-9.765625
9865		-11.718750
9866		-9.765625
9867		-11.718750
9868		-9.765625
9869		-13.671875
9870		-9.765625
9871		-13.671875
9872		-9.765625
9873		-11.718750
9874		-9.765625
9875		-13.671875
9876		-9.765625
9877		-13.671875
9878		-9.765625
9879		-13.671875
9880		-9.765625
9881		-13.671875
9882		-9.765625
9883		-13.671875
9884		-11.718750
9885		-13.671875
9886		-9.765625
9887		-15.625000
9888		-9.765625
9889		-13.671875
9890		-11.718750
9891		-15.625000
9892		-9.765625
9893		-13.671875
9894		-11.718750
9895		-15.625000
9896		-11.718750
9897		-13.671875
9898		-11.718750
9899		-13.671875
9900		-11.718750
9901		-15.625000
9902		-11.718750
9903		-15.625000
9904		-11.718750
9905		-15.625000
9906		-11.718750
9907		-15.625000
9908		-11.718750
9909		-15.625000
9910		-11.718750
9911		-15.625000
9912		-11.718750
9913		-15.625000
9914		-11.718750
9915		-15.625000
9916		-11.718750
9917		-15.625000
9918		-11.718750
9919		-15.625000
9920		-11.718750
9921		-15.625000
9922		-11.718750
9923		-15.625000
9924		-11.718750
9925		-15.625000
9926		-11.718750
9927		-15.625000
9928		-11.718750
9929		-15.625000
9930		-11.718750
9931		-15.625000
9932		-13.671875
9933		-15.625000
9934		-11.718750
9935		-15.625000
9936		-11.718750
9937		-15.625000
9938		-11.718750
9939		-15.625000
9940		-13.671875
9941		-15.625000
9942		-11.718750
9943		-15.625000
9944		-11.718750
9945		-15.625000
9946		-11.718750
9947		-15.625000
9948		-11.718750
9949		-15.625000
9950		-13.671875
9951		-15.625000
9952		-11.718750
9953		-15.625000
9954		-11.718750
9955		-15.625000
9956		-11.718750
9957		-15.625000
9958		-11.718750
9959		-15.625000
9960		-11.718750
9961		-15.625000
9962		-11.718750
9963		-15.625000
9964		-11.718750
9965		-15.625000
9966		-11.718750
9967		-15.625000
9968		-11.718750
9969		-15.625000
9970		-11.718750
9971		-15.625000
9972		-11.718750
9973		-15.625000
9974		-11.718750
9975		-15.625000
9976		-11.718750
9977		-15.625000
9978		-11.718750
9979		-15.625000
9980		-11.718750
9981		-15.625000
9982		-11.718750
9983		-15.625000
9984		-11.718750
9985		-15.625000
9986		-11.718750
9987		-15.625000
9988		-11.718750
9989		-15.625000
9990		-9.765625
9991		-15.625000
9992		-11.718750
9993		-13.671875
9994		-11.718750
9995		-15.625000
9996		-9.765625
9997		-15.625000
9998		-11.718750
9999		-13.671875
10000		-11.718750
