Channel              :		CH1
Frequency            :		681.2Hz
Period               :		1.468ms
PK-PK                :		83.98mV
Probe attenuation    :		1X
Voltage per ADC value:		0.122070mV
Time interval        :		2.00000us

index		CH1_Voltage(mV)
1		39.062500
2		39.062500
3		31.250000
4		39.062500
5		33.203125
6		39.062500
7		33.203125
8		39.062500
9		33.203125
10		39.062500
11		33.203125
12		39.062500
13		35.156250
14		39.062500
15		35.156250
16		39.062500
17		33.203125
18		39.062500
19		33.203125
20		41.015625
21		33.203125
22		41.015625
23		33.203125
24		41.015625
25		35.156250
26		41.015625
27		33.203125
28		41.015625
29		35.156250
30		39.062500
31		37.109375
32		39.062500
33		35.156250
34		41.015625
35		33.203125
36		41.015625
37		35.156250
38		41.015625
39		35.156250
40		41.015625
41		35.156250
42		41.015625
43		35.156250
44		41.015625
45		35.156250
46		41.015625
47		37.109375
48		39.062500
49		33.203125
50		41.015625
51		35.156250
52		41.015625
53		35.156250
54		41.015625
55		35.156250
56		41.015625
57		33.203125
58		41.015625
59		35.156250
60		41.015625
61		35.156250
62		41.015625
63		37.109375
64		39.062500
65		37.109375
66		39.062500
67		35.156250
68		41.015625
69		33.203125
70		41.015625
71		35.156250
72		41.015625
73		33.203125
74		41.015625
75		33.203125
76		41.015625
77		33.203125
78		41.015625
79		35.156250
80		37.109375
81		35.156250
82		37.109375
83		33.203125
84		39.062500
85		33.203125
86		39.062500
87		33.203125
88		39.062500
89		33.203125
90		39.062500
91		33.203125
92		39.062500
93		31.250000
94		39.062500
95		33.203125
96		39.062500
97		33.203125
98		37.109375
99		31.250000
100		37.109375
101		31.250000
102		37.109375
103		31.250000
104		37.109375
105		29.296875
106		37.109375
107		29.296875
108		37.109375
109		29.296875
110		37.109375
111		29.296875
112		35.156250
113		31.250000
114		35.156250
115		31.250000
116		33.203125
117		27.343750
118		35.156250
119		27.343750
120		35.156250
121		27.343750
122		35.156250
123		27.343750
124		35.156250
125		25.390625
126		33.203125
127		27.343750
128		33.203125
129		25.390625
130		33.203125
131		27.343750
132		31.250000
133		25.390625
134		31.250000
135		25.390625
136		31.250000
137		25.390625
138		31.250000
139		23.437500
140		31.250000
141		23.437500
142		31.250000
143		23.437500
144		29.296875
145		23.437500
146		29.296875
147		25.390625
148		27.343750
149		23.437500
150		27.343750
151		21.484375
152		27.343750
153		21.484375
154		27.343750
155		21.484375
156		27.343750
157		19.531250
158		27.343750
159		19.531250
160		25.390625
161		19.531250
162		25.390625
163		21.484375
164		23.437500
165		19.531250
166		23.437500
167		17.578125
168		23.437500
169		15.625000
170		23.437500
171		15.625000
172		23.437500
173		15.625000
174		21.484375
175		15.625000
176		21.484375
177		15.625000
178		21.484375
179		15.625000
180		21.484375
181		15.625000
182		17.578125
183		13.671875
184		19.531250
185		11.718750
186		19.531250
187		11.718750
188		19.531250
189		11.718750
190		17.578125
191		9.765625
192		17.578125
193		9.765625
194		17.578125
195		9.765625
196		15.625000
197		11.718750
198		13.671875
199		7.812500
200		13.671875
201		5.859375
202		13.671875
203		7.812500
204		13.671875
205		7.812500
206		13.671875
207		5.859375
208		11.718750
209		3.906250
210		11.718750
211		3.906250
212		11.718750
213		3.906250
214		9.765625
215		5.859375
216		7.812500
217		1.953125
218		7.812500
219		1.953125
220		7.812500
221		1.953125
222		7.812500
223		1.953125
224		7.812500
225		0.000000
226		5.859375
227		0.000000
228		5.859375
229		0.000000
230		5.859375
231		0.000000
232		1.953125
233		-1.953125
234		1.953125
235		-3.906250
236		3.906250
237		-3.906250
238		1.953125
239		-3.906250
240		1.953125
241		-5.859375
242		1.953125
243		-5.859375
244		0.000000
245		-5.859375
246		0.000000
247		-5.859375
248		-1.953125
249		-5.859375
250		-1.953125
251		-7.812500
252		-1.953125
253		-9.765625
254		-1.953125
255		-9.765625
256		-3.906250
257		-9.765625
258		-3.906250
259		-11.718750
260		-3.906250
261		-11.718750
262		-5.859375
263		-11.718750
264		-5.859375
265		-11.718750
266		-7.812500
267		-13.671875
268		-7.812500
269		-13.671875
270		-7.812500
271		-13.671875
272		-7.812500
273		-15.625000
274		-9.765625
275		-15.625000
276		-9.765625
277		-15.625000
278		-9.765625
279		-17.578125
280		-9.765625
281		-15.625000
282		-13.671875
283		-17.578125
284		-11.718750
285		-19.531250
286		-11.718750
287		-19.531250
288		-13.671875
289		-21.484375
290		-13.671875
291		-21.484375
292		-13.671875
293		-21.484375
294		-13.671875
295		-21.484375
296		-15.625000
297		-21.484375
298		-15.625000
299		-21.484375
300		-17.578125
301		-23.437500
302		-17.578125
303		-23.437500
304		-17.578125
305		-23.437500
306		-17.578125
307		-25.390625
308		-17.578125
309		-25.390625
310		-19.531250
311		-27.343750
312		-19.531250
313		-27.343750
314		-19.531250
315		-25.390625
316		-21.484375
317		-25.390625
318		-23.437500
319		-27.343750
320		-21.484375
321		-29.296875
322		-21.484375
323		-29.296875
324		-23.437500
325		-29.296875
326		-23.437500
327		-29.296875
328		-23.437500
329		-31.250000
330		-23.437500
331		-31.250000
332		-25.390625
333		-29.296875
334		-27.343750
335		-31.250000
336		-25.390625
337		-33.203125
338		-25.390625
339		-33.203125
340		-25.390625
341		-33.203125
342		-27.343750
343		-33.203125
344		-27.343750
345		-33.203125
346		-27.343750
347		-33.203125
348		-27.343750
349		-33.203125
350		-29.296875
351		-35.156250
352		-29.296875
353		-37.109375
354		-29.296875
355		-35.156250
356		-29.296875
357		-37.109375
358		-29.296875
359		-37.109375
360		-29.296875
361		-37.109375
362		-29.296875
363		-37.109375
364		-31.250000
365		-37.109375
366		-33.203125
367		-35.156250
368		-33.203125
369		-39.062500
370		-31.250000
371		-39.062500
372		-31.250000
373		-39.062500
374		-31.250000
375		-39.062500
376		-33.203125
377		-39.062500
378		-31.250000
379		-39.062500
380		-33.203125
381		-39.062500
382		-33.203125
383		-37.109375
384		-35.156250
385		-39.062500
386		-33.203125
387		-41.015625
388		-33.203125
389		-39.062500
390		-33.203125
391		-41.015625
392		-33.203125
393		-41.015625
394		-33.203125
395		-41.015625
396		-33.203125
397		-39.062500
398		-35.156250
399		-39.062500
400		-37.109375
401		-39.062500
402		-35.156250
403		-41.015625
404		-35.156250
405		-41.015625
406		-35.156250
407		-41.015625
408		-35.156250
409		-41.015625
410		-35.156250
411		-41.015625
412		-33.203125
413		-41.015625
414		-35.156250
415		-39.062500
416		-35.156250
417		-39.062500
418		-35.156250
419		-41.015625
420		-35.156250
421		-41.015625
422		-35.156250
423		-41.015625
424		-33.203125
425		-41.015625
426		-35.156250
427		-41.015625
428		-35.156250
429		-41.015625
430		-35.156250
431		-39.062500
432		-33.203125
433		-37.109375
434		-35.156250
435		-41.015625
436		-33.203125
437		-39.062500
438		-33.203125
439		-41.015625
440		-33.203125
441		-39.062500
442		-33.203125
443		-39.062500
444		-33.203125
445		-39.062500
446		-33.203125
447		-39.062500
448		-33.203125
449		-37.109375
450		-35.156250
451		-37.109375
452		-35.156250
453		-39.062500
454		-31.250000
455		-39.062500
456		-31.250000
457		-37.109375
458		-31.250000
459		-37.109375
460		-31.250000
461		-37.109375
462		-31.250000
463		-37.109375
464		-31.250000
465		-37.109375
466		-31.250000
467		-35.156250
468		-31.250000
469		-35.156250
470		-31.250000
471		-35.156250
472		-29.296875
473		-37.109375
474		-29.296875
475		-35.156250
476		-29.296875
477		-35.156250
478		-29.296875
479		-35.156250
480		-29.296875
481		-33.203125
482		-29.296875
483		-33.203125
484		-29.296875
485		-31.250000
486		-27.343750
487		-31.250000
488		-27.343750
489		-31.250000
490		-25.390625
491		-33.203125
492		-25.390625
493		-31.250000
494		-25.390625
495		-31.250000
496		-25.390625
497		-31.250000
498		-23.437500
499		-29.296875
500		-25.390625
501		-27.343750
502		-25.390625
503		-29.296875
504		-23.437500
505		-29.296875
506		-21.484375
507		-27.343750
508		-21.484375
509		-27.343750
510		-21.484375
511		-27.343750
512		-21.484375
513		-27.343750
514		-21.484375
515		-27.343750
516		-21.484375
517		-25.390625
518		-21.484375
519		-25.390625
520		-19.531250
521		-25.390625
522		-19.531250
523		-25.390625
524		-17.578125
525		-23.437500
526		-17.578125
527		-23.437500
528		-17.578125
529		-21.484375
530		-15.625000
531		-21.484375
532		-15.625000
533		-19.531250
534		-17.578125
535		-19.531250
536		-15.625000
537		-19.531250
538		-13.671875
539		-19.531250
540		-13.671875
541		-19.531250
542		-11.718750
543		-19.531250
544		-11.718750
545		-17.578125
546		-11.718750
547		-17.578125
548		-11.718750
549		-15.625000
550		-11.718750
551		-13.671875
552		-11.718750
553		-15.625000
554		-7.812500
555		-13.671875
556		-7.812500
557		-13.671875
558		-7.812500
559		-13.671875
560		-7.812500
561		-13.671875
562		-7.812500
563		-13.671875
564		-5.859375
565		-11.718750
566		-5.859375
567		-9.765625
568		-5.859375
569		-9.765625
570		-5.859375
571		-9.765625
572		-3.906250
573		-7.812500
574		-3.906250
575		-7.812500
576		-1.953125
577		-7.812500
578		-1.953125
579		-7.812500
580		0.000000
581		-7.812500
582		0.000000
583		-5.859375
584		-1.953125
585		-3.906250
586		0.000000
587		-5.859375
588		1.953125
589		-3.906250
590		1.953125
591		-3.906250
592		3.906250
593		-3.906250
594		3.906250
595		-1.953125
596		3.906250
597		-1.953125
598		3.906250
599		-1.953125
600		5.859375
601		0.000000
602		3.906250
603		1.953125
604		5.859375
605		0.000000
606		7.812500
607		1.953125
608		7.812500
609		1.953125
610		9.765625
611		1.953125
612		9.765625
613		3.906250
614		9.765625
615		3.906250
616		9.765625
617		5.859375
618		9.765625
619		5.859375
620		9.765625
621		5.859375
622		13.671875
623		5.859375
624		13.671875
625		7.812500
626		13.671875
627		7.812500
628		13.671875
629		7.812500
630		15.625000
631		9.765625
632		15.625000
633		9.765625
634		15.625000
635		11.718750
636		15.625000
637		11.718750
638		17.578125
639		11.718750
640		17.578125
641		11.718750
642		17.578125
643		11.718750
644		19.531250
645		13.671875
646		19.531250
647		13.671875
648		19.531250
649		13.671875
650		21.484375
651		17.578125
652		19.531250
653		17.578125
654		21.484375
655		15.625000
656		23.437500
657		17.578125
658		23.437500
659		15.625000
660		23.437500
661		17.578125
662		23.437500
663		17.578125
664		25.390625
665		19.531250
666		25.390625
667		21.484375
668		23.437500
669		21.484375
670		23.437500
671		19.531250
672		27.343750
673		21.484375
674		27.343750
675		21.484375
676		27.343750
677		21.484375
678		29.296875
679		21.484375
680		29.296875
681		21.484375
682		29.296875
683		23.437500
684		29.296875
685		25.390625
686		27.343750
687		25.390625
688		29.296875
689		23.437500
690		31.250000
691		25.390625
692		31.250000
693		25.390625
694		31.250000
695		27.343750
696		33.203125
697		25.390625
698		33.203125
699		25.390625
700		33.203125
701		27.343750
702		31.250000
703		29.296875
704		31.250000
705		27.343750
706		33.203125
707		27.343750
708		33.203125
709		29.296875
710		35.156250
711		29.296875
712		35.156250
713		29.296875
714		35.156250
715		29.296875
716		35.156250
717		29.296875
718		35.156250
719		31.250000
720		35.156250
721		31.250000
722		37.109375
723		31.250000
724		37.109375
725		31.250000
726		37.109375
727		31.250000
728		37.109375
729		31.250000
730		37.109375
731		33.203125
732		39.062500
733		33.203125
734		39.062500
735		33.203125
736		37.109375
737		33.203125
738		37.109375
739		31.250000
740		39.062500
741		33.203125
742		39.062500
743		33.203125
744		39.062500
745		33.203125
746		41.015625
747		33.203125
748		39.062500
749		33.203125
750		41.015625
751		35.156250
752		39.062500
753		35.156250
754		39.062500
755		35.156250
756		41.015625
757		33.203125
758		41.015625
759		35.156250
760		41.015625
761		35.156250
762		41.015625
763		35.156250
764		41.015625
765		33.203125
766		41.015625
767		35.156250
768		41.015625
769		37.109375
770		41.015625
771		37.109375
772		41.015625
773		35.156250
774		41.015625
775		35.156250
776		41.015625
777		35.156250
778		41.015625
779		35.156250
780		41.015625
781		35.156250
782		41.015625
783		35.156250
784		41.015625
785		37.109375
786		41.015625
787		37.109375
788		39.062500
789		35.156250
790		41.015625
791		35.156250
792		41.015625
793		35.156250
794		41.015625
795		35.156250
796		41.015625
797		33.203125
798		41.015625
799		33.203125
800		41.015625
801		35.156250
802		41.015625
803		35.156250
804		39.062500
805		35.156250
806		39.062500
807		33.203125
808		41.015625
809		35.156250
810		41.015625
811		33.203125
812		41.015625
813		33.203125
814		39.062500
815		33.203125
816		39.062500
817		33.203125
818		39.062500
819		35.156250
820		39.062500
821		35.156250
822		37.109375
823		33.203125
824		39.062500
825		31.250000
826		39.062500
827		33.203125
828		39.062500
829		31.250000
830		39.062500
831		31.250000
832		39.062500
833		31.250000
834		37.109375
835		31.250000
836		37.109375
837		33.203125
838		35.156250
839		29.296875
840		37.109375
841		31.250000
842		37.109375
843		29.296875
844		37.109375
845		29.296875
846		35.156250
847		29.296875
848		35.156250
849		29.296875
850		35.156250
851		27.343750
852		35.156250
853		29.296875
854		33.203125
855		29.296875
856		33.203125
857		27.343750
858		33.203125
859		27.343750
860		33.203125
861		27.343750
862		33.203125
863		25.390625
864		33.203125
865		25.390625
866		33.203125
867		25.390625
868		31.250000
869		27.343750
870		29.296875
871		27.343750
872		29.296875
873		23.437500
874		31.250000
875		23.437500
876		29.296875
877		23.437500
878		29.296875
879		23.437500
880		29.296875
881		21.484375
882		29.296875
883		21.484375
884		29.296875
885		21.484375
886		27.343750
887		23.437500
888		25.390625
889		21.484375
890		25.390625
891		19.531250
892		25.390625
893		19.531250
894		25.390625
895		19.531250
896		25.390625
897		17.578125
898		25.390625
899		17.578125
900		25.390625
901		17.578125
902		23.437500
903		19.531250
904		21.484375
905		17.578125
906		21.484375
907		15.625000
908		21.484375
909		15.625000
910		21.484375
911		13.671875
912		21.484375
913		13.671875
914		21.484375
915		13.671875
916		19.531250
917		11.718750
918		19.531250
919		13.671875
920		17.578125
921		13.671875
922		17.578125
923		11.718750
924		17.578125
925		9.765625
926		17.578125
927		9.765625
928		17.578125
929		9.765625
930		15.625000
931		7.812500
932		15.625000
933		7.812500
934		13.671875
935		7.812500
936		13.671875
937		7.812500
938		11.718750
939		7.812500
940		11.718750
941		5.859375
942		11.718750
943		3.906250
944		11.718750
945		3.906250
946		11.718750
947		3.906250
948		9.765625
949		3.906250
950		9.765625
951		1.953125
952		9.765625
953		3.906250
954		7.812500
955		3.906250
956		5.859375
957		0.000000
958		7.812500
959		0.000000
960		5.859375
961		-1.953125
962		5.859375
963		-1.953125
964		3.906250
965		-1.953125
966		3.906250
967		-1.953125
968		3.906250
969		-1.953125
970		3.906250
971		-1.953125
972		0.000000
973		-3.906250
974		0.000000
975		-3.906250
976		1.953125
977		-7.812500
978		0.000000
979		-7.812500
980		0.000000
981		-7.812500
982		0.000000
983		-7.812500
984		-1.953125
985		-7.812500
986		-1.953125
987		-7.812500
988		-3.906250
989		-7.812500
990		-5.859375
991		-9.765625
992		-5.859375
993		-11.718750
994		-3.906250
995		-9.765625
996		-5.859375
997		-11.718750
998		-5.859375
999		-13.671875
1000		-7.812500
1001		-13.671875
1002		-7.812500
1003		-13.671875
1004		-7.812500
1005		-13.671875
1006		-9.765625
1007		-15.625000
1008		-9.765625
1009		-15.625000
1010		-9.765625
1011		-17.578125
1012		-11.718750
1013		-17.578125
1014		-11.718750
1015		-17.578125
1016		-13.671875
1017		-19.531250
1018		-11.718750
1019		-19.531250
1020		-13.671875
1021		-19.531250
1022		-15.625000
1023		-17.578125
1024		-15.625000
1025		-21.484375
1026		-15.625000
1027		-21.484375
1028		-15.625000
1029		-23.437500
1030		-15.625000
1031		-21.484375
1032		-17.578125
1033		-23.437500
1034		-17.578125
1035		-23.437500
1036		-17.578125
1037		-23.437500
1038		-19.531250
1039		-23.437500
1040		-19.531250
1041		-25.390625
1042		-19.531250
1043		-25.390625
1044		-19.531250
1045		-27.343750
1046		-21.484375
1047		-27.343750
1048		-21.484375
1049		-27.343750
1050		-21.484375
1051		-29.296875
1052		-21.484375
1053		-27.343750
1054		-23.437500
1055		-27.343750
1056		-23.437500
1057		-29.296875
1058		-25.390625
1059		-29.296875
1060		-23.437500
1061		-29.296875
1062		-23.437500
1063		-31.250000
1064		-23.437500
1065		-31.250000
1066		-23.437500
1067		-29.296875
1068		-25.390625
1069		-31.250000
1070		-27.343750
1071		-31.250000
1072		-27.343750
1073		-31.250000
1074		-29.296875
1075		-33.203125
1076		-27.343750
1077		-33.203125
1078		-27.343750
1079		-33.203125
1080		-29.296875
1081		-33.203125
1082		-29.296875
1083		-33.203125
1084		-29.296875
1085		-33.203125
1086		-29.296875
1087		-33.203125
1088		-31.250000
1089		-33.203125
1090		-31.250000
1091		-35.156250
1092		-31.250000
1093		-35.156250
1094		-31.250000
1095		-35.156250
1096		-33.203125
1097		-35.156250
1098		-31.250000
1099		-35.156250
1100		-33.203125
1101		-35.156250
1102		-33.203125
1103		-37.109375
1104		-31.250000
1105		-37.109375
1106		-33.203125
1107		-37.109375
1108		-33.203125
1109		-37.109375
1110		-33.203125
1111		-37.109375
1112		-33.203125
1113		-37.109375
1114		-33.203125
1115		-37.109375
1116		-35.156250
1117		-39.062500
1118		-33.203125
1119		-39.062500
1120		-35.156250
1121		-39.062500
1122		-33.203125
1123		-37.109375
1124		-35.156250
1125		-39.062500
1126		-35.156250
1127		-39.062500
1128		-35.156250
1129		-39.062500
1130		-35.156250
1131		-39.062500
1132		-35.156250
1133		-39.062500
1134		-35.156250
1135		-39.062500
1136		-35.156250
1137		-39.062500
1138		-35.156250
1139		-39.062500
1140		-35.156250
1141		-41.015625
1142		-35.156250
1143		-39.062500
1144		-37.109375
1145		-39.062500
1146		-35.156250
1147		-39.062500
1148		-37.109375
1149		-39.062500
1150		-35.156250
1151		-41.015625
1152		-35.156250
1153		-39.062500
1154		-35.156250
1155		-39.062500
1156		-37.109375
1157		-39.062500
1158		-35.156250
1159		-39.062500
1160		-35.156250
1161		-39.062500
1162		-35.156250
1163		-39.062500
1164		-35.156250
1165		-39.062500
1166		-35.156250
1167		-39.062500
1168		-35.156250
1169		-39.062500
1170		-35.156250
1171		-39.062500
1172		-33.203125
1173		-39.062500
1174		-35.156250
1175		-39.062500
1176		-35.156250
1177		-39.062500
1178		-35.156250
1179		-37.109375
1180		-33.203125
1181		-37.109375
1182		-33.203125
1183		-37.109375
1184		-33.203125
1185		-37.109375
1186		-33.203125
1187		-37.109375
1188		-33.203125
1189		-37.109375
1190		-33.203125
1191		-37.109375
1192		-33.203125
1193		-37.109375
1194		-31.250000
1195		-37.109375
1196		-33.203125
1197		-35.156250
1198		-33.203125
1199		-35.156250
1200		-31.250000
1201		-35.156250
1202		-31.250000
1203		-35.156250
1204		-31.250000
1205		-35.156250
1206		-31.250000
1207		-33.203125
1208		-31.250000
1209		-35.156250
1210		-29.296875
1211		-33.203125
1212		-29.296875
1213		-33.203125
1214		-29.296875
1215		-31.250000
1216		-29.296875
1217		-33.203125
1218		-29.296875
1219		-31.250000
1220		-29.296875
1221		-31.250000
1222		-27.343750
1223		-31.250000
1224		-27.343750
1225		-31.250000
1226		-27.343750
1227		-31.250000
1228		-25.390625
1229		-29.296875
1230		-27.343750
1231		-29.296875
1232		-27.343750
1233		-29.296875
1234		-25.390625
1235		-29.296875
1236		-25.390625
1237		-29.296875
1238		-23.437500
1239		-27.343750
1240		-23.437500
1241		-27.343750
1242		-25.390625
1243		-27.343750
1244		-21.484375
1245		-25.390625
1246		-23.437500
1247		-25.390625
1248		-21.484375
1249		-25.390625
1250		-21.484375
1251		-25.390625
1252		-21.484375
1253		-23.437500
1254		-19.531250
1255		-23.437500
1256		-19.531250
1257		-23.437500
1258		-19.531250
1259		-23.437500
1260		-17.578125
1261		-21.484375
1262		-17.578125
1263		-21.484375
1264		-17.578125
1265		-21.484375
1266		-17.578125
1267		-19.531250
1268		-15.625000
1269		-19.531250
1270		-15.625000
1271		-19.531250
1272		-15.625000
1273		-17.578125
1274		-15.625000
1275		-17.578125
1276		-15.625000
1277		-19.531250
1278		-13.671875
1279		-17.578125
1280		-13.671875
1281		-15.625000
1282		-13.671875
1283		-15.625000
1284		-11.718750
1285		-15.625000
1286		-11.718750
1287		-13.671875
1288		-11.718750
1289		-13.671875
1290		-9.765625
1291		-11.718750
1292		-9.765625
1293		-11.718750
1294		-7.812500
1295		-11.718750
1296		-7.812500
1297		-11.718750
1298		-7.812500
1299		-9.765625
1300		-7.812500
1301		-9.765625
1302		-5.859375
1303		-9.765625
1304		-5.859375
1305		-9.765625
1306		-3.906250
1307		-7.812500
1308		-3.906250
1309		-5.859375
1310		-3.906250
1311		-5.859375
1312		-1.953125
1313		-5.859375
1314		-1.953125
1315		-5.859375
1316		-1.953125
1317		-5.859375
1318		0.000000
1319		-3.906250
1320		0.000000
1321		-3.906250
1322		0.000000
1323		-1.953125
1324		0.000000
1325		-1.953125
1326		1.953125
1327		-1.953125
1328		1.953125
1329		0.000000
1330		1.953125
1331		0.000000
1332		3.906250
1333		1.953125
1334		5.859375
1335		1.953125
1336		3.906250
1337		1.953125
1338		5.859375
1339		1.953125
1340		5.859375
1341		3.906250
1342		5.859375
1343		3.906250
1344		7.812500
1345		3.906250
1346		7.812500
1347		3.906250
1348		7.812500
1349		5.859375
1350		9.765625
1351		7.812500
1352		9.765625
1353		7.812500
1354		9.765625
1355		7.812500
1356		11.718750
1357		9.765625
1358		11.718750
1359		9.765625
1360		11.718750
1361		9.765625
1362		13.671875
1363		9.765625
1364		13.671875
1365		11.718750
1366		13.671875
1367		11.718750
1368		15.625000
1369		11.718750
1370		15.625000
1371		13.671875
1372		15.625000
1373		11.718750
1374		17.578125
1375		13.671875
1376		17.578125
1377		13.671875
1378		17.578125
1379		15.625000
1380		17.578125
1381		15.625000
1382		19.531250
1383		15.625000
1384		19.531250
1385		17.578125
1386		19.531250
1387		17.578125
1388		21.484375
1389		15.625000
1390		21.484375
1391		17.578125
1392		23.437500
1393		19.531250
1394		21.484375
1395		19.531250
1396		23.437500
1397		19.531250
1398		25.390625
1399		19.531250
1400		23.437500
1401		21.484375
1402		23.437500
1403		21.484375
1404		25.390625
1405		21.484375
1406		25.390625
1407		23.437500
1408		25.390625
1409		23.437500
1410		25.390625
1411		23.437500
1412		27.343750
1413		23.437500
1414		27.343750
1415		25.390625
1416		27.343750
1417		25.390625
1418		27.343750
1419		25.390625
1420		29.296875
1421		25.390625
1422		29.296875
1423		25.390625
1424		29.296875
1425		25.390625
1426		29.296875
1427		27.343750
1428		31.250000
1429		27.343750
1430		31.250000
1431		27.343750
1432		31.250000
1433		27.343750
1434		31.250000
1435		27.343750
1436		31.250000
1437		29.296875
1438		31.250000
1439		29.296875
1440		33.203125
1441		29.296875
1442		33.203125
1443		31.250000
1444		33.203125
1445		31.250000
1446		35.156250
1447		31.250000
1448		33.203125
1449		31.250000
1450		35.156250
1451		31.250000
1452		35.156250
1453		31.250000
1454		35.156250
1455		31.250000
1456		35.156250
1457		31.250000
1458		35.156250
1459		33.203125
1460		35.156250
1461		33.203125
1462		37.109375
1463		33.203125
1464		37.109375
1465		33.203125
1466		37.109375
1467		33.203125
1468		37.109375
1469		33.203125
1470		37.109375
1471		33.203125
1472		37.109375
1473		33.203125
1474		39.062500
1475		35.156250
1476		37.109375
1477		35.156250
1478		37.109375
1479		33.203125
1480		39.062500
1481		35.156250
1482		39.062500
1483		35.156250
1484		37.109375
1485		35.156250
1486		39.062500
1487		35.156250
1488		39.062500
1489		35.156250
1490		39.062500
1491		35.156250
1492		39.062500
1493		37.109375
1494		39.062500
1495		35.156250
1496		41.015625
1497		35.156250
1498		39.062500
1499		35.156250
1500		39.062500
1501		35.156250
1502		39.062500
1503		37.109375
1504		39.062500
1505		35.156250
1506		39.062500
1507		35.156250
1508		39.062500
1509		37.109375
1510		39.062500
1511		37.109375
1512		41.015625
1513		35.156250
1514		41.015625
1515		37.109375
1516		39.062500
1517		35.156250
1518		39.062500
1519		37.109375
1520		39.062500
1521		35.156250
1522		39.062500
1523		35.156250
1524		41.015625
1525		35.156250
1526		39.062500
1527		35.156250
1528		39.062500
1529		35.156250
1530		39.062500
1531		37.109375
1532		39.062500
1533		35.156250
1534		39.062500
1535		35.156250
1536		39.062500
1537		35.156250
1538		39.062500
1539		35.156250
1540		39.062500
1541		35.156250
1542		39.062500
1543		35.156250
1544		39.062500
1545		35.156250
1546		39.062500
1547		35.156250
1548		37.109375
1549		35.156250
1550		37.109375
1551		33.203125
1552		37.109375
1553		35.156250
1554		37.109375
1555		33.203125
1556		37.109375
1557		33.203125
1558		37.109375
1559		35.156250
1560		37.109375
1561		33.203125
1562		37.109375
1563		33.203125
1564		37.109375
1565		33.203125
1566		37.109375
1567		31.250000
1568		37.109375
1569		33.203125
1570		35.156250
1571		31.250000
1572		35.156250
1573		31.250000
1574		35.156250
1575		31.250000
1576		35.156250
1577		31.250000
1578		35.156250
1579		31.250000
1580		35.156250
1581		31.250000
1582		35.156250
1583		29.296875
1584		33.203125
1585		29.296875
1586		33.203125
1587		29.296875
1588		33.203125
1589		29.296875
1590		33.203125
1591		29.296875
1592		33.203125
1593		29.296875
1594		31.250000
1595		27.343750
1596		31.250000
1597		27.343750
1598		31.250000
1599		27.343750
1600		31.250000
1601		27.343750
1602		31.250000
1603		27.343750
1604		29.296875
1605		25.390625
1606		29.296875
1607		25.390625
1608		29.296875
1609		25.390625
1610		27.343750
1611		25.390625
1612		27.343750
1613		23.437500
1614		27.343750
1615		23.437500
1616		27.343750
1617		23.437500
1618		27.343750
1619		23.437500
1620		25.390625
1621		23.437500
1622		25.390625
1623		21.484375
1624		25.390625
1625		21.484375
1626		25.390625
1627		21.484375
1628		23.437500
1629		19.531250
1630		23.437500
1631		19.531250
1632		23.437500
1633		19.531250
1634		23.437500
1635		19.531250
1636		21.484375
1637		17.578125
1638		21.484375
1639		17.578125
1640		21.484375
1641		15.625000
1642		21.484375
1643		17.578125
1644		19.531250
1645		17.578125
1646		19.531250
1647		15.625000
1648		19.531250
1649		15.625000
1650		17.578125
1651		15.625000
1652		17.578125
1653		13.671875
1654		17.578125
1655		13.671875
1656		17.578125
1657		13.671875
1658		15.625000
1659		11.718750
1660		15.625000
1661		11.718750
1662		13.671875
1663		9.765625
1664		13.671875
1665		9.765625
1666		13.671875
1667		9.765625
1668		13.671875
1669		7.812500
1670		13.671875
1671		7.812500
1672		11.718750
1673		7.812500
1674		11.718750
1675		5.859375
1676		11.718750
1677		7.812500
1678		9.765625
1679		3.906250
1680		9.765625
1681		3.906250
1682		9.765625
1683		5.859375
1684		7.812500
1685		3.906250
1686		7.812500
1687		3.906250
1688		5.859375
1689		1.953125
1690		5.859375
1691		1.953125
1692		5.859375
1693		1.953125
1694		3.906250
1695		0.000000
1696		3.906250
1697		0.000000
1698		3.906250
1699		0.000000
1700		1.953125
1701		-1.953125
1702		1.953125
1703		-1.953125
1704		1.953125
1705		-1.953125
1706		0.000000
1707		-3.906250
1708		0.000000
1709		-3.906250
1710		0.000000
1711		-3.906250
1712		-1.953125
1713		-5.859375
1714		-1.953125
1715		-5.859375
1716		-1.953125
1717		-7.812500
1718		-3.906250
1719		-7.812500
1720		-3.906250
1721		-7.812500
1722		-3.906250
1723		-9.765625
1724		-5.859375
1725		-9.765625
1726		-5.859375
1727		-9.765625
1728		-5.859375
1729		-11.718750
1730		-7.812500
1731		-11.718750
1732		-7.812500
1733		-11.718750
1734		-7.812500
1735		-11.718750
1736		-7.812500
1737		-13.671875
1738		-9.765625
1739		-13.671875
1740		-9.765625
1741		-13.671875
1742		-11.718750
1743		-15.625000
1744		-11.718750
1745		-15.625000
1746		-11.718750
1747		-17.578125
1748		-11.718750
1749		-17.578125
1750		-13.671875
1751		-17.578125
1752		-13.671875
1753		-17.578125
1754		-15.625000
1755		-19.531250
1756		-15.625000
1757		-19.531250
1758		-15.625000
1759		-19.531250
1760		-17.578125
1761		-19.531250
1762		-17.578125
1763		-21.484375
1764		-17.578125
1765		-21.484375
1766		-17.578125
1767		-21.484375
1768		-19.531250
1769		-23.437500
1770		-19.531250
1771		-23.437500
1772		-19.531250
1773		-23.437500
1774		-21.484375
1775		-25.390625
1776		-21.484375
1777		-25.390625
1778		-21.484375
1779		-25.390625
1780		-21.484375
1781		-25.390625
1782		-21.484375
1783		-27.343750
1784		-21.484375
1785		-27.343750
1786		-23.437500
1787		-27.343750
1788		-23.437500
1789		-29.296875
1790		-23.437500
1791		-27.343750
1792		-25.390625
1793		-29.296875
1794		-25.390625
1795		-29.296875
1796		-27.343750
1797		-29.296875
1798		-25.390625
1799		-31.250000
1800		-25.390625
1801		-31.250000
1802		-27.343750
1803		-31.250000
1804		-27.343750
1805		-31.250000
1806		-27.343750
1807		-31.250000
1808		-29.296875
1809		-33.203125
1810		-27.343750
1811		-33.203125
1812		-29.296875
1813		-33.203125
1814		-29.296875
1815		-33.203125
1816		-29.296875
1817		-33.203125
1818		-29.296875
1819		-33.203125
1820		-31.250000
1821		-35.156250
1822		-31.250000
1823		-33.203125
1824		-31.250000
1825		-35.156250
1826		-31.250000
1827		-35.156250
1828		-31.250000
1829		-35.156250
1830		-33.203125
1831		-37.109375
1832		-31.250000
1833		-37.109375
1834		-31.250000
1835		-35.156250
1836		-33.203125
1837		-37.109375
1838		-33.203125
1839		-37.109375
1840		-33.203125
1841		-37.109375
1842		-33.203125
1843		-37.109375
1844		-33.203125
1845		-37.109375
1846		-33.203125
1847		-39.062500
1848		-33.203125
1849		-37.109375
1850		-35.156250
1851		-37.109375
1852		-33.203125
1853		-37.109375
1854		-35.156250
1855		-37.109375
1856		-35.156250
1857		-39.062500
1858		-35.156250
1859		-39.062500
1860		-35.156250
1861		-39.062500
1862		-35.156250
1863		-39.062500
1864		-35.156250
1865		-39.062500
1866		-35.156250
1867		-39.062500
1868		-35.156250
1869		-39.062500
1870		-35.156250
1871		-39.062500
1872		-37.109375
1873		-39.062500
1874		-35.156250
1875		-39.062500
1876		-37.109375
1877		-39.062500
1878		-35.156250
1879		-39.062500
1880		-35.156250
1881		-41.015625
1882		-37.109375
1883		-39.062500
1884		-35.156250
1885		-39.062500
1886		-37.109375
1887		-39.062500
1888		-37.109375
1889		-39.062500
1890		-35.156250
1891		-39.062500
1892		-37.109375
1893		-39.062500
1894		-35.156250
1895		-39.062500
1896		-35.156250
1897		-39.062500
1898		-37.109375
1899		-39.062500
1900		-35.156250
1901		-39.062500
1902		-35.156250
1903		-39.062500
1904		-35.156250
1905		-39.062500
1906		-35.156250
1907		-39.062500
1908		-35.156250
1909		-37.109375
1910		-35.156250
1911		-37.109375
1912		-35.156250
1913		-39.062500
1914		-33.203125
1915		-39.062500
1916		-33.203125
1917		-37.109375
1918		-35.156250
1919		-37.109375
1920		-33.203125
1921		-37.109375
1922		-33.203125
1923		-37.109375
1924		-33.203125
1925		-37.109375
1926		-33.203125
1927		-37.109375
1928		-33.203125
1929		-37.109375
1930		-33.203125
1931		-37.109375
1932		-31.250000
1933		-35.156250
1934		-31.250000
1935		-35.156250
1936		-31.250000
1937		-35.156250
1938		-31.250000
1939		-35.156250
1940		-31.250000
1941		-35.156250
1942		-31.250000
1943		-33.203125
1944		-29.296875
1945		-33.203125
1946		-31.250000
1947		-33.203125
1948		-29.296875
1949		-33.203125
1950		-29.296875
1951		-31.250000
1952		-29.296875
1953		-31.250000
1954		-29.296875
1955		-31.250000
1956		-27.343750
1957		-31.250000
1958		-27.343750
1959		-31.250000
1960		-27.343750
1961		-31.250000
1962		-27.343750
1963		-29.296875
1964		-25.390625
1965		-31.250000
1966		-25.390625
1967		-29.296875
1968		-25.390625
1969		-29.296875
1970		-25.390625
1971		-29.296875
1972		-25.390625
1973		-29.296875
1974		-23.437500
1975		-27.343750
1976		-23.437500
1977		-27.343750
1978		-23.437500
1979		-27.343750
1980		-21.484375
1981		-25.390625
1982		-21.484375
1983		-25.390625
1984		-21.484375
1985		-25.390625
1986		-21.484375
1987		-23.437500
1988		-21.484375
1989		-23.437500
1990		-19.531250
1991		-23.437500
1992		-19.531250
1993		-21.484375
1994		-19.531250
1995		-23.437500
1996		-17.578125
1997		-21.484375
1998		-17.578125
1999		-21.484375
2000		-17.578125
2001		-21.484375
2002		-17.578125
2003		-21.484375
2004		-15.625000
2005		-19.531250
2006		-15.625000
2007		-19.531250
2008		-15.625000
2009		-17.578125
2010		-13.671875
2011		-17.578125
2012		-13.671875
2013		-17.578125
2014		-13.671875
2015		-15.625000
2016		-13.671875
2017		-15.625000
2018		-11.718750
2019		-15.625000
2020		-11.718750
2021		-13.671875
2022		-11.718750
2023		-13.671875
2024		-9.765625
2025		-13.671875
2026		-9.765625
2027		-11.718750
2028		-7.812500
2029		-11.718750
2030		-7.812500
2031		-11.718750
2032		-7.812500
2033		-11.718750
2034		-7.812500
2035		-9.765625
2036		-5.859375
2037		-9.765625
2038		-5.859375
2039		-7.812500
2040		-5.859375
2041		-7.812500
2042		-3.906250
2043		-7.812500
2044		-3.906250
2045		-7.812500
2046		-3.906250
2047		-5.859375
2048		-1.953125
2049		-5.859375
2050		-1.953125
2051		-5.859375
2052		-1.953125
2053		-3.906250
2054		0.000000
2055		-3.906250
2056		0.000000
2057		-1.953125
2058		0.000000
2059		-1.953125
2060		0.000000
2061		-1.953125
2062		1.953125
2063		0.000000
2064		1.953125
2065		0.000000
2066		1.953125
2067		0.000000
2068		3.906250
2069		0.000000
2070		3.906250
2071		1.953125
2072		5.859375
2073		1.953125
2074		5.859375
2075		3.906250
2076		5.859375
2077		3.906250
2078		7.812500
2079		3.906250
2080		9.765625
2081		5.859375
2082		7.812500
2083		5.859375
2084		9.765625
2085		5.859375
2086		9.765625
2087		7.812500
2088		9.765625
2089		7.812500
2090		11.718750
2091		7.812500
2092		11.718750
2093		9.765625
2094		11.718750
2095		9.765625
2096		13.671875
2097		9.765625
2098		13.671875
2099		11.718750
2100		13.671875
2101		9.765625
2102		15.625000
2103		11.718750
2104		15.625000
2105		11.718750
2106		15.625000
2107		13.671875
2108		17.578125
2109		13.671875
2110		17.578125
2111		13.671875
2112		17.578125
2113		15.625000
2114		17.578125
2115		15.625000
2116		19.531250
2117		15.625000
2118		19.531250
2119		17.578125
2120		19.531250
2121		17.578125
2122		21.484375
2123		17.578125
2124		21.484375
2125		17.578125
2126		21.484375
2127		17.578125
2128		23.437500
2129		19.531250
2130		23.437500
2131		19.531250
2132		23.437500
2133		21.484375
2134		23.437500
2135		21.484375
2136		23.437500
2137		19.531250
2138		25.390625
2139		21.484375
2140		25.390625
2141		21.484375
2142		25.390625
2143		23.437500
2144		27.343750
2145		23.437500
2146		27.343750
2147		23.437500
2148		27.343750
2149		25.390625
2150		27.343750
2151		25.390625
2152		27.343750
2153		25.390625
2154		29.296875
2155		25.390625
2156		29.296875
2157		25.390625
2158		29.296875
2159		25.390625
2160		29.296875
2161		27.343750
2162		29.296875
2163		27.343750
2164		31.250000
2165		27.343750
2166		31.250000
2167		27.343750
2168		31.250000
2169		29.296875
2170		31.250000
2171		29.296875
2172		33.203125
2173		29.296875
2174		33.203125
2175		29.296875
2176		35.156250
2177		29.296875
2178		33.203125
2179		31.250000
2180		33.203125
2181		31.250000
2182		35.156250
2183		31.250000
2184		33.203125
2185		31.250000
2186		35.156250
2187		31.250000
2188		35.156250
2189		33.203125
2190		35.156250
2191		31.250000
2192		35.156250
2193		33.203125
2194		37.109375
2195		33.203125
2196		37.109375
2197		33.203125
2198		37.109375
2199		33.203125
2200		37.109375
2201		33.203125
2202		37.109375
2203		33.203125
2204		37.109375
2205		33.203125
2206		37.109375
2207		35.156250
2208		37.109375
2209		35.156250
2210		37.109375
2211		35.156250
2212		39.062500
2213		35.156250
2214		39.062500
2215		35.156250
2216		39.062500
2217		35.156250
2218		39.062500
2219		35.156250
2220		39.062500
2221		35.156250
2222		39.062500
2223		35.156250
2224		39.062500
2225		35.156250
2226		39.062500
2227		35.156250
2228		39.062500
2229		35.156250
2230		39.062500
2231		35.156250
2232		39.062500
2233		37.109375
2234		39.062500
2235		35.156250
2236		39.062500
2237		35.156250
2238		39.062500
2239		37.109375
2240		39.062500
2241		37.109375
2242		39.062500
2243		35.156250
2244		39.062500
2245		37.109375
2246		39.062500
2247		37.109375
2248		39.062500
2249		35.156250
2250		39.062500
2251		35.156250
2252		41.015625
2253		35.156250
2254		39.062500
2255		35.156250
2256		39.062500
2257		37.109375
2258		39.062500
2259		37.109375
2260		41.015625
2261		35.156250
2262		39.062500
2263		35.156250
2264		39.062500
2265		37.109375
2266		39.062500
2267		35.156250
2268		39.062500
2269		35.156250
2270		39.062500
2271		35.156250
2272		39.062500
2273		35.156250
2274		39.062500
2275		35.156250
2276		39.062500
2277		35.156250
2278		39.062500
2279		35.156250
2280		39.062500
2281		33.203125
2282		39.062500
2283		35.156250
2284		37.109375
2285		33.203125
2286		37.109375
2287		33.203125
2288		39.062500
2289		33.203125
2290		37.109375
2291		33.203125
2292		37.109375
2293		33.203125
2294		37.109375
2295		33.203125
2296		37.109375
2297		31.250000
2298		37.109375
2299		33.203125
2300		35.156250
2301		31.250000
2302		35.156250
2303		31.250000
2304		35.156250
2305		33.203125
2306		35.156250
2307		31.250000
2308		35.156250
2309		31.250000
2310		35.156250
2311		31.250000
2312		33.203125
2313		29.296875
2314		33.203125
2315		31.250000
2316		33.203125
2317		31.250000
2318		33.203125
2319		29.296875
2320		33.203125
2321		29.296875
2322		33.203125
2323		29.296875
2324		33.203125
2325		29.296875
2326		33.203125
2327		27.343750
2328		31.250000
2329		27.343750
2330		31.250000
2331		27.343750
2332		31.250000
2333		27.343750
2334		29.296875
2335		27.343750
2336		29.296875
2337		25.390625
2338		29.296875
2339		25.390625
2340		29.296875
2341		25.390625
2342		29.296875
2343		25.390625
2344		29.296875
2345		23.437500
2346		27.343750
2347		23.437500
2348		27.343750
2349		23.437500
2350		27.343750
2351		23.437500
2352		27.343750
2353		23.437500
2354		25.390625
2355		21.484375
2356		25.390625
2357		21.484375
2358		25.390625
2359		21.484375
2360		23.437500
2361		19.531250
2362		23.437500
2363		19.531250
2364		23.437500
2365		19.531250
2366		23.437500
2367		19.531250
2368		21.484375
2369		17.578125
2370		21.484375
2371		17.578125
2372		21.484375
2373		17.578125
2374		21.484375
2375		17.578125
2376		19.531250
2377		15.625000
2378		19.531250
2379		15.625000
2380		19.531250
2381		15.625000
2382		17.578125
2383		15.625000
2384		17.578125
2385		13.671875
2386		17.578125
2387		13.671875
2388		17.578125
2389		11.718750
2390		17.578125
2391		11.718750
2392		15.625000
2393		11.718750
2394		15.625000
2395		9.765625
2396		15.625000
2397		9.765625
2398		13.671875
2399		9.765625
2400		13.671875
2401		9.765625
2402		11.718750
2403		7.812500
2404		11.718750
2405		7.812500
2406		11.718750
2407		7.812500
2408		11.718750
2409		5.859375
2410		9.765625
2411		5.859375
2412		9.765625
2413		5.859375
2414		7.812500
2415		3.906250
2416		7.812500
2417		3.906250
2418		7.812500
2419		3.906250
2420		7.812500
2421		1.953125
2422		5.859375
2423		1.953125
2424		5.859375
2425		1.953125
2426		5.859375
2427		0.000000
2428		5.859375
2429		0.000000
2430		3.906250
2431		0.000000
2432		3.906250
2433		-1.953125
2434		1.953125
2435		-1.953125
2436		1.953125
2437		-3.906250
2438		1.953125
2439		-3.906250
2440		0.000000
2441		-3.906250
2442		0.000000
2443		-3.906250
2444		-1.953125
2445		-5.859375
2446		0.000000
2447		-5.859375
2448		-1.953125
2449		-5.859375
2450		-1.953125
2451		-5.859375
2452		-3.906250
2453		-7.812500
2454		-3.906250
2455		-7.812500
2456		-3.906250
2457		-9.765625
2458		-5.859375
2459		-9.765625
2460		-5.859375
2461		-9.765625
2462		-5.859375
2463		-11.718750
2464		-7.812500
2465		-11.718750
2466		-7.812500
2467		-11.718750
2468		-9.765625
2469		-11.718750
2470		-9.765625
2471		-13.671875
2472		-9.765625
2473		-13.671875
2474		-9.765625
2475		-15.625000
2476		-11.718750
2477		-15.625000
2478		-11.718750
2479		-15.625000
2480		-11.718750
2481		-17.578125
2482		-13.671875
2483		-17.578125
2484		-13.671875
2485		-17.578125
2486		-13.671875
2487		-19.531250
2488		-13.671875
2489		-19.531250
2490		-15.625000
2491		-19.531250
2492		-15.625000
2493		-19.531250
2494		-17.578125
2495		-21.484375
2496		-17.578125
2497		-21.484375
2498		-17.578125
2499		-21.484375
2500		-17.578125
2501		-21.484375
2502		-17.578125
2503		-23.437500
2504		-19.531250
2505		-23.437500
2506		-19.531250
2507		-23.437500
2508		-19.531250
2509		-23.437500
2510		-21.484375
2511		-25.390625
2512		-21.484375
2513		-25.390625
2514		-21.484375
2515		-25.390625
2516		-21.484375
2517		-25.390625
2518		-21.484375
2519		-27.343750
2520		-23.437500
2521		-27.343750
2522		-23.437500
2523		-27.343750
2524		-23.437500
2525		-29.296875
2526		-25.390625
2527		-29.296875
2528		-25.390625
2529		-29.296875
2530		-25.390625
2531		-29.296875
2532		-25.390625
2533		-29.296875
2534		-25.390625
2535		-29.296875
2536		-27.343750
2537		-31.250000
2538		-27.343750
2539		-31.250000
2540		-27.343750
2541		-31.250000
2542		-29.296875
2543		-31.250000
2544		-29.296875
2545		-33.203125
2546		-29.296875
2547		-33.203125
2548		-29.296875
2549		-35.156250
2550		-29.296875
2551		-33.203125
2552		-31.250000
2553		-33.203125
2554		-29.296875
2555		-35.156250
2556		-31.250000
2557		-35.156250
2558		-31.250000
2559		-35.156250
2560		-31.250000
2561		-37.109375
2562		-31.250000
2563		-37.109375
2564		-31.250000
2565		-35.156250
2566		-33.203125
2567		-35.156250
2568		-33.203125
2569		-35.156250
2570		-33.203125
2571		-37.109375
2572		-33.203125
2573		-37.109375
2574		-33.203125
2575		-37.109375
2576		-33.203125
2577		-37.109375
2578		-33.203125
2579		-39.062500
2580		-35.156250
2581		-37.109375
2582		-33.203125
2583		-37.109375
2584		-35.156250
2585		-39.062500
2586		-35.156250
2587		-39.062500
2588		-35.156250
2589		-39.062500
2590		-35.156250
2591		-39.062500
2592		-35.156250
2593		-39.062500
2594		-35.156250
2595		-39.062500
2596		-35.156250
2597		-39.062500
2598		-35.156250
2599		-41.015625
2600		-35.156250
2601		-39.062500
2602		-37.109375
2603		-39.062500
2604		-35.156250
2605		-39.062500
2606		-35.156250
2607		-39.062500
2608		-35.156250
2609		-39.062500
2610		-37.109375
2611		-39.062500
2612		-37.109375
2613		-39.062500
2614		-37.109375
2615		-39.062500
2616		-37.109375
2617		-41.015625
2618		-37.109375
2619		-39.062500
2620		-37.109375
2621		-39.062500
2622		-35.156250
2623		-39.062500
2624		-37.109375
2625		-39.062500
2626		-35.156250
2627		-39.062500
2628		-35.156250
2629		-39.062500
2630		-35.156250
2631		-39.062500
2632		-35.156250
2633		-39.062500
2634		-35.156250
2635		-39.062500
2636		-35.156250
2637		-39.062500
2638		-35.156250
2639		-39.062500
2640		-35.156250
2641		-39.062500
2642		-35.156250
2643		-39.062500
2644		-35.156250
2645		-39.062500
2646		-35.156250
2647		-37.109375
2648		-33.203125
2649		-37.109375
2650		-33.203125
2651		-37.109375
2652		-35.156250
2653		-37.109375
2654		-33.203125
2655		-37.109375
2656		-33.203125
2657		-37.109375
2658		-33.203125
2659		-37.109375
2660		-33.203125
2661		-37.109375
2662		-33.203125
2663		-35.156250
2664		-33.203125
2665		-35.156250
2666		-33.203125
2667		-35.156250
2668		-31.250000
2669		-35.156250
2670		-33.203125
2671		-35.156250
2672		-31.250000
2673		-35.156250
2674		-31.250000
2675		-35.156250
2676		-31.250000
2677		-35.156250
2678		-31.250000
2679		-33.203125
2680		-29.296875
2681		-33.203125
2682		-29.296875
2683		-33.203125
2684		-29.296875
2685		-33.203125
2686		-29.296875
2687		-31.250000
2688		-29.296875
2689		-31.250000
2690		-27.343750
2691		-31.250000
2692		-27.343750
2693		-31.250000
2694		-27.343750
2695		-29.296875
2696		-27.343750
2697		-31.250000
2698		-25.390625
2699		-29.296875
2700		-25.390625
2701		-31.250000
2702		-25.390625
2703		-29.296875
2704		-25.390625
2705		-29.296875
2706		-25.390625
2707		-27.343750
2708		-25.390625
2709		-27.343750
2710		-23.437500
2711		-27.343750
2712		-23.437500
2713		-27.343750
2714		-23.437500
2715		-25.390625
2716		-21.484375
2717		-25.390625
2718		-21.484375
2719		-25.390625
2720		-21.484375
2721		-25.390625
2722		-21.484375
2723		-23.437500
2724		-19.531250
2725		-23.437500
2726		-19.531250
2727		-23.437500
2728		-19.531250
2729		-23.437500
2730		-17.578125
2731		-21.484375
2732		-17.578125
2733		-21.484375
2734		-17.578125
2735		-21.484375
2736		-17.578125
2737		-19.531250
2738		-17.578125
2739		-19.531250
2740		-15.625000
2741		-19.531250
2742		-15.625000
2743		-17.578125
2744		-15.625000
2745		-17.578125
2746		-13.671875
2747		-17.578125
2748		-13.671875
2749		-15.625000
2750		-13.671875
2751		-17.578125
2752		-11.718750
2753		-15.625000
2754		-11.718750
2755		-13.671875
2756		-9.765625
2757		-13.671875
2758		-9.765625
2759		-13.671875
2760		-9.765625
2761		-13.671875
2762		-9.765625
2763		-13.671875
2764		-7.812500
2765		-11.718750
2766		-7.812500
2767		-11.718750
2768		-5.859375
2769		-9.765625
2770		-7.812500
2771		-9.765625
2772		-5.859375
2773		-9.765625
2774		-5.859375
2775		-7.812500
2776		-5.859375
2777		-7.812500
2778		-3.906250
2779		-7.812500
2780		-3.906250
2781		-5.859375
2782		-1.953125
2783		-5.859375
2784		-1.953125
2785		-5.859375
2786		-1.953125
2787		-3.906250
2788		-1.953125
2789		-3.906250
2790		0.000000
2791		-3.906250
2792		1.953125
2793		-3.906250
2794		1.953125
2795		-1.953125
2796		1.953125
2797		-1.953125
2798		1.953125
2799		0.000000
2800		3.906250
2801		0.000000
2802		3.906250
2803		0.000000
2804		3.906250
2805		1.953125
2806		3.906250
2807		1.953125
2808		5.859375
2809		3.906250
2810		5.859375
2811		3.906250
2812		7.812500
2813		3.906250
2814		7.812500
2815		3.906250
2816		9.765625
2817		5.859375
2818		9.765625
2819		5.859375
2820		9.765625
2821		7.812500
2822		9.765625
2823		7.812500
2824		11.718750
2825		7.812500
2826		11.718750
2827		7.812500
2828		11.718750
2829		9.765625
2830		13.671875
2831		9.765625
2832		13.671875
2833		9.765625
2834		13.671875
2835		11.718750
2836		15.625000
2837		11.718750
2838		15.625000
2839		11.718750
2840		15.625000
2841		13.671875
2842		17.578125
2843		13.671875
2844		17.578125
2845		13.671875
2846		17.578125
2847		13.671875
2848		17.578125
2849		15.625000
2850		19.531250
2851		15.625000
2852		19.531250
2853		15.625000
2854		19.531250
2855		17.578125
2856		19.531250
2857		17.578125
2858		21.484375
2859		17.578125
2860		21.484375
2861		19.531250
2862		21.484375
2863		19.531250
2864		23.437500
2865		19.531250
2866		23.437500
2867		19.531250
2868		23.437500
2869		21.484375
2870		23.437500
2871		21.484375
2872		23.437500
2873		21.484375
2874		25.390625
2875		21.484375
2876		25.390625
2877		23.437500
2878		25.390625
2879		23.437500
2880		27.343750
2881		23.437500
2882		27.343750
2883		23.437500
2884		27.343750
2885		23.437500
2886		29.296875
2887		25.390625
2888		29.296875
2889		25.390625
2890		29.296875
2891		25.390625
2892		29.296875
2893		25.390625
2894		29.296875
2895		27.343750
2896		29.296875
2897		27.343750
2898		29.296875
2899		27.343750
2900		31.250000
2901		29.296875
2902		31.250000
2903		27.343750
2904		31.250000
2905		27.343750
2906		31.250000
2907		29.296875
2908		33.203125
2909		29.296875
2910		33.203125
2911		29.296875
2912		33.203125
2913		29.296875
2914		33.203125
2915		29.296875
2916		33.203125
2917		31.250000
2918		33.203125
2919		31.250000
2920		35.156250
2921		31.250000
2922		35.156250
2923		31.250000
2924		35.156250
2925		33.203125
2926		35.156250
2927		31.250000
2928		37.109375
2929		33.203125
2930		35.156250
2931		33.203125
2932		37.109375
2933		33.203125
2934		37.109375
2935		33.203125
2936		37.109375
2937		35.156250
2938		37.109375
2939		33.203125
2940		37.109375
2941		33.203125
2942		37.109375
2943		35.156250
2944		37.109375
2945		35.156250
2946		37.109375
2947		35.156250
2948		37.109375
2949		35.156250
2950		39.062500
2951		35.156250
2952		39.062500
2953		35.156250
2954		39.062500
2955		35.156250
2956		39.062500
2957		35.156250
2958		39.062500
2959		35.156250
2960		39.062500
2961		35.156250
2962		39.062500
2963		35.156250
2964		39.062500
2965		35.156250
2966		39.062500
2967		35.156250
2968		39.062500
2969		35.156250
2970		39.062500
2971		35.156250
2972		39.062500
2973		37.109375
2974		39.062500
2975		35.156250
2976		39.062500
2977		35.156250
2978		39.062500
2979		35.156250
2980		39.062500
2981		35.156250
2982		39.062500
2983		35.156250
2984		39.062500
2985		35.156250
2986		39.062500
2987		35.156250
2988		39.062500
2989		37.109375
2990		39.062500
2991		35.156250
2992		39.062500
2993		37.109375
2994		39.062500
2995		37.109375
2996		39.062500
2997		35.156250
2998		39.062500
2999		35.156250
3000		39.062500
3001		35.156250
3002		39.062500
3003		35.156250
3004		39.062500
3005		35.156250
3006		39.062500
3007		35.156250
3008		39.062500
3009		35.156250
3010		39.062500
3011		35.156250
3012		39.062500
3013		35.156250
3014		37.109375
3015		33.203125
3016		39.062500
3017		35.156250
3018		37.109375
3019		33.203125
3020		37.109375
3021		35.156250
3022		37.109375
3023		35.156250
3024		37.109375
3025		33.203125
3026		37.109375
3027		33.203125
3028		37.109375
3029		33.203125
3030		37.109375
3031		33.203125
3032		35.156250
3033		31.250000
3034		35.156250
3035		33.203125
3036		35.156250
3037		31.250000
3038		35.156250
3039		31.250000
3040		35.156250
3041		31.250000
3042		35.156250
3043		31.250000
3044		33.203125
3045		29.296875
3046		35.156250
3047		31.250000
3048		33.203125
3049		31.250000
3050		33.203125
3051		29.296875
3052		33.203125
3053		29.296875
3054		33.203125
3055		27.343750
3056		33.203125
3057		29.296875
3058		31.250000
3059		27.343750
3060		31.250000
3061		27.343750
3062		31.250000
3063		27.343750
3064		31.250000
3065		27.343750
3066		31.250000
3067		25.390625
3068		31.250000
3069		27.343750
3070		29.296875
3071		25.390625
3072		29.296875
3073		25.390625
3074		27.343750
3075		25.390625
3076		29.296875
3077		23.437500
3078		27.343750
3079		23.437500
3080		27.343750
3081		23.437500
3082		27.343750
3083		23.437500
3084		27.343750
3085		23.437500
3086		25.390625
3087		21.484375
3088		25.390625
3089		21.484375
3090		25.390625
3091		21.484375
3092		25.390625
3093		21.484375
3094		23.437500
3095		19.531250
3096		23.437500
3097		19.531250
3098		23.437500
3099		19.531250
3100		21.484375
3101		17.578125
3102		21.484375
3103		17.578125
3104		21.484375
3105		17.578125
3106		19.531250
3107		17.578125
3108		21.484375
3109		15.625000
3110		19.531250
3111		15.625000
3112		19.531250
3113		15.625000
3114		19.531250
3115		13.671875
3116		17.578125
3117		13.671875
3118		17.578125
3119		13.671875
3120		17.578125
3121		11.718750
3122		17.578125
3123		11.718750
3124		15.625000
3125		11.718750
3126		15.625000
3127		9.765625
3128		13.671875
3129		9.765625
3130		13.671875
3131		9.765625
3132		11.718750
3133		9.765625
3134		11.718750
3135		7.812500
3136		11.718750
3137		7.812500
3138		11.718750
3139		5.859375
3140		9.765625
3141		5.859375
3142		9.765625
3143		5.859375
3144		9.765625
3145		3.906250
3146		9.765625
3147		3.906250
3148		7.812500
3149		1.953125
3150		7.812500
3151		1.953125
3152		7.812500
3153		1.953125
3154		5.859375
3155		1.953125
3156		5.859375
3157		1.953125
3158		3.906250
3159		0.000000
3160		3.906250
3161		0.000000
3162		3.906250
3163		-1.953125
3164		1.953125
3165		-1.953125
3166		1.953125
3167		-1.953125
3168		1.953125
3169		-1.953125
3170		0.000000
3171		-3.906250
3172		0.000000
3173		-3.906250
3174		0.000000
3175		-3.906250
3176		-1.953125
3177		-5.859375
3178		-1.953125
3179		-5.859375
3180		0.000000
3181		-5.859375
3182		-3.906250
3183		-7.812500
3184		-3.906250
3185		-7.812500
3186		-3.906250
3187		-9.765625
3188		-5.859375
3189		-9.765625
3190		-5.859375
3191		-9.765625
3192		-7.812500
3193		-9.765625
3194		-7.812500
3195		-11.718750
3196		-7.812500
3197		-11.718750
3198		-7.812500
3199		-11.718750
3200		-7.812500
3201		-13.671875
3202		-9.765625
3203		-13.671875
3204		-9.765625
3205		-13.671875
3206		-9.765625
3207		-15.625000
3208		-9.765625
3209		-15.625000
3210		-11.718750
3211		-15.625000
3212		-11.718750
3213		-17.578125
3214		-11.718750
3215		-17.578125
3216		-13.671875
3217		-17.578125
3218		-13.671875
3219		-17.578125
3220		-15.625000
3221		-19.531250
3222		-15.625000
3223		-19.531250
3224		-15.625000
3225		-19.531250
3226		-17.578125
3227		-21.484375
3228		-15.625000
3229		-21.484375
3230		-17.578125
3231		-21.484375
3232		-17.578125
3233		-23.437500
3234		-17.578125
3235		-23.437500
3236		-19.531250
3237		-23.437500
3238		-19.531250
3239		-23.437500
3240		-19.531250
3241		-25.390625
3242		-21.484375
3243		-25.390625
3244		-21.484375
3245		-25.390625
3246		-21.484375
3247		-25.390625
3248		-23.437500
3249		-27.343750
3250		-23.437500
3251		-27.343750
3252		-23.437500
3253		-27.343750
3254		-23.437500
3255		-29.296875
3256		-23.437500
3257		-27.343750
3258		-25.390625
3259		-29.296875
3260		-25.390625
3261		-29.296875
3262		-25.390625
3263		-29.296875
3264		-27.343750
3265		-29.296875
3266		-27.343750
3267		-31.250000
3268		-27.343750
3269		-31.250000
3270		-27.343750
3271		-31.250000
3272		-27.343750
3273		-33.203125
3274		-29.296875
3275		-33.203125
3276		-29.296875
3277		-33.203125
3278		-29.296875
3279		-33.203125
3280		-29.296875
3281		-33.203125
3282		-31.250000
3283		-33.203125
3284		-29.296875
3285		-33.203125
3286		-31.250000
3287		-35.156250
3288		-31.250000
3289		-35.156250
3290		-31.250000
3291		-35.156250
3292		-33.203125
3293		-37.109375
3294		-31.250000
3295		-35.156250
3296		-31.250000
3297		-37.109375
3298		-33.203125
3299		-37.109375
3300		-33.203125
3301		-37.109375
3302		-33.203125
3303		-37.109375
3304		-33.203125
3305		-37.109375
3306		-33.203125
3307		-37.109375
3308		-35.156250
3309		-37.109375
3310		-33.203125
3311		-37.109375
3312		-35.156250
3313		-39.062500
3314		-35.156250
3315		-39.062500
3316		-35.156250
3317		-39.062500
3318		-35.156250
3319		-39.062500
3320		-35.156250
3321		-39.062500
3322		-35.156250
3323		-39.062500
3324		-35.156250
3325		-39.062500
3326		-35.156250
3327		-39.062500
3328		-37.109375
3329		-39.062500
3330		-35.156250
3331		-39.062500
3332		-35.156250
3333		-39.062500
3334		-37.109375
3335		-39.062500
3336		-37.109375
3337		-39.062500
3338		-35.156250
3339		-39.062500
3340		-35.156250
3341		-39.062500
3342		-37.109375
3343		-39.062500
3344		-37.109375
3345		-41.015625
3346		-35.156250
3347		-41.015625
3348		-37.109375
3349		-39.062500
3350		-37.109375
3351		-39.062500
3352		-37.109375
3353		-39.062500
3354		-37.109375
3355		-39.062500
3356		-37.109375
3357		-39.062500
3358		-37.109375
3359		-41.015625
3360		-37.109375
3361		-41.015625
3362		-35.156250
3363		-39.062500
3364		-35.156250
3365		-39.062500
3366		-37.109375
3367		-39.062500
3368		-35.156250
3369		-41.015625
3370		-35.156250
3371		-39.062500
3372		-35.156250
3373		-39.062500
3374		-35.156250
3375		-39.062500
3376		-35.156250
3377		-39.062500
3378		-35.156250
3379		-39.062500
3380		-33.203125
3381		-37.109375
3382		-35.156250
3383		-37.109375
3384		-35.156250
3385		-37.109375
3386		-35.156250
3387		-37.109375
3388		-35.156250
3389		-39.062500
3390		-33.203125
3391		-37.109375
3392		-35.156250
3393		-37.109375
3394		-33.203125
3395		-37.109375
3396		-33.203125
3397		-37.109375
3398		-33.203125
3399		-37.109375
3400		-33.203125
3401		-35.156250
3402		-31.250000
3403		-35.156250
3404		-31.250000
3405		-35.156250
3406		-31.250000
3407		-35.156250
3408		-31.250000
3409		-35.156250
3410		-31.250000
3411		-35.156250
3412		-31.250000
3413		-33.203125
3414		-31.250000
3415		-33.203125
3416		-29.296875
3417		-33.203125
3418		-29.296875
3419		-33.203125
3420		-29.296875
3421		-33.203125
3422		-29.296875
3423		-31.250000
3424		-29.296875
3425		-31.250000
3426		-29.296875
3427		-31.250000
3428		-27.343750
3429		-31.250000
3430		-27.343750
3431		-31.250000
3432		-27.343750
3433		-29.296875
3434		-27.343750
3435		-29.296875
3436		-25.390625
3437		-29.296875
3438		-25.390625
3439		-29.296875
3440		-25.390625
3441		-29.296875
3442		-25.390625
3443		-27.343750
3444		-25.390625
3445		-27.343750
3446		-23.437500
3447		-27.343750
3448		-23.437500
3449		-25.390625
3450		-23.437500
3451		-25.390625
3452		-21.484375
3453		-25.390625
3454		-21.484375
3455		-25.390625
3456		-21.484375
3457		-25.390625
3458		-21.484375
3459		-23.437500
3460		-21.484375
3461		-23.437500
3462		-19.531250
3463		-23.437500
3464		-17.578125
3465		-21.484375
3466		-19.531250
3467		-21.484375
3468		-17.578125
3469		-21.484375
3470		-17.578125
3471		-19.531250
3472		-17.578125
3473		-19.531250
3474		-15.625000
3475		-19.531250
3476		-15.625000
3477		-17.578125
3478		-13.671875
3479		-19.531250
3480		-13.671875
3481		-17.578125
3482		-13.671875
3483		-17.578125
3484		-13.671875
3485		-15.625000
3486		-13.671875
3487		-15.625000
3488		-11.718750
3489		-15.625000
3490		-11.718750
3491		-13.671875
3492		-9.765625
3493		-13.671875
3494		-9.765625
3495		-13.671875
3496		-9.765625
3497		-11.718750
3498		-7.812500
3499		-11.718750
3500		-7.812500
3501		-11.718750
3502		-7.812500
3503		-11.718750
3504		-7.812500
3505		-9.765625
3506		-7.812500
3507		-9.765625
3508		-5.859375
3509		-7.812500
3510		-5.859375
3511		-7.812500
3512		-3.906250
3513		-7.812500
3514		-3.906250
3515		-5.859375
3516		-1.953125
3517		-7.812500
3518		-1.953125
3519		-5.859375
3520		-1.953125
3521		-3.906250
3522		0.000000
3523		-3.906250
3524		0.000000
3525		-3.906250
3526		0.000000
3527		-3.906250
3528		0.000000
3529		-1.953125
3530		1.953125
3531		-1.953125
3532		1.953125
3533		0.000000
3534		1.953125
3535		0.000000
3536		3.906250
3537		0.000000
3538		3.906250
3539		0.000000
3540		3.906250
3541		1.953125
3542		5.859375
3543		3.906250
3544		5.859375
3545		1.953125
3546		7.812500
3547		3.906250
3548		7.812500
3549		3.906250
3550		7.812500
3551		3.906250
3552		9.765625
3553		5.859375
3554		9.765625
3555		5.859375
3556		9.765625
3557		5.859375
3558		11.718750
3559		7.812500
3560		9.765625
3561		7.812500
3562		11.718750
3563		7.812500
3564		13.671875
3565		9.765625
3566		13.671875
3567		9.765625
3568		13.671875
3569		9.765625
3570		13.671875
3571		11.718750
3572		15.625000
3573		11.718750
3574		15.625000
3575		11.718750
3576		15.625000
3577		13.671875
3578		15.625000
3579		13.671875
3580		17.578125
3581		13.671875
3582		17.578125
3583		15.625000
3584		17.578125
3585		15.625000
3586		19.531250
3587		15.625000
3588		19.531250
3589		15.625000
3590		19.531250
3591		17.578125
3592		21.484375
3593		17.578125
3594		19.531250
3595		17.578125
3596		21.484375
3597		19.531250
3598		21.484375
3599		19.531250
3600		21.484375
3601		19.531250
3602		23.437500
3603		19.531250
3604		23.437500
3605		19.531250
3606		25.390625
3607		21.484375
3608		23.437500
3609		21.484375
3610		25.390625
3611		23.437500
3612		25.390625
3613		21.484375
3614		27.343750
3615		23.437500
3616		27.343750
3617		23.437500
3618		27.343750
3619		23.437500
3620		27.343750
3621		23.437500
3622		27.343750
3623		25.390625
3624		29.296875
3625		25.390625
3626		29.296875
3627		25.390625
3628		29.296875
3629		25.390625
3630		29.296875
3631		25.390625
3632		31.250000
3633		27.343750
3634		31.250000
3635		27.343750
3636		31.250000
3637		27.343750
3638		31.250000
3639		27.343750
3640		33.203125
3641		29.296875
3642		33.203125
3643		29.296875
3644		31.250000
3645		29.296875
3646		33.203125
3647		29.296875
3648		35.156250
3649		29.296875
3650		33.203125
3651		29.296875
3652		33.203125
3653		29.296875
3654		33.203125
3655		31.250000
3656		35.156250
3657		31.250000
3658		35.156250
3659		31.250000
3660		35.156250
3661		33.203125
3662		35.156250
3663		33.203125
3664		35.156250
3665		31.250000
3666		37.109375
3667		31.250000
3668		37.109375
3669		31.250000
3670		39.062500
3671		33.203125
3672		37.109375
3673		33.203125
3674		37.109375
3675		33.203125
3676		37.109375
3677		35.156250
3678		37.109375
3679		33.203125
3680		39.062500
3681		33.203125
3682		39.062500
3683		33.203125
3684		39.062500
3685		33.203125
3686		39.062500
3687		33.203125
3688		39.062500
3689		33.203125
3690		39.062500
3691		33.203125
3692		39.062500
3693		35.156250
3694		39.062500
3695		35.156250
3696		39.062500
3697		35.156250
3698		39.062500
3699		35.156250
3700		39.062500
3701		35.156250
3702		39.062500
3703		35.156250
3704		39.062500
3705		35.156250
3706		41.015625
3707		35.156250
3708		39.062500
3709		35.156250
3710		39.062500
3711		35.156250
3712		39.062500
3713		35.156250
3714		39.062500
3715		35.156250
3716		39.062500
3717		35.156250
3718		41.015625
3719		35.156250
3720		39.062500
3721		35.156250
3722		39.062500
3723		35.156250
3724		39.062500
3725		35.156250
3726		39.062500
3727		35.156250
3728		39.062500
3729		35.156250
3730		39.062500
3731		35.156250
3732		39.062500
3733		35.156250
3734		39.062500
3735		35.156250
3736		39.062500
3737		35.156250
3738		37.109375
3739		35.156250
3740		37.109375
3741		35.156250
3742		37.109375
3743		33.203125
3744		37.109375
3745		33.203125
3746		39.062500
3747		33.203125
3748		37.109375
3749		35.156250
3750		37.109375
3751		33.203125
3752		37.109375
3753		33.203125
3754		37.109375
3755		33.203125
3756		37.109375
3757		33.203125
3758		37.109375
3759		33.203125
3760		35.156250
3761		31.250000
3762		37.109375
3763		33.203125
3764		35.156250
3765		33.203125
3766		35.156250
3767		31.250000
3768		35.156250
3769		31.250000
3770		35.156250
3771		31.250000
3772		35.156250
3773		31.250000
3774		35.156250
3775		31.250000
3776		33.203125
3777		31.250000
3778		33.203125
3779		31.250000
3780		33.203125
3781		31.250000
3782		33.203125
3783		29.296875
3784		33.203125
3785		29.296875
3786		31.250000
3787		29.296875
3788		31.250000
3789		29.296875
3790		31.250000
3791		29.296875
3792		31.250000
3793		27.343750
3794		31.250000
3795		27.343750
3796		31.250000
3797		27.343750
3798		29.296875
3799		27.343750
3800		31.250000
3801		25.390625
3802		29.296875
3803		25.390625
3804		29.296875
3805		25.390625
3806		29.296875
3807		25.390625
3808		27.343750
3809		25.390625
3810		27.343750
3811		23.437500
3812		27.343750
3813		23.437500
3814		27.343750
3815		23.437500
3816		25.390625
3817		23.437500
3818		25.390625
3819		21.484375
3820		25.390625
3821		21.484375
3822		25.390625
3823		21.484375
3824		23.437500
3825		21.484375
3826		25.390625
3827		19.531250
3828		23.437500
3829		19.531250
3830		23.437500
3831		17.578125
3832		23.437500
3833		15.625000
3834		25.390625
3835		15.625000
3836		23.437500
3837		15.625000
3838		23.437500
3839		17.578125
3840		19.531250
3841		17.578125
3842		19.531250
3843		15.625000
3844		19.531250
3845		15.625000
3846		19.531250
3847		15.625000
3848		17.578125
3849		11.718750
3850		19.531250
3851		11.718750
3852		19.531250
3853		9.765625
3854		19.531250
3855		13.671875
3856		15.625000
3857		11.718750
3858		15.625000
3859		9.765625
3860		15.625000
3861		11.718750
3862		13.671875
3863		9.765625
3864		13.671875
3865		5.859375
3866		15.625000
3867		5.859375
3868		15.625000
3869		3.906250
3870		15.625000
3871		7.812500
3872		11.718750
3873		7.812500
3874		9.765625
3875		5.859375
3876		9.765625
3877		5.859375
3878		7.812500
3879		3.906250
3880		7.812500
3881		3.906250
3882		7.812500
3883		0.000000
3884		9.765625
3885		0.000000
3886		9.765625
3887		0.000000
3888		9.765625
3889		1.953125
3890		3.906250
3891		1.953125
3892		3.906250
3893		0.000000
3894		3.906250
3895		0.000000
3896		1.953125
3897		0.000000
3898		3.906250
3899		-5.859375
3900		5.859375
3901		-5.859375
3902		3.906250
3903		-5.859375
3904		3.906250
3905		-3.906250
3906		0.000000
3907		-3.906250
3908		0.000000
3909		-3.906250
3910		-1.953125
3911		-5.859375
3912		-1.953125
3913		-5.859375
3914		-1.953125
3915		-9.765625
3916		-1.953125
3917		-9.765625
3918		0.000000
3919		-11.718750
3920		-1.953125
3921		-11.718750
3922		-1.953125
3923		-9.765625
3924		-5.859375
3925		-11.718750
3926		-5.859375
3927		-9.765625
3928		-7.812500
3929		-11.718750
3930		-7.812500
3931		-11.718750
3932		-7.812500
3933		-15.625000
3934		-5.859375
3935		-17.578125
3936		-7.812500
3937		-17.578125
3938		-7.812500
3939		-15.625000
3940		-11.718750
3941		-15.625000
3942		-11.718750
3943		-15.625000
3944		-13.671875
3945		-15.625000
3946		-13.671875
3947		-17.578125
3948		-13.671875
3949		-21.484375
3950		-11.718750
3951		-21.484375
3952		-11.718750
3953		-21.484375
3954		-11.718750
3955		-21.484375
3956		-13.671875
3957		-21.484375
3958		-15.625000
3959		-19.531250
3960		-17.578125
3961		-21.484375
3962		-17.578125
3963		-21.484375
3964		-19.531250
3965		-21.484375
3966		-19.531250
3967		-25.390625
3968		-15.625000
3969		-25.390625
3970		-17.578125
3971		-25.390625
3972		-17.578125
3973		-25.390625
3974		-21.484375
3975		-25.390625
3976		-21.484375
3977		-25.390625
3978		-23.437500
3979		-27.343750
3980		-23.437500
3981		-27.343750
3982		-23.437500
3983		-31.250000
3984		-21.484375
3985		-31.250000
3986		-21.484375
3987		-31.250000
3988		-21.484375
3989		-29.296875
3990		-25.390625
3991		-29.296875
3992		-25.390625
3993		-29.296875
3994		-27.343750
3995		-29.296875
3996		-27.343750
3997		-31.250000
3998		-27.343750
3999		-33.203125
4000		-25.390625
4001		-33.203125
4002		-25.390625
4003		-35.156250
4004		-25.390625
4005		-35.156250
4006		-25.390625
4007		-33.203125
4008		-29.296875
4009		-33.203125
4010		-29.296875
4011		-33.203125
4012		-31.250000
4013		-35.156250
4014		-31.250000
4015		-33.203125
4016		-31.250000
4017		-35.156250
4018		-31.250000
4019		-37.109375
4020		-29.296875
4021		-37.109375
4022		-29.296875
4023		-35.156250
4024		-33.203125
4025		-35.156250
4026		-31.250000
4027		-35.156250
4028		-33.203125
4029		-37.109375
4030		-33.203125
4031		-37.109375
4032		-33.203125
4033		-37.109375
4034		-35.156250
4035		-39.062500
4036		-31.250000
4037		-39.062500
4038		-33.203125
4039		-37.109375
4040		-35.156250
4041		-39.062500
4042		-35.156250
4043		-37.109375
4044		-35.156250
4045		-37.109375
4046		-35.156250
4047		-39.062500
4048		-35.156250
4049		-41.015625
4050		-35.156250
4051		-39.062500
4052		-35.156250
4053		-41.015625
4054		-35.156250
4055		-41.015625
4056		-35.156250
4057		-39.062500
4058		-35.156250
4059		-39.062500
4060		-37.109375
4061		-39.062500
4062		-37.109375
4063		-39.062500
4064		-37.109375
4065		-39.062500
4066		-37.109375
4067		-39.062500
4068		-37.109375
4069		-39.062500
4070		-37.109375
4071		-39.062500
4072		-37.109375
4073		-39.062500
4074		-37.109375
4075		-41.015625
4076		-37.109375
4077		-39.062500
4078		-37.109375
4079		-39.062500
4080		-37.109375
4081		-41.015625
4082		-37.109375
4083		-39.062500
4084		-37.109375
4085		-39.062500
4086		-37.109375
4087		-41.015625
4088		-37.109375
4089		-39.062500
4090		-37.109375
4091		-39.062500
4092		-37.109375
4093		-41.015625
4094		-35.156250
4095		-39.062500
4096		-37.109375
4097		-39.062500
4098		-37.109375
4099		-41.015625
4100		-37.109375
4101		-39.062500
4102		-37.109375
4103		-39.062500
4104		-37.109375
4105		-41.015625
4106		-35.156250
4107		-39.062500
4108		-37.109375
4109		-39.062500
4110		-35.156250
4111		-39.062500
4112		-35.156250
4113		-39.062500
4114		-35.156250
4115		-39.062500
4116		-35.156250
4117		-39.062500
4118		-35.156250
4119		-39.062500
4120		-35.156250
4121		-39.062500
4122		-35.156250
4123		-37.109375
4124		-35.156250
4125		-37.109375
4126		-33.203125
4127		-37.109375
4128		-33.203125
4129		-37.109375
4130		-33.203125
4131		-37.109375
4132		-33.203125
4133		-35.156250
4134		-33.203125
4135		-37.109375
4136		-33.203125
4137		-35.156250
4138		-31.250000
4139		-35.156250
4140		-31.250000
4141		-35.156250
4142		-31.250000
4143		-35.156250
4144		-31.250000
4145		-33.203125
4146		-31.250000
4147		-33.203125
4148		-31.250000
4149		-33.203125
4150		-29.296875
4151		-33.203125
4152		-29.296875
4153		-33.203125
4154		-29.296875
4155		-31.250000
4156		-29.296875
4157		-33.203125
4158		-29.296875
4159		-31.250000
4160		-27.343750
4161		-31.250000
4162		-27.343750
4163		-31.250000
4164		-27.343750
4165		-29.296875
4166		-27.343750
4167		-31.250000
4168		-25.390625
4169		-29.296875
4170		-25.390625
4171		-29.296875
4172		-25.390625
4173		-27.343750
4174		-25.390625
4175		-29.296875
4176		-23.437500
4177		-27.343750
4178		-23.437500
4179		-27.343750
4180		-23.437500
4181		-27.343750
4182		-23.437500
4183		-25.390625
4184		-23.437500
4185		-27.343750
4186		-21.484375
4187		-25.390625
4188		-21.484375
4189		-25.390625
4190		-21.484375
4191		-23.437500
4192		-19.531250
4193		-23.437500
4194		-19.531250
4195		-23.437500
4196		-19.531250
4197		-23.437500
4198		-19.531250
4199		-21.484375
4200		-17.578125
4201		-23.437500
4202		-15.625000
4203		-21.484375
4204		-17.578125
4205		-19.531250
4206		-17.578125
4207		-19.531250
4208		-15.625000
4209		-19.531250
4210		-15.625000
4211		-17.578125
4212		-15.625000
4213		-17.578125
4214		-13.671875
4215		-17.578125
4216		-13.671875
4217		-15.625000
4218		-13.671875
4219		-17.578125
4220		-11.718750
4221		-15.625000
4222		-11.718750
4223		-13.671875
4224		-11.718750
4225		-13.671875
4226		-9.765625
4227		-13.671875
4228		-9.765625
4229		-11.718750
4230		-9.765625
4231		-11.718750
4232		-9.765625
4233		-11.718750
4234		-7.812500
4235		-9.765625
4236		-5.859375
4237		-9.765625
4238		-5.859375
4239		-9.765625
4240		-5.859375
4241		-7.812500
4242		-5.859375
4243		-7.812500
4244		-3.906250
4245		-7.812500
4246		-3.906250
4247		-5.859375
4248		-3.906250
4249		-5.859375
4250		-1.953125
4251		-5.859375
4252		-1.953125
4253		-5.859375
4254		-1.953125
4255		-3.906250
4256		0.000000
4257		-3.906250
4258		0.000000
4259		-3.906250
4260		0.000000
4261		-3.906250
4262		0.000000
4263		-1.953125
4264		1.953125
4265		-1.953125
4266		1.953125
4267		0.000000
4268		1.953125
4269		-1.953125
4270		3.906250
4271		0.000000
4272		3.906250
4273		1.953125
4274		3.906250
4275		1.953125
4276		5.859375
4277		1.953125
4278		5.859375
4279		3.906250
4280		5.859375
4281		3.906250
4282		7.812500
4283		3.906250
4284		7.812500
4285		5.859375
4286		9.765625
4287		5.859375
4288		9.765625
4289		7.812500
4290		9.765625
4291		7.812500
4292		9.765625
4293		7.812500
4294		11.718750
4295		7.812500
4296		11.718750
4297		9.765625
4298		11.718750
4299		9.765625
4300		13.671875
4301		9.765625
4302		13.671875
4303		9.765625
4304		13.671875
4305		11.718750
4306		15.625000
4307		11.718750
4308		15.625000
4309		13.671875
4310		15.625000
4311		13.671875
4312		17.578125
4313		13.671875
4314		15.625000
4315		13.671875
4316		17.578125
4317		13.671875
4318		17.578125
4319		15.625000
4320		19.531250
4321		15.625000
4322		19.531250
4323		15.625000
4324		19.531250
4325		17.578125
4326		21.484375
4327		17.578125
4328		21.484375
4329		17.578125
4330		21.484375
4331		19.531250
4332		21.484375
4333		17.578125
4334		23.437500
4335		19.531250
4336		23.437500
4337		19.531250
4338		23.437500
4339		19.531250
4340		23.437500
4341		21.484375
4342		23.437500
4343		21.484375
4344		23.437500
4345		21.484375
4346		25.390625
4347		23.437500
4348		25.390625
4349		23.437500
4350		25.390625
4351		23.437500
4352		27.343750
4353		23.437500
4354		27.343750
4355		23.437500
4356		27.343750
4357		25.390625
4358		27.343750
4359		25.390625
4360		27.343750
4361		25.390625
4362		29.296875
4363		27.343750
4364		29.296875
4365		27.343750
4366		31.250000
4367		27.343750
4368		31.250000
4369		27.343750
4370		29.296875
4371		27.343750
4372		31.250000
4373		29.296875
4374		31.250000
4375		29.296875
4376		31.250000
4377		27.343750
4378		33.203125
4379		29.296875
4380		31.250000
4381		29.296875
4382		33.203125
4383		29.296875
4384		33.203125
4385		31.250000
4386		33.203125
4387		29.296875
4388		35.156250
4389		31.250000
4390		35.156250
4391		31.250000
4392		33.203125
4393		31.250000
4394		35.156250
4395		31.250000
4396		35.156250
4397		33.203125
4398		35.156250
4399		31.250000
4400		35.156250
4401		33.203125
4402		35.156250
4403		33.203125
4404		35.156250
4405		33.203125
4406		37.109375
4407		33.203125
4408		37.109375
4409		33.203125
4410		37.109375
4411		33.203125
4412		37.109375
4413		35.156250
4414		37.109375
4415		35.156250
4416		37.109375
4417		33.203125
4418		37.109375
4419		33.203125
4420		37.109375
4421		35.156250
4422		39.062500
4423		35.156250
4424		37.109375
4425		35.156250
4426		37.109375
4427		35.156250
4428		39.062500
4429		35.156250
4430		39.062500
4431		35.156250
4432		37.109375
4433		35.156250
4434		39.062500
4435		35.156250
4436		37.109375
4437		35.156250
4438		39.062500
4439		35.156250
4440		39.062500
4441		35.156250
4442		39.062500
4443		35.156250
4444		39.062500
4445		35.156250
4446		39.062500
4447		35.156250
4448		39.062500
4449		35.156250
4450		39.062500
4451		35.156250
4452		39.062500
4453		35.156250
4454		39.062500
4455		35.156250
4456		39.062500
4457		35.156250
4458		39.062500
4459		35.156250
4460		39.062500
4461		35.156250
4462		39.062500
4463		35.156250
4464		39.062500
4465		35.156250
4466		37.109375
4467		35.156250
4468		37.109375
4469		35.156250
4470		39.062500
4471		33.203125
4472		39.062500
4473		33.203125
4474		39.062500
4475		35.156250
4476		37.109375
4477		35.156250
4478		37.109375
4479		35.156250
4480		37.109375
4481		33.203125
4482		37.109375
4483		33.203125
4484		37.109375
4485		33.203125
4486		37.109375
4487		31.250000
4488		37.109375
4489		31.250000
4490		37.109375
4491		33.203125
4492		35.156250
4493		33.203125
4494		37.109375
4495		33.203125
4496		35.156250
4497		33.203125
4498		35.156250
4499		31.250000
4500		35.156250
4501		31.250000
4502		35.156250
4503		29.296875
4504		35.156250
4505		31.250000
4506		35.156250
4507		29.296875
4508		35.156250
4509		31.250000
4510		33.203125
4511		31.250000
4512		33.203125
4513		29.296875
4514		33.203125
4515		29.296875
4516		33.203125
4517		29.296875
4518		33.203125
4519		29.296875
4520		33.203125
4521		27.343750
4522		33.203125
4523		27.343750
4524		33.203125
4525		27.343750
4526		31.250000
4527		27.343750
4528		31.250000
4529		27.343750
4530		31.250000
4531		27.343750
4532		29.296875
4533		25.390625
4534		29.296875
4535		25.390625
4536		29.296875
4537		23.437500
4538		29.296875
4539		23.437500
4540		29.296875
4541		25.390625
4542		27.343750
4543		25.390625
4544		27.343750
4545		23.437500
4546		27.343750
4547		23.437500
4548		25.390625
4549		23.437500
4550		25.390625
4551		21.484375
4552		27.343750
4553		23.437500
4554		25.390625
4555		19.531250
4556		25.390625
4557		19.531250
4558		25.390625
4559		21.484375
4560		23.437500
4561		19.531250
4562		23.437500
4563		19.531250
4564		23.437500
4565		19.531250
4566		21.484375
4567		19.531250
4568		21.484375
4569		17.578125
4570		21.484375
4571		15.625000
4572		21.484375
4573		15.625000
4574		21.484375
4575		15.625000
4576		19.531250
4577		15.625000
4578		19.531250
4579		15.625000
4580		17.578125
4581		15.625000
4582		17.578125
4583		13.671875
4584		17.578125
4585		13.671875
4586		15.625000
4587		11.718750
4588		17.578125
4589		11.718750
4590		17.578125
4591		11.718750
4592		15.625000
4593		11.718750
4594		13.671875
4595		9.765625
4596		13.671875
4597		9.765625
4598		11.718750
4599		9.765625
4600		13.671875
4601		9.765625
4602		11.718750
4603		7.812500
4604		11.718750
4605		5.859375
4606		11.718750
4607		5.859375
4608		11.718750
4609		5.859375
4610		9.765625
4611		5.859375
4612		7.812500
4613		3.906250
4614		7.812500
4615		3.906250
4616		7.812500
4617		3.906250
4618		5.859375
4619		1.953125
4620		5.859375
4621		0.000000
4622		5.859375
4623		0.000000
4624		5.859375
4625		1.953125
4626		3.906250
4627		0.000000
4628		3.906250
4629		0.000000
4630		3.906250
4631		0.000000
4632		1.953125
4633		-1.953125
4634		0.000000
4635		-3.906250
4636		0.000000
4637		-1.953125
4638		0.000000
4639		-3.906250
4640		0.000000
4641		-5.859375
4642		-1.953125
4643		-5.859375
4644		-1.953125
4645		-7.812500
4646		-3.906250
4647		-5.859375
4648		-3.906250
4649		-7.812500
4650		-3.906250
4651		-9.765625
4652		-3.906250
4653		-7.812500
4654		-5.859375
4655		-9.765625
4656		-5.859375
4657		-11.718750
4658		-5.859375
4659		-9.765625
4660		-7.812500
4661		-11.718750
4662		-7.812500
4663		-11.718750
4664		-7.812500
4665		-11.718750
4666		-9.765625
4667		-13.671875
4668		-7.812500
4669		-13.671875
4670		-11.718750
4671		-13.671875
4672		-11.718750
4673		-15.625000
4674		-11.718750
4675		-15.625000
4676		-11.718750
4677		-15.625000
4678		-11.718750
4679		-15.625000
4680		-13.671875
4681		-17.578125
4682		-13.671875
4683		-17.578125
4684		-13.671875
4685		-17.578125
4686		-15.625000
4687		-19.531250
4688		-15.625000
4689		-19.531250
4690		-17.578125
4691		-19.531250
4692		-17.578125
4693		-21.484375
4694		-17.578125
4695		-21.484375
4696		-17.578125
4697		-21.484375
4698		-19.531250
4699		-21.484375
4700		-19.531250
4701		-23.437500
4702		-19.531250
4703		-23.437500
4704		-19.531250
4705		-23.437500
4706		-21.484375
4707		-25.390625
4708		-21.484375
4709		-25.390625
4710		-23.437500
4711		-25.390625
4712		-23.437500
4713		-25.390625
4714		-23.437500
4715		-27.343750
4716		-23.437500
4717		-27.343750
4718		-23.437500
4719		-27.343750
4720		-25.390625
4721		-29.296875
4722		-25.390625
4723		-29.296875
4724		-25.390625
4725		-29.296875
4726		-27.343750
4727		-31.250000
4728		-25.390625
4729		-29.296875
4730		-27.343750
4731		-31.250000
4732		-27.343750
4733		-31.250000
4734		-27.343750
4735		-31.250000
4736		-29.296875
4737		-33.203125
4738		-29.296875
4739		-33.203125
4740		-29.296875
4741		-33.203125
4742		-29.296875
4743		-33.203125
4744		-31.250000
4745		-33.203125
4746		-29.296875
4747		-35.156250
4748		-31.250000
4749		-35.156250
4750		-31.250000
4751		-35.156250
4752		-31.250000
4753		-35.156250
4754		-33.203125
4755		-35.156250
4756		-33.203125
4757		-35.156250
4758		-33.203125
4759		-35.156250
4760		-33.203125
4761		-35.156250
4762		-33.203125
4763		-37.109375
4764		-33.203125
4765		-37.109375
4766		-35.156250
4767		-37.109375
4768		-35.156250
4769		-37.109375
4770		-35.156250
4771		-37.109375
4772		-35.156250
4773		-37.109375
4774		-33.203125
4775		-39.062500
4776		-35.156250
4777		-39.062500
4778		-35.156250
4779		-39.062500
4780		-35.156250
4781		-39.062500
4782		-35.156250
4783		-39.062500
4784		-37.109375
4785		-39.062500
4786		-37.109375
4787		-41.015625
4788		-37.109375
4789		-39.062500
4790		-37.109375
4791		-41.015625
4792		-37.109375
4793		-39.062500
4794		-37.109375
4795		-39.062500
4796		-37.109375
4797		-41.015625
4798		-37.109375
4799		-41.015625
4800		-37.109375
4801		-41.015625
4802		-37.109375
4803		-41.015625
4804		-37.109375
4805		-41.015625
4806		-39.062500
4807		-41.015625
4808		-37.109375
4809		-41.015625
4810		-37.109375
4811		-41.015625
4812		-39.062500
4813		-41.015625
4814		-37.109375
4815		-41.015625
4816		-37.109375
4817		-41.015625
4818		-37.109375
4819		-41.015625
4820		-37.109375
4821		-41.015625
4822		-39.062500
4823		-41.015625
4824		-37.109375
4825		-41.015625
4826		-37.109375
4827		-41.015625
4828		-37.109375
4829		-41.015625
4830		-37.109375
4831		-41.015625
4832		-37.109375
4833		-39.062500
4834		-37.109375
4835		-41.015625
4836		-37.109375
4837		-39.062500
4838		-37.109375
4839		-39.062500
4840		-35.156250
4841		-41.015625
4842		-37.109375
4843		-39.062500
4844		-35.156250
4845		-39.062500
4846		-35.156250
4847		-39.062500
4848		-37.109375
4849		-39.062500
4850		-35.156250
4851		-39.062500
4852		-37.109375
4853		-39.062500
4854		-35.156250
4855		-39.062500
4856		-35.156250
4857		-39.062500
4858		-35.156250
4859		-39.062500
4860		-33.203125
4861		-37.109375
4862		-35.156250
4863		-37.109375
4864		-33.203125
4865		-37.109375
4866		-33.203125
4867		-37.109375
4868		-33.203125
4869		-37.109375
4870		-33.203125
4871		-35.156250
4872		-33.203125
4873		-35.156250
4874		-33.203125
4875		-35.156250
4876		-31.250000
4877		-35.156250
4878		-31.250000
4879		-35.156250
4880		-31.250000
4881		-33.203125
4882		-31.250000
4883		-33.203125
4884		-31.250000
4885		-33.203125
4886		-31.250000
4887		-33.203125
4888		-31.250000
4889		-33.203125
4890		-29.296875
4891		-33.203125
4892		-29.296875
4893		-31.250000
4894		-29.296875
4895		-31.250000
4896		-29.296875
4897		-31.250000
4898		-27.343750
4899		-31.250000
4900		-27.343750
4901		-31.250000
4902		-27.343750
4903		-29.296875
4904		-27.343750
4905		-29.296875
4906		-27.343750
4907		-29.296875
4908		-25.390625
4909		-27.343750
4910		-25.390625
4911		-27.343750
4912		-25.390625
4913		-27.343750
4914		-23.437500
4915		-27.343750
4916		-23.437500
4917		-25.390625
4918		-23.437500
4919		-25.390625
4920		-21.484375
4921		-25.390625
4922		-21.484375
4923		-25.390625
4924		-21.484375
4925		-23.437500
4926		-21.484375
4927		-23.437500
4928		-21.484375
4929		-23.437500
4930		-19.531250
4931		-21.484375
4932		-19.531250
4933		-21.484375
4934		-17.578125
4935		-21.484375
4936		-19.531250
4937		-19.531250
4938		-17.578125
4939		-21.484375
4940		-17.578125
4941		-19.531250
4942		-17.578125
4943		-19.531250
4944		-15.625000
4945		-17.578125
4946		-15.625000
4947		-17.578125
4948		-13.671875
4949		-17.578125
4950		-13.671875
4951		-15.625000
4952		-13.671875
4953		-17.578125
4954		-11.718750
4955		-15.625000
4956		-11.718750
4957		-13.671875
4958		-11.718750
4959		-15.625000
4960		-9.765625
4961		-13.671875
4962		-11.718750
4963		-11.718750
4964		-9.765625
4965		-13.671875
4966		-9.765625
4967		-11.718750
4968		-9.765625
4969		-11.718750
4970		-7.812500
4971		-9.765625
4972		-7.812500
4973		-9.765625
4974		-5.859375
4975		-9.765625
4976		-5.859375
4977		-7.812500
4978		-5.859375
4979		-7.812500
4980		-3.906250
4981		-7.812500
4982		-3.906250
4983		-5.859375
4984		-3.906250
4985		-5.859375
4986		-1.953125
4987		-5.859375
4988		-1.953125
4989		-3.906250
4990		-1.953125
4991		-3.906250
4992		0.000000
4993		-3.906250
4994		0.000000
4995		-1.953125
4996		0.000000
4997		-1.953125
4998		1.953125
4999		-1.953125
5000		1.953125
5001		0.000000
5002		1.953125
5003		0.000000
5004		3.906250
5005		0.000000
5006		3.906250
5007		1.953125
5008		3.906250
5009		1.953125
5010		5.859375
5011		1.953125
5012		5.859375
5013		3.906250
5014		5.859375
5015		3.906250
5016		5.859375
5017		3.906250
5018		7.812500
5019		3.906250
5020		7.812500
5021		5.859375
5022		9.765625
5023		5.859375
5024		9.765625
5025		7.812500
5026		9.765625
5027		7.812500
5028		9.765625
5029		7.812500
5030		11.718750
5031		9.765625
5032		11.718750
5033		9.765625
5034		13.671875
5035		9.765625
5036		13.671875
5037		11.718750
5038		13.671875
5039		9.765625
5040		13.671875
5041		11.718750
5042		15.625000
5043		11.718750
5044		15.625000
5045		11.718750
5046		15.625000
5047		13.671875
5048		15.625000
5049		13.671875
5050		17.578125
5051		13.671875
5052		17.578125
5053		15.625000
5054		17.578125
5055		15.625000
5056		19.531250
5057		15.625000
5058		19.531250
5059		17.578125
5060		19.531250
5061		17.578125
5062		21.484375
5063		17.578125
5064		21.484375
5065		19.531250
5066		21.484375
5067		19.531250
5068		21.484375
5069		19.531250
5070		21.484375
5071		19.531250
5072		23.437500
5073		21.484375
5074		23.437500
5075		21.484375
5076		23.437500
5077		21.484375
5078		25.390625
5079		21.484375
5080		25.390625
5081		21.484375
5082		25.390625
5083		23.437500
5084		25.390625
5085		23.437500
5086		27.343750
5087		23.437500
5088		27.343750
5089		23.437500
5090		27.343750
5091		25.390625
5092		27.343750
5093		25.390625
5094		29.296875
5095		25.390625
5096		29.296875
5097		27.343750
5098		29.296875
5099		25.390625
5100		29.296875
5101		27.343750
5102		29.296875
5103		27.343750
5104		29.296875
5105		27.343750
5106		31.250000
5107		27.343750
5108		31.250000
5109		29.296875
5110		31.250000
5111		29.296875
5112		31.250000
5113		29.296875
5114		31.250000
5115		29.296875
5116		33.203125
5117		29.296875
5118		33.203125
5119		31.250000
5120		33.203125
5121		31.250000
5122		33.203125
5123		31.250000
5124		33.203125
5125		31.250000
5126		33.203125
5127		29.296875
5128		35.156250
5129		31.250000
5130		33.203125
5131		31.250000
5132		35.156250
5133		31.250000
5134		35.156250
5135		31.250000
5136		35.156250
5137		31.250000
5138		37.109375
5139		33.203125
5140		35.156250
5141		33.203125
5142		35.156250
5143		33.203125
5144		37.109375
5145		33.203125
5146		35.156250
5147		33.203125
5148		37.109375
5149		33.203125
5150		37.109375
5151		33.203125
5152		37.109375
5153		33.203125
5154		37.109375
5155		33.203125
5156		37.109375
5157		35.156250
5158		37.109375
5159		35.156250
5160		37.109375
5161		33.203125
5162		37.109375
5163		35.156250
5164		37.109375
5165		35.156250
5166		37.109375
5167		35.156250
5168		37.109375
5169		35.156250
5170		37.109375
5171		35.156250
5172		37.109375
5173		35.156250
5174		39.062500
5175		35.156250
5176		37.109375
5177		35.156250
5178		39.062500
5179		35.156250
5180		37.109375
5181		35.156250
5182		37.109375
5183		35.156250
5184		39.062500
5185		35.156250
5186		37.109375
5187		35.156250
5188		37.109375
5189		33.203125
5190		39.062500
5191		35.156250
5192		37.109375
5193		35.156250
5194		39.062500
5195		35.156250
5196		37.109375
5197		35.156250
5198		37.109375
5199		35.156250
5200		37.109375
5201		35.156250
5202		37.109375
5203		33.203125
5204		37.109375
5205		33.203125
5206		37.109375
5207		35.156250
5208		37.109375
5209		33.203125
5210		37.109375
5211		33.203125
5212		37.109375
5213		33.203125
5214		37.109375
5215		33.203125
5216		37.109375
5217		33.203125
5218		37.109375
5219		33.203125
5220		37.109375
5221		33.203125
5222		37.109375
5223		33.203125
5224		35.156250
5225		33.203125
5226		35.156250
5227		31.250000
5228		35.156250
5229		31.250000
5230		35.156250
5231		31.250000
5232		35.156250
5233		31.250000
5234		35.156250
5235		29.296875
5236		35.156250
5237		31.250000
5238		33.203125
5239		31.250000
5240		33.203125
5241		29.296875
5242		33.203125
5243		29.296875
5244		33.203125
5245		29.296875
5246		33.203125
5247		29.296875
5248		33.203125
5249		29.296875
5250		33.203125
5251		29.296875
5252		33.203125
5253		27.343750
5254		33.203125
5255		27.343750
5256		31.250000
5257		27.343750
5258		31.250000
5259		27.343750
5260		29.296875
5261		27.343750
5262		29.296875
5263		25.390625
5264		31.250000
5265		25.390625
5266		29.296875
5267		25.390625
5268		29.296875
5269		25.390625
5270		29.296875
5271		25.390625
5272		29.296875
5273		23.437500
5274		29.296875
5275		23.437500
5276		27.343750
5277		23.437500
5278		27.343750
5279		23.437500
5280		27.343750
5281		23.437500
5282		25.390625
5283		21.484375
5284		25.390625
5285		21.484375
5286		25.390625
5287		21.484375
5288		23.437500
5289		21.484375
5290		25.390625
5291		19.531250
5292		25.390625
5293		19.531250
5294		23.437500
5295		19.531250
5296		21.484375
5297		19.531250
5298		23.437500
5299		17.578125
5300		21.484375
5301		17.578125
5302		21.484375
5303		17.578125
5304		21.484375
5305		17.578125
5306		19.531250
5307		15.625000
5308		19.531250
5309		15.625000
5310		19.531250
5311		15.625000
5312		19.531250
5313		15.625000
5314		17.578125
5315		13.671875
5316		17.578125
5317		13.671875
5318		17.578125
5319		13.671875
5320		15.625000
5321		11.718750
5322		15.625000
5323		11.718750
5324		15.625000
5325		11.718750
5326		13.671875
5327		9.765625
5328		13.671875
5329		9.765625
5330		11.718750
5331		9.765625
5332		11.718750
5333		7.812500
5334		11.718750
5335		7.812500
5336		9.765625
5337		5.859375
5338		9.765625
5339		5.859375
5340		9.765625
5341		5.859375
5342		9.765625
5343		5.859375
5344		7.812500
5345		3.906250
5346		7.812500
5347		3.906250
5348		5.859375
5349		3.906250
5350		7.812500
5351		3.906250
5352		5.859375
5353		1.953125
5354		5.859375
5355		1.953125
5356		5.859375
5357		1.953125
5358		3.906250
5359		0.000000
5360		3.906250
5361		0.000000
5362		3.906250
5363		0.000000
5364		1.953125
5365		-1.953125
5366		0.000000
5367		-1.953125
5368		1.953125
5369		-3.906250
5370		0.000000
5371		-3.906250
5372		-1.953125
5373		-3.906250
5374		0.000000
5375		-3.906250
5376		-1.953125
5377		-5.859375
5378		-1.953125
5379		-5.859375
5380		-1.953125
5381		-5.859375
5382		-3.906250
5383		-7.812500
5384		-5.859375
5385		-9.765625
5386		-5.859375
5387		-9.765625
5388		-5.859375
5389		-9.765625
5390		-7.812500
5391		-11.718750
5392		-7.812500
5393		-9.765625
5394		-7.812500
5395		-11.718750
5396		-9.765625
5397		-11.718750
5398		-9.765625
5399		-11.718750
5400		-9.765625
5401		-13.671875
5402		-11.718750
5403		-15.625000
5404		-11.718750
5405		-15.625000
5406		-11.718750
5407		-15.625000
5408		-11.718750
5409		-15.625000
5410		-13.671875
5411		-15.625000
5412		-13.671875
5413		-17.578125
5414		-13.671875
5415		-17.578125
5416		-15.625000
5417		-17.578125
5418		-15.625000
5419		-19.531250
5420		-15.625000
5421		-19.531250
5422		-17.578125
5423		-21.484375
5424		-17.578125
5425		-19.531250
5426		-17.578125
5427		-21.484375
5428		-17.578125
5429		-23.437500
5430		-19.531250
5431		-21.484375
5432		-19.531250
5433		-23.437500
5434		-19.531250
5435		-23.437500
5436		-19.531250
5437		-25.390625
5438		-21.484375
5439		-23.437500
5440		-21.484375
5441		-25.390625
5442		-21.484375
5443		-25.390625
5444		-21.484375
5445		-25.390625
5446		-23.437500
5447		-27.343750
5448		-23.437500
5449		-27.343750
5450		-23.437500
5451		-27.343750
5452		-25.390625
5453		-27.343750
5454		-25.390625
5455		-29.296875
5456		-25.390625
5457		-29.296875
5458		-25.390625
5459		-29.296875
5460		-25.390625
5461		-31.250000
5462		-27.343750
5463		-29.296875
5464		-27.343750
5465		-31.250000
5466		-27.343750
5467		-31.250000
5468		-27.343750
5469		-31.250000
5470		-29.296875
5471		-33.203125
5472		-29.296875
5473		-33.203125
5474		-29.296875
5475		-33.203125
5476		-31.250000
5477		-35.156250
5478		-29.296875
5479		-33.203125
5480		-29.296875
5481		-35.156250
5482		-31.250000
5483		-37.109375
5484		-31.250000
5485		-35.156250
5486		-33.203125
5487		-37.109375
5488		-31.250000
5489		-35.156250
5490		-33.203125
5491		-35.156250
5492		-33.203125
5493		-37.109375
5494		-33.203125
5495		-37.109375
5496		-35.156250
5497		-37.109375
5498		-35.156250
5499		-39.062500
5500		-33.203125
5501		-39.062500
5502		-33.203125
5503		-39.062500
5504		-35.156250
5505		-39.062500
5506		-35.156250
5507		-41.015625
5508		-33.203125
5509		-39.062500
5510		-35.156250
5511		-39.062500
5512		-35.156250
5513		-39.062500
5514		-35.156250
5515		-39.062500
5516		-37.109375
5517		-41.015625
5518		-35.156250
5519		-41.015625
5520		-35.156250
5521		-42.968750
5522		-35.156250
5523		-39.062500
5524		-37.109375
5525		-42.968750
5526		-35.156250
5527		-41.015625
5528		-37.109375
5529		-41.015625
5530		-37.109375
5531		-41.015625
5532		-37.109375
5533		-42.968750
5534		-35.156250
5535		-41.015625
5536		-37.109375
5537		-41.015625
5538		-35.156250
5539		-41.015625
5540		-37.109375
5541		-41.015625
5542		-35.156250
5543		-41.015625
5544		-37.109375
5545		-41.015625
5546		-37.109375
5547		-41.015625
5548		-37.109375
5549		-42.968750
5550		-35.156250
5551		-41.015625
5552		-37.109375
5553		-41.015625
5554		-37.109375
5555		-41.015625
5556		-37.109375
5557		-41.015625
5558		-37.109375
5559		-41.015625
5560		-37.109375
5561		-41.015625
5562		-37.109375
5563		-41.015625
5564		-37.109375
5565		-42.968750
5566		-35.156250
5567		-41.015625
5568		-37.109375
5569		-41.015625
5570		-37.109375
5571		-42.968750
5572		-33.203125
5573		-41.015625
5574		-33.203125
5575		-42.968750
5576		-33.203125
5577		-39.062500
5578		-37.109375
5579		-41.015625
5580		-35.156250
5581		-41.015625
5582		-33.203125
5583		-41.015625
5584		-33.203125
5585		-39.062500
5586		-35.156250
5587		-39.062500
5588		-35.156250
5589		-41.015625
5590		-33.203125
5591		-41.015625
5592		-31.250000
5593		-37.109375
5594		-35.156250
5595		-37.109375
5596		-33.203125
5597		-37.109375
5598		-33.203125
5599		-39.062500
5600		-31.250000
5601		-39.062500
5602		-31.250000
5603		-35.156250
5604		-33.203125
5605		-39.062500
5606		-29.296875
5607		-35.156250
5608		-31.250000
5609		-39.062500
5610		-29.296875
5611		-35.156250
5612		-31.250000
5613		-35.156250
5614		-31.250000
5615		-37.109375
5616		-27.343750
5617		-33.203125
5618		-29.296875
5619		-33.203125
5620		-29.296875
5621		-33.203125
5622		-27.343750
5623		-35.156250
5624		-27.343750
5625		-35.156250
5626		-27.343750
5627		-31.250000
5628		-29.296875
5629		-31.250000
5630		-27.343750
5631		-33.203125
5632		-25.390625
5633		-33.203125
5634		-25.390625
5635		-33.203125
5636		-27.343750
5637		-29.296875
5638		-27.343750
5639		-33.203125
5640		-23.437500
5641		-31.250000
5642		-23.437500
5643		-31.250000
5644		-23.437500
5645		-27.343750
5646		-25.390625
5647		-27.343750
5648		-23.437500
5649		-29.296875
5650		-21.484375
5651		-27.343750
5652		-21.484375
5653		-25.390625
5654		-23.437500
5655		-27.343750
5656		-19.531250
5657		-29.296875
5658		-17.578125
5659		-27.343750
5660		-19.531250
5661		-23.437500
5662		-19.531250
5663		-23.437500
5664		-19.531250
5665		-23.437500
5666		-17.578125
5667		-25.390625
5668		-15.625000
5669		-21.484375
5670		-17.578125
5671		-21.484375
5672		-17.578125
5673		-23.437500
5674		-13.671875
5675		-21.484375
5676		-13.671875
5677		-19.531250
5678		-15.625000
5679		-19.531250
5680		-15.625000
5681		-17.578125
5682		-13.671875
5683		-21.484375
5684		-11.718750
5685		-17.578125
5686		-11.718750
5687		-15.625000
5688		-11.718750
5689		-17.578125
5690		-9.765625
5691		-17.578125
5692		-7.812500
5693		-15.625000
5694		-9.765625
5695		-13.671875
5696		-9.765625
5697		-13.671875
5698		-9.765625
5699		-15.625000
5700		-5.859375
5701		-13.671875
5702		-7.812500
5703		-11.718750
5704		-7.812500
5705		-11.718750
5706		-5.859375
5707		-13.671875
5708		-3.906250
5709		-9.765625
5710		-3.906250
5711		-7.812500
5712		-5.859375
5713		-7.812500
5714		-3.906250
5715		-7.812500
5716		-3.906250
5717		-7.812500
5718		0.000000
5719		-7.812500
5720		-1.953125
5721		-3.906250
5722		-1.953125
5723		-7.812500
5724		1.953125
5725		-3.906250
5726		0.000000
5727		-5.859375
5728		1.953125
5729		-1.953125
5730		0.000000
5731		-1.953125
5732		1.953125
5733		-1.953125
5734		3.906250
5735		-1.953125
5736		3.906250
5737		0.000000
5738		3.906250
5739		0.000000
5740		5.859375
5741		-1.953125
5742		7.812500
5743		0.000000
5744		7.812500
5745		1.953125
5746		5.859375
5747		3.906250
5748		7.812500
5749		1.953125
5750		9.765625
5751		3.906250
5752		9.765625
5753		5.859375
5754		9.765625
5755		5.859375
5756		9.765625
5757		5.859375
5758		9.765625
5759		5.859375
5760		13.671875
5761		7.812500
5762		11.718750
5763		9.765625
5764		11.718750
5765		9.765625
5766		11.718750
5767		7.812500
5768		15.625000
5769		9.765625
5770		15.625000
5771		11.718750
5772		13.671875
5773		9.765625
5774		15.625000
5775		11.718750
5776		15.625000
5777		13.671875
5778		15.625000
5779		13.671875
5780		17.578125
5781		13.671875
5782		17.578125
5783		15.625000
5784		17.578125
5785		13.671875
5786		19.531250
5787		15.625000
5788		17.578125
5789		15.625000
5790		21.484375
5791		15.625000
5792		19.531250
5793		17.578125
5794		19.531250
5795		17.578125
5796		21.484375
5797		19.531250
5798		21.484375
5799		19.531250
5800		23.437500
5801		17.578125
5802		23.437500
5803		19.531250
5804		23.437500
5805		19.531250
5806		23.437500
5807		21.484375
5808		23.437500
5809		21.484375
5810		23.437500
5811		19.531250
5812		25.390625
5813		23.437500
5814		25.390625
5815		21.484375
5816		27.343750
5817		23.437500
5818		25.390625
5819		23.437500
5820		27.343750
5821		23.437500
5822		27.343750
5823		25.390625
5824		27.343750
5825		25.390625
5826		27.343750
5827		25.390625
5828		29.296875
5829		25.390625
5830		29.296875
5831		27.343750
5832		29.296875
5833		25.390625
5834		31.250000
5835		25.390625
5836		31.250000
5837		27.343750
5838		31.250000
5839		25.390625
5840		33.203125
5841		27.343750
5842		33.203125
5843		27.343750
5844		33.203125
5845		29.296875
5846		31.250000
5847		29.296875
5848		33.203125
5849		29.296875
5850		33.203125
5851		29.296875
5852		35.156250
5853		29.296875
5854		35.156250
5855		29.296875
5856		35.156250
5857		29.296875
5858		35.156250
5859		31.250000
5860		35.156250
5861		31.250000
5862		35.156250
5863		31.250000
5864		35.156250
5865		31.250000
5866		35.156250
5867		31.250000
5868		37.109375
5869		31.250000
5870		37.109375
5871		31.250000
5872		37.109375
5873		31.250000
5874		37.109375
5875		31.250000
5876		37.109375
5877		33.203125
5878		37.109375
5879		33.203125
5880		37.109375
5881		33.203125
5882		37.109375
5883		33.203125
5884		37.109375
5885		33.203125
5886		39.062500
5887		33.203125
5888		39.062500
5889		33.203125
5890		39.062500
5891		33.203125
5892		39.062500
5893		33.203125
5894		39.062500
5895		33.203125
5896		39.062500
5897		35.156250
5898		37.109375
5899		35.156250
5900		39.062500
5901		35.156250
5902		39.062500
5903		35.156250
5904		39.062500
5905		33.203125
5906		39.062500
5907		35.156250
5908		39.062500
5909		33.203125
5910		39.062500
5911		35.156250
5912		39.062500
5913		35.156250
5914		37.109375
5915		35.156250
5916		39.062500
5917		35.156250
5918		39.062500
5919		35.156250
5920		39.062500
5921		35.156250
5922		39.062500
5923		33.203125
5924		39.062500
5925		33.203125
5926		39.062500
5927		33.203125
5928		39.062500
5929		33.203125
5930		39.062500
5931		33.203125
5932		37.109375
5933		33.203125
5934		39.062500
5935		35.156250
5936		39.062500
5937		33.203125
5938		39.062500
5939		33.203125
5940		39.062500
5941		33.203125
5942		37.109375
5943		33.203125
5944		39.062500
5945		33.203125
5946		37.109375
5947		33.203125
5948		37.109375
5949		33.203125
5950		37.109375
5951		33.203125
5952		37.109375
5953		33.203125
5954		37.109375
5955		31.250000
5956		37.109375
5957		33.203125
5958		35.156250
5959		33.203125
5960		37.109375
5961		31.250000
5962		35.156250
5963		33.203125
5964		35.156250
5965		31.250000
5966		35.156250
5967		31.250000
5968		35.156250
5969		31.250000
5970		35.156250
5971		31.250000
5972		33.203125
5973		29.296875
5974		35.156250
5975		29.296875
5976		33.203125
5977		29.296875
5978		33.203125
5979		29.296875
5980		33.203125
5981		27.343750
5982		33.203125
5983		29.296875
5984		33.203125
5985		29.296875
5986		31.250000
5987		27.343750
5988		33.203125
5989		25.390625
5990		33.203125
5991		25.390625
5992		31.250000
5993		27.343750
5994		31.250000
5995		25.390625
5996		31.250000
5997		25.390625
5998		29.296875
5999		25.390625
6000		29.296875
6001		25.390625
6002		29.296875
6003		23.437500
6004		29.296875
6005		25.390625
6006		27.343750
6007		23.437500
6008		29.296875
6009		23.437500
6010		27.343750
6011		23.437500
6012		27.343750
6013		23.437500
6014		25.390625
6015		21.484375
6016		25.390625
6017		21.484375
6018		25.390625
6019		21.484375
6020		25.390625
6021		21.484375
6022		25.390625
6023		19.531250
6024		25.390625
6025		19.531250
6026		23.437500
6027		19.531250
6028		23.437500
6029		19.531250
6030		23.437500
6031		19.531250
6032		21.484375
6033		15.625000
6034		21.484375
6035		17.578125
6036		21.484375
6037		15.625000
6038		19.531250
6039		15.625000
6040		21.484375
6041		15.625000
6042		19.531250
6043		15.625000
6044		19.531250
6045		13.671875
6046		17.578125
6047		13.671875
6048		17.578125
6049		13.671875
6050		17.578125
6051		11.718750
6052		17.578125
6053		11.718750
6054		15.625000
6055		11.718750
6056		15.625000
6057		9.765625
6058		15.625000
6059		9.765625
6060		13.671875
6061		9.765625
6062		13.671875
6063		7.812500
6064		13.671875
6065		9.765625
6066		11.718750
6067		7.812500
6068		11.718750
6069		7.812500
6070		11.718750
6071		5.859375
6072		9.765625
6073		5.859375
6074		9.765625
6075		5.859375
6076		9.765625
6077		3.906250
6078		9.765625
6079		3.906250
6080		7.812500
6081		3.906250
6082		7.812500
6083		1.953125
6084		5.859375
6085		1.953125
6086		5.859375
6087		1.953125
6088		5.859375
6089		1.953125
6090		5.859375
6091		0.000000
6092		3.906250
6093		0.000000
6094		3.906250
6095		0.000000
6096		3.906250
6097		-1.953125
6098		3.906250
6099		-1.953125
6100		1.953125
6101		-5.859375
6102		1.953125
6103		-3.906250
6104		0.000000
6105		-3.906250
6106		-1.953125
6107		-5.859375
6108		-1.953125
6109		-5.859375
6110		-1.953125
6111		-5.859375
6112		-3.906250
6113		-7.812500
6114		-1.953125
6115		-5.859375
6116		-3.906250
6117		-9.765625
6118		-3.906250
6119		-7.812500
6120		-5.859375
6121		-9.765625
6122		-5.859375
6123		-9.765625
6124		-5.859375
6125		-9.765625
6126		-7.812500
6127		-11.718750
6128		-7.812500
6129		-11.718750
6130		-7.812500
6131		-11.718750
6132		-9.765625
6133		-13.671875
6134		-9.765625
6135		-13.671875
6136		-9.765625
6137		-15.625000
6138		-9.765625
6139		-15.625000
6140		-11.718750
6141		-15.625000
6142		-11.718750
6143		-15.625000
6144		-13.671875
6145		-17.578125
6146		-13.671875
6147		-17.578125
6148		-13.671875
6149		-19.531250
6150		-15.625000
6151		-19.531250
6152		-13.671875
6153		-19.531250
6154		-15.625000
6155		-19.531250
6156		-15.625000
6157		-19.531250
6158		-17.578125
6159		-21.484375
6160		-17.578125
6161		-21.484375
6162		-17.578125
6163		-23.437500
6164		-17.578125
6165		-23.437500
6166		-19.531250
6167		-21.484375
6168		-19.531250
6169		-23.437500
6170		-19.531250
6171		-23.437500
6172		-19.531250
6173		-25.390625
6174		-21.484375
6175		-25.390625
6176		-21.484375
6177		-25.390625
6178		-23.437500
6179		-27.343750
6180		-23.437500
6181		-27.343750
6182		-23.437500
6183		-27.343750
6184		-23.437500
6185		-27.343750
6186		-25.390625
6187		-29.296875
6188		-23.437500
6189		-29.296875
6190		-25.390625
6191		-29.296875
6192		-25.390625
6193		-29.296875
6194		-27.343750
6195		-31.250000
6196		-27.343750
6197		-31.250000
6198		-27.343750
6199		-31.250000
6200		-27.343750
6201		-31.250000
6202		-27.343750
6203		-33.203125
6204		-27.343750
6205		-33.203125
6206		-29.296875
6207		-33.203125
6208		-29.296875
6209		-33.203125
6210		-29.296875
6211		-33.203125
6212		-29.296875
6213		-35.156250
6214		-31.250000
6215		-35.156250
6216		-31.250000
6217		-35.156250
6218		-31.250000
6219		-35.156250
6220		-31.250000
6221		-35.156250
6222		-31.250000
6223		-37.109375
6224		-33.203125
6225		-37.109375
6226		-33.203125
6227		-37.109375
6228		-33.203125
6229		-37.109375
6230		-33.203125
6231		-37.109375
6232		-33.203125
6233		-37.109375
6234		-35.156250
6235		-37.109375
6236		-35.156250
6237		-39.062500
6238		-35.156250
6239		-39.062500
6240		-35.156250
6241		-39.062500
6242		-35.156250
6243		-39.062500
6244		-35.156250
6245		-39.062500
6246		-35.156250
6247		-39.062500
6248		-35.156250
6249		-39.062500
6250		-37.109375
6251		-39.062500
6252		-35.156250
6253		-39.062500
6254		-37.109375
6255		-41.015625
6256		-37.109375
6257		-41.015625
6258		-35.156250
6259		-39.062500
6260		-37.109375
6261		-41.015625
6262		-37.109375
6263		-41.015625
6264		-37.109375
6265		-41.015625
6266		-37.109375
6267		-41.015625
6268		-37.109375
6269		-41.015625
6270		-37.109375
6271		-41.015625
6272		-37.109375
6273		-41.015625
6274		-37.109375
6275		-41.015625
6276		-37.109375
6277		-41.015625
6278		-37.109375
6279		-41.015625
6280		-37.109375
6281		-41.015625
6282		-37.109375
6283		-41.015625
6284		-37.109375
6285		-41.015625
6286		-37.109375
6287		-41.015625
6288		-37.109375
6289		-41.015625
6290		-37.109375
6291		-41.015625
6292		-37.109375
6293		-41.015625
6294		-37.109375
6295		-41.015625
6296		-37.109375
6297		-41.015625
6298		-37.109375
6299		-39.062500
6300		-37.109375
6301		-39.062500
6302		-37.109375
6303		-41.015625
6304		-37.109375
6305		-39.062500
6306		-37.109375
6307		-41.015625
6308		-35.156250
6309		-39.062500
6310		-37.109375
6311		-39.062500
6312		-37.109375
6313		-39.062500
6314		-35.156250
6315		-39.062500
6316		-35.156250
6317		-39.062500
6318		-35.156250
6319		-39.062500
6320		-35.156250
6321		-39.062500
6322		-35.156250
6323		-39.062500
6324		-33.203125
6325		-37.109375
6326		-35.156250
6327		-37.109375
6328		-33.203125
6329		-37.109375
6330		-35.156250
6331		-37.109375
6332		-33.203125
6333		-37.109375
6334		-33.203125
6335		-37.109375
6336		-33.203125
6337		-37.109375
6338		-33.203125
6339		-37.109375
6340		-33.203125
6341		-35.156250
6342		-31.250000
6343		-35.156250
6344		-31.250000
6345		-35.156250
6346		-31.250000
6347		-35.156250
6348		-31.250000
6349		-35.156250
6350		-31.250000
6351		-33.203125
6352		-31.250000
6353		-33.203125
6354		-31.250000
6355		-33.203125
6356		-29.296875
6357		-33.203125
6358		-29.296875
6359		-33.203125
6360		-29.296875
6361		-33.203125
6362		-27.343750
6363		-31.250000
6364		-27.343750
6365		-31.250000
6366		-27.343750
6367		-31.250000
6368		-27.343750
6369		-29.296875
6370		-27.343750
6371		-29.296875
6372		-25.390625
6373		-29.296875
6374		-25.390625
6375		-29.296875
6376		-25.390625
6377		-27.343750
6378		-25.390625
6379		-27.343750
6380		-23.437500
6381		-27.343750
6382		-23.437500
6383		-25.390625
6384		-23.437500
6385		-27.343750
6386		-23.437500
6387		-27.343750
6388		-21.484375
6389		-25.390625
6390		-21.484375
6391		-23.437500
6392		-21.484375
6393		-25.390625
6394		-21.484375
6395		-23.437500
6396		-19.531250
6397		-23.437500
6398		-19.531250
6399		-21.484375
6400		-19.531250
6401		-23.437500
6402		-17.578125
6403		-21.484375
6404		-17.578125
6405		-21.484375
6406		-17.578125
6407		-21.484375
6408		-15.625000
6409		-19.531250
6410		-15.625000
6411		-19.531250
6412		-15.625000
6413		-17.578125
6414		-15.625000
6415		-17.578125
6416		-13.671875
6417		-17.578125
6418		-13.671875
6419		-15.625000
6420		-13.671875
6421		-15.625000
6422		-11.718750
6423		-15.625000
6424		-11.718750
6425		-15.625000
6426		-11.718750
6427		-13.671875
6428		-11.718750
6429		-13.671875
6430		-9.765625
6431		-13.671875
6432		-7.812500
6433		-11.718750
6434		-9.765625
6435		-11.718750
6436		-7.812500
6437		-9.765625
6438		-7.812500
6439		-9.765625
6440		-5.859375
6441		-9.765625
6442		-5.859375
6443		-7.812500
6444		-5.859375
6445		-7.812500
6446		-5.859375
6447		-7.812500
6448		-3.906250
6449		-7.812500
6450		-3.906250
6451		-5.859375
6452		-3.906250
6453		-5.859375
6454		-1.953125
6455		-5.859375
6456		-1.953125
6457		-3.906250
6458		0.000000
6459		-3.906250
6460		0.000000
6461		-1.953125
6462		0.000000
6463		-1.953125
6464		1.953125
6465		-1.953125
6466		1.953125
6467		0.000000
6468		1.953125
6469		-1.953125
6470		3.906250
6471		0.000000
6472		3.906250
6473		1.953125
6474		3.906250
6475		1.953125
6476		5.859375
6477		1.953125
6478		5.859375
6479		3.906250
6480		5.859375
6481		3.906250
6482		7.812500
6483		1.953125
6484		7.812500
6485		5.859375
6486		7.812500
6487		5.859375
6488		9.765625
6489		5.859375
6490		9.765625
6491		7.812500
6492		9.765625
6493		7.812500
6494		9.765625
6495		7.812500
6496		11.718750
6497		7.812500
6498		13.671875
6499		7.812500
6500		13.671875
6501		9.765625
6502		11.718750
6503		9.765625
6504		13.671875
6505		9.765625
6506		13.671875
6507		11.718750
6508		13.671875
6509		11.718750
6510		15.625000
6511		11.718750
6512		15.625000
6513		13.671875
6514		15.625000
6515		13.671875
6516		17.578125
6517		13.671875
6518		17.578125
6519		15.625000
6520		17.578125
6521		15.625000
6522		19.531250
6523		15.625000
6524		19.531250
6525		15.625000
6526		19.531250
6527		17.578125
6528		21.484375
6529		17.578125
6530		21.484375
6531		17.578125
6532		21.484375
6533		17.578125
6534		21.484375
6535		19.531250
6536		21.484375
6537		19.531250
6538		23.437500
6539		19.531250
6540		23.437500
6541		21.484375
6542		23.437500
6543		19.531250
6544		25.390625
6545		21.484375
6546		25.390625
6547		21.484375
6548		25.390625
6549		21.484375
6550		27.343750
6551		23.437500
6552		25.390625
6553		23.437500
6554		25.390625
6555		23.437500
6556		27.343750
6557		25.390625
6558		27.343750
6559		25.390625
6560		29.296875
6561		25.390625
6562		29.296875
6563		25.390625
6564		29.296875
6565		25.390625
6566		29.296875
6567		27.343750
6568		31.250000
6569		27.343750
6570		29.296875
6571		27.343750
6572		31.250000
6573		27.343750
6574		31.250000
6575		27.343750
6576		31.250000
6577		27.343750
6578		31.250000
6579		29.296875
6580		33.203125
6581		29.296875
6582		33.203125
6583		29.296875
6584		33.203125
6585		29.296875
6586		33.203125
6587		31.250000
6588		33.203125
6589		29.296875
6590		33.203125
6591		31.250000
6592		35.156250
6593		31.250000
6594		35.156250
6595		31.250000
6596		35.156250
6597		31.250000
6598		35.156250
6599		31.250000
6600		35.156250
6601		33.203125
6602		35.156250
6603		31.250000
6604		35.156250
6605		33.203125
6606		37.109375
6607		33.203125
6608		37.109375
6609		31.250000
6610		37.109375
6611		33.203125
6612		37.109375
6613		33.203125
6614		37.109375
6615		33.203125
6616		37.109375
6617		33.203125
6618		37.109375
6619		33.203125
6620		37.109375
6621		35.156250
6622		37.109375
6623		33.203125
6624		39.062500
6625		33.203125
6626		39.062500
6627		35.156250
6628		37.109375
6629		35.156250
6630		37.109375
6631		35.156250
6632		39.062500
6633		35.156250
6634		39.062500
6635		35.156250
6636		39.062500
6637		35.156250
6638		37.109375
6639		35.156250
6640		39.062500
6641		35.156250
6642		39.062500
6643		35.156250
6644		39.062500
6645		35.156250
6646		39.062500
6647		35.156250
6648		39.062500
6649		35.156250
6650		39.062500
6651		35.156250
6652		39.062500
6653		35.156250
6654		39.062500
6655		35.156250
6656		39.062500
6657		35.156250
6658		39.062500
6659		35.156250
6660		39.062500
6661		35.156250
6662		37.109375
6663		35.156250
6664		37.109375
6665		35.156250
6666		39.062500
6667		35.156250
6668		39.062500
6669		35.156250
6670		37.109375
6671		35.156250
6672		37.109375
6673		33.203125
6674		37.109375
6675		35.156250
6676		37.109375
6677		33.203125
6678		37.109375
6679		35.156250
6680		37.109375
6681		33.203125
6682		37.109375
6683		33.203125
6684		37.109375
6685		33.203125
6686		37.109375
6687		33.203125
6688		37.109375
6689		31.250000
6690		37.109375
6691		33.203125
6692		35.156250
6693		31.250000
6694		35.156250
6695		33.203125
6696		35.156250
6697		31.250000
6698		35.156250
6699		31.250000
6700		35.156250
6701		31.250000
6702		35.156250
6703		31.250000
6704		35.156250
6705		31.250000
6706		33.203125
6707		31.250000
6708		35.156250
6709		29.296875
6710		33.203125
6711		29.296875
6712		33.203125
6713		29.296875
6714		33.203125
6715		29.296875
6716		33.203125
6717		29.296875
6718		33.203125
6719		27.343750
6720		33.203125
6721		29.296875
6722		31.250000
6723		27.343750
6724		31.250000
6725		27.343750
6726		31.250000
6727		27.343750
6728		31.250000
6729		27.343750
6730		31.250000
6731		25.390625
6732		31.250000
6733		25.390625
6734		29.296875
6735		25.390625
6736		29.296875
6737		25.390625
6738		27.343750
6739		23.437500
6740		29.296875
6741		23.437500
6742		27.343750
6743		23.437500
6744		27.343750
6745		23.437500
6746		27.343750
6747		23.437500
6748		25.390625
6749		23.437500
6750		25.390625
6751		21.484375
6752		27.343750
6753		21.484375
6754		25.390625
6755		21.484375
6756		25.390625
6757		19.531250
6758		23.437500
6759		19.531250
6760		23.437500
6761		19.531250
6762		23.437500
6763		19.531250
6764		21.484375
6765		17.578125
6766		21.484375
6767		17.578125
6768		21.484375
6769		15.625000
6770		21.484375
6771		17.578125
6772		19.531250
6773		15.625000
6774		19.531250
6775		15.625000
6776		19.531250
6777		15.625000
6778		19.531250
6779		15.625000
6780		17.578125
6781		13.671875
6782		17.578125
6783		13.671875
6784		17.578125
6785		11.718750
6786		17.578125
6787		13.671875
6788		15.625000
6789		11.718750
6790		15.625000
6791		9.765625
6792		15.625000
6793		11.718750
6794		13.671875
6795		9.765625
6796		13.671875
6797		9.765625
6798		13.671875
6799		9.765625
6800		11.718750
6801		7.812500
6802		11.718750
6803		7.812500
6804		11.718750
6805		7.812500
6806		9.765625
6807		3.906250
6808		9.765625
6809		5.859375
6810		9.765625
6811		5.859375
6812		7.812500
6813		3.906250
6814		7.812500
6815		3.906250
6816		7.812500
6817		1.953125
6818		5.859375
6819		1.953125
6820		5.859375
6821		1.953125
6822		3.906250
6823		0.000000
6824		5.859375
6825		0.000000
6826		3.906250
6827		-1.953125
6828		3.906250
6829		0.000000
6830		1.953125
6831		-1.953125
6832		1.953125
6833		-3.906250
6834		1.953125
6835		-3.906250
6836		0.000000
6837		-3.906250
6838		0.000000
6839		-3.906250
6840		0.000000
6841		-5.859375
6842		0.000000
6843		-5.859375
6844		-1.953125
6845		-5.859375
6846		-1.953125
6847		-5.859375
6848		-1.953125
6849		-7.812500
6850		-3.906250
6851		-7.812500
6852		-3.906250
6853		-9.765625
6854		-5.859375
6855		-9.765625
6856		-5.859375
6857		-11.718750
6858		-7.812500
6859		-11.718750
6860		-7.812500
6861		-11.718750
6862		-7.812500
6863		-11.718750
6864		-9.765625
6865		-13.671875
6866		-9.765625
6867		-13.671875
6868		-9.765625
6869		-13.671875
6870		-11.718750
6871		-13.671875
6872		-11.718750
6873		-15.625000
6874		-11.718750
6875		-17.578125
6876		-11.718750
6877		-15.625000
6878		-13.671875
6879		-17.578125
6880		-13.671875
6881		-17.578125
6882		-15.625000
6883		-19.531250
6884		-13.671875
6885		-19.531250
6886		-15.625000
6887		-19.531250
6888		-15.625000
6889		-19.531250
6890		-15.625000
6891		-21.484375
6892		-17.578125
6893		-21.484375
6894		-17.578125
6895		-21.484375
6896		-17.578125
6897		-23.437500
6898		-19.531250
6899		-23.437500
6900		-19.531250
6901		-23.437500
6902		-19.531250
6903		-25.390625
6904		-21.484375
6905		-25.390625
6906		-21.484375
6907		-25.390625
6908		-21.484375
6909		-25.390625
6910		-21.484375
6911		-25.390625
6912		-23.437500
6913		-27.343750
6914		-23.437500
6915		-27.343750
6916		-23.437500
6917		-29.296875
6918		-23.437500
6919		-29.296875
6920		-23.437500
6921		-27.343750
6922		-25.390625
6923		-29.296875
6924		-25.390625
6925		-29.296875
6926		-27.343750
6927		-31.250000
6928		-25.390625
6929		-31.250000
6930		-27.343750
6931		-31.250000
6932		-27.343750
6933		-31.250000
6934		-27.343750
6935		-31.250000
6936		-29.296875
6937		-33.203125
6938		-29.296875
6939		-33.203125
6940		-29.296875
6941		-33.203125
6942		-29.296875
6943		-33.203125
6944		-29.296875
6945		-33.203125
6946		-31.250000
6947		-35.156250
6948		-29.296875
6949		-35.156250
6950		-31.250000
6951		-35.156250
6952		-31.250000
6953		-35.156250
6954		-31.250000
6955		-35.156250
6956		-31.250000
6957		-35.156250
6958		-33.203125
6959		-37.109375
6960		-33.203125
6961		-37.109375
6962		-33.203125
6963		-37.109375
6964		-33.203125
6965		-37.109375
6966		-33.203125
6967		-37.109375
6968		-35.156250
6969		-37.109375
6970		-35.156250
6971		-39.062500
6972		-35.156250
6973		-37.109375
6974		-35.156250
6975		-39.062500
6976		-35.156250
6977		-39.062500
6978		-35.156250
6979		-39.062500
6980		-35.156250
6981		-39.062500
6982		-35.156250
6983		-39.062500
6984		-35.156250
6985		-39.062500
6986		-35.156250
6987		-41.015625
6988		-35.156250
6989		-39.062500
6990		-37.109375
6991		-39.062500
6992		-35.156250
6993		-41.015625
6994		-37.109375
6995		-41.015625
6996		-35.156250
6997		-39.062500
6998		-37.109375
6999		-41.015625
7000		-37.109375
7001		-41.015625
7002		-37.109375
7003		-41.015625
7004		-37.109375
7005		-41.015625
7006		-37.109375
7007		-41.015625
7008		-37.109375
7009		-41.015625
7010		-37.109375
7011		-41.015625
7012		-37.109375
7013		-41.015625
7014		-37.109375
7015		-41.015625
7016		-37.109375
7017		-41.015625
7018		-37.109375
7019		-41.015625
7020		-37.109375
7021		-41.015625
7022		-37.109375
7023		-41.015625
7024		-37.109375
7025		-41.015625
7026		-37.109375
7027		-41.015625
7028		-37.109375
7029		-39.062500
7030		-37.109375
7031		-39.062500
7032		-37.109375
7033		-41.015625
7034		-37.109375
7035		-39.062500
7036		-35.156250
7037		-41.015625
7038		-35.156250
7039		-39.062500
7040		-35.156250
7041		-39.062500
7042		-37.109375
7043		-39.062500
7044		-35.156250
7045		-39.062500
7046		-35.156250
7047		-39.062500
7048		-35.156250
7049		-39.062500
7050		-35.156250
7051		-39.062500
7052		-35.156250
7053		-39.062500
7054		-35.156250
7055		-39.062500
7056		-33.203125
7057		-37.109375
7058		-35.156250
7059		-37.109375
7060		-33.203125
7061		-37.109375
7062		-33.203125
7063		-37.109375
7064		-33.203125
7065		-37.109375
7066		-33.203125
7067		-37.109375
7068		-33.203125
7069		-35.156250
7070		-31.250000
7071		-35.156250
7072		-31.250000
7073		-35.156250
7074		-33.203125
7075		-35.156250
7076		-31.250000
7077		-35.156250
7078		-31.250000
7079		-35.156250
7080		-29.296875
7081		-33.203125
7082		-31.250000
7083		-33.203125
7084		-29.296875
7085		-33.203125
7086		-29.296875
7087		-33.203125
7088		-29.296875
7089		-31.250000
7090		-27.343750
7091		-31.250000
7092		-29.296875
7093		-31.250000
7094		-29.296875
7095		-31.250000
7096		-27.343750
7097		-31.250000
7098		-27.343750
7099		-31.250000
7100		-27.343750
7101		-29.296875
7102		-25.390625
7103		-29.296875
7104		-25.390625
7105		-29.296875
7106		-25.390625
7107		-29.296875
7108		-25.390625
7109		-27.343750
7110		-23.437500
7111		-27.343750
7112		-23.437500
7113		-27.343750
7114		-23.437500
7115		-27.343750
7116		-23.437500
7117		-27.343750
7118		-21.484375
7119		-25.390625
7120		-21.484375
7121		-25.390625
7122		-21.484375
7123		-25.390625
7124		-21.484375
7125		-23.437500
7126		-21.484375
7127		-23.437500
7128		-19.531250
7129		-23.437500
7130		-19.531250
7131		-21.484375
7132		-19.531250
7133		-21.484375
7134		-17.578125
7135		-21.484375
7136		-17.578125
7137		-21.484375
7138		-17.578125
7139		-19.531250
7140		-15.625000
7141		-19.531250
7142		-15.625000
7143		-19.531250
7144		-15.625000
7145		-17.578125
7146		-13.671875
7147		-17.578125
7148		-13.671875
7149		-17.578125
7150		-13.671875
7151		-17.578125
7152		-11.718750
7153		-15.625000
7154		-11.718750
7155		-15.625000
7156		-11.718750
7157		-13.671875
7158		-11.718750
7159		-13.671875
7160		-9.765625
7161		-15.625000
7162		-9.765625
7163		-11.718750
7164		-9.765625
7165		-11.718750
7166		-7.812500
7167		-11.718750
7168		-7.812500
7169		-11.718750
7170		-7.812500
7171		-9.765625
7172		-5.859375
7173		-11.718750
7174		-5.859375
7175		-7.812500
7176		-5.859375
7177		-9.765625
7178		-3.906250
7179		-7.812500
7180		-3.906250
7181		-7.812500
7182		-1.953125
7183		-5.859375
7184		-1.953125
7185		-5.859375
7186		-1.953125
7187		-3.906250
7188		-1.953125
7189		-3.906250
7190		0.000000
7191		-3.906250
7192		0.000000
7193		-3.906250
7194		1.953125
7195		-1.953125
7196		1.953125
7197		-1.953125
7198		1.953125
7199		0.000000
7200		1.953125
7201		0.000000
7202		3.906250
7203		0.000000
7204		3.906250
7205		1.953125
7206		5.859375
7207		1.953125
7208		3.906250
7209		1.953125
7210		5.859375
7211		1.953125
7212		5.859375
7213		3.906250
7214		7.812500
7215		3.906250
7216		7.812500
7217		5.859375
7218		7.812500
7219		5.859375
7220		9.765625
7221		5.859375
7222		9.765625
7223		5.859375
7224		9.765625
7225		5.859375
7226		11.718750
7227		7.812500
7228		11.718750
7229		7.812500
7230		11.718750
7231		7.812500
7232		13.671875
7233		9.765625
7234		13.671875
7235		9.765625
7236		15.625000
7237		9.765625
7238		13.671875
7239		11.718750
7240		15.625000
7241		11.718750
7242		15.625000
7243		11.718750
7244		15.625000
7245		13.671875
7246		17.578125
7247		13.671875
7248		17.578125
7249		13.671875
7250		17.578125
7251		15.625000
7252		17.578125
7253		15.625000
7254		19.531250
7255		15.625000
7256		19.531250
7257		15.625000
7258		19.531250
7259		17.578125
7260		21.484375
7261		17.578125
7262		21.484375
7263		17.578125
7264		23.437500
7265		19.531250
7266		21.484375
7267		19.531250
7268		23.437500
7269		19.531250
7270		23.437500
7271		19.531250
7272		25.390625
7273		21.484375
7274		25.390625
7275		21.484375
7276		25.390625
7277		21.484375
7278		25.390625
7279		21.484375
7280		25.390625
7281		21.484375
7282		25.390625
7283		23.437500
7284		25.390625
7285		23.437500
7286		27.343750
7287		23.437500
7288		27.343750
7289		25.390625
7290		27.343750
7291		25.390625
7292		29.296875
7293		25.390625
7294		29.296875
7295		25.390625
7296		29.296875
7297		25.390625
7298		29.296875
7299		27.343750
7300		29.296875
7301		27.343750
7302		31.250000
7303		27.343750
7304		31.250000
7305		27.343750
7306		31.250000
7307		27.343750
7308		31.250000
7309		29.296875
7310		31.250000
7311		29.296875
7312		33.203125
7313		29.296875
7314		33.203125
7315		29.296875
7316		33.203125
7317		31.250000
7318		33.203125
7319		31.250000
7320		35.156250
7321		31.250000
7322		33.203125
7323		31.250000
7324		35.156250
7325		31.250000
7326		35.156250
7327		31.250000
7328		35.156250
7329		29.296875
7330		37.109375
7331		31.250000
7332		37.109375
7333		31.250000
7334		37.109375
7335		33.203125
7336		35.156250
7337		33.203125
7338		37.109375
7339		33.203125
7340		37.109375
7341		33.203125
7342		37.109375
7343		33.203125
7344		37.109375
7345		33.203125
7346		37.109375
7347		33.203125
7348		37.109375
7349		35.156250
7350		37.109375
7351		33.203125
7352		37.109375
7353		33.203125
7354		37.109375
7355		35.156250
7356		39.062500
7357		35.156250
7358		39.062500
7359		35.156250
7360		37.109375
7361		35.156250
7362		39.062500
7363		33.203125
7364		39.062500
7365		35.156250
7366		39.062500
7367		35.156250
7368		39.062500
7369		35.156250
7370		39.062500
7371		35.156250
7372		39.062500
7373		35.156250
7374		39.062500
7375		35.156250
7376		39.062500
7377		35.156250
7378		39.062500
7379		35.156250
7380		39.062500
7381		35.156250
7382		39.062500
7383		35.156250
7384		39.062500
7385		35.156250
7386		39.062500
7387		35.156250
7388		39.062500
7389		35.156250
7390		39.062500
7391		35.156250
7392		39.062500
7393		35.156250
7394		39.062500
7395		35.156250
7396		39.062500
7397		35.156250
7398		39.062500
7399		35.156250
7400		39.062500
7401		35.156250
7402		39.062500
7403		35.156250
7404		37.109375
7405		35.156250
7406		37.109375
7407		33.203125
7408		39.062500
7409		35.156250
7410		37.109375
7411		33.203125
7412		37.109375
7413		33.203125
7414		37.109375
7415		33.203125
7416		37.109375
7417		33.203125
7418		37.109375
7419		33.203125
7420		37.109375
7421		33.203125
7422		37.109375
7423		33.203125
7424		37.109375
7425		33.203125
7426		37.109375
7427		33.203125
7428		35.156250
7429		31.250000
7430		35.156250
7431		33.203125
7432		35.156250
7433		31.250000
7434		35.156250
7435		31.250000
7436		35.156250
7437		31.250000
7438		35.156250
7439		31.250000
7440		35.156250
7441		29.296875
7442		35.156250
7443		31.250000
7444		33.203125
7445		29.296875
7446		35.156250
7447		29.296875
7448		33.203125
7449		29.296875
7450		33.203125
7451		29.296875
7452		31.250000
7453		29.296875
7454		31.250000
7455		29.296875
7456		33.203125
7457		27.343750
7458		31.250000
7459		27.343750
7460		31.250000
7461		27.343750
7462		31.250000
7463		27.343750
7464		31.250000
7465		25.390625
7466		31.250000
7467		27.343750
7468		29.296875
7469		25.390625
7470		29.296875
7471		25.390625
7472		29.296875
7473		25.390625
7474		29.296875
7475		23.437500
7476		29.296875
7477		23.437500
7478		27.343750
7479		23.437500
7480		27.343750
7481		23.437500
7482		27.343750
7483		21.484375
7484		27.343750
7485		21.484375
7486		25.390625
7487		21.484375
7488		25.390625
7489		21.484375
7490		25.390625
7491		21.484375
7492		25.390625
7493		21.484375
7494		23.437500
7495		19.531250
7496		23.437500
7497		19.531250
7498		23.437500
7499		19.531250
7500		23.437500
7501		19.531250
7502		21.484375
7503		17.578125
7504		21.484375
7505		17.578125
7506		21.484375
7507		15.625000
7508		21.484375
7509		15.625000
7510		19.531250
7511		15.625000
7512		19.531250
7513		15.625000
7514		19.531250
7515		15.625000
7516		17.578125
7517		13.671875
7518		17.578125
7519		13.671875
7520		17.578125
7521		13.671875
7522		15.625000
7523		11.718750
7524		15.625000
7525		11.718750
7526		15.625000
7527		11.718750
7528		13.671875
7529		9.765625
7530		13.671875
7531		9.765625
7532		13.671875
7533		9.765625
7534		13.671875
7535		9.765625
7536		11.718750
7537		7.812500
7538		11.718750
7539		7.812500
7540		9.765625
7541		5.859375
7542		9.765625
7543		5.859375
7544		9.765625
7545		5.859375
7546		7.812500
7547		3.906250
7548		7.812500
7549		3.906250
7550		7.812500
7551		3.906250
7552		5.859375
7553		3.906250
7554		7.812500
7555		1.953125
7556		5.859375
7557		0.000000
7558		5.859375
7559		1.953125
7560		5.859375
7561		0.000000
7562		3.906250
7563		-1.953125
7564		3.906250
7565		-1.953125
7566		3.906250
7567		-1.953125
7568		1.953125
7569		-1.953125
7570		1.953125
7571		-3.906250
7572		0.000000
7573		-3.906250
7574		0.000000
7575		-5.859375
7576		0.000000
7577		-3.906250
7578		-1.953125
7579		-5.859375
7580		-1.953125
7581		-7.812500
7582		-1.953125
7583		-7.812500
7584		-3.906250
7585		-7.812500
7586		-3.906250
7587		-7.812500
7588		-5.859375
7589		-9.765625
7590		-5.859375
7591		-9.765625
7592		-5.859375
7593		-9.765625
7594		-5.859375
7595		-11.718750
7596		-7.812500
7597		-11.718750
7598		-7.812500
7599		-11.718750
7600		-9.765625
7601		-13.671875
7602		-7.812500
7603		-13.671875
7604		-9.765625
7605		-13.671875
7606		-11.718750
7607		-15.625000
7608		-11.718750
7609		-15.625000
7610		-11.718750
7611		-15.625000
7612		-11.718750
7613		-15.625000
7614		-13.671875
7615		-17.578125
7616		-13.671875
7617		-17.578125
7618		-13.671875
7619		-17.578125
7620		-13.671875
7621		-19.531250
7622		-15.625000
7623		-19.531250
7624		-15.625000
7625		-19.531250
7626		-15.625000
7627		-19.531250
7628		-17.578125
7629		-21.484375
7630		-17.578125
7631		-21.484375
7632		-17.578125
7633		-21.484375
7634		-19.531250
7635		-23.437500
7636		-19.531250
7637		-23.437500
7638		-19.531250
7639		-23.437500
7640		-21.484375
7641		-25.390625
7642		-19.531250
7643		-25.390625
7644		-21.484375
7645		-25.390625
7646		-23.437500
7647		-27.343750
7648		-21.484375
7649		-27.343750
7650		-23.437500
7651		-27.343750
7652		-23.437500
7653		-29.296875
7654		-23.437500
7655		-27.343750
7656		-25.390625
7657		-29.296875
7658		-25.390625
7659		-29.296875
7660		-25.390625
7661		-29.296875
7662		-27.343750
7663		-29.296875
7664		-27.343750
7665		-31.250000
7666		-25.390625
7667		-31.250000
7668		-27.343750
7669		-31.250000
7670		-27.343750
7671		-33.203125
7672		-29.296875
7673		-33.203125
7674		-29.296875
7675		-33.203125
7676		-29.296875
7677		-33.203125
7678		-29.296875
7679		-33.203125
7680		-31.250000
7681		-35.156250
7682		-31.250000
7683		-35.156250
7684		-29.296875
7685		-35.156250
7686		-31.250000
7687		-35.156250
7688		-31.250000
7689		-35.156250
7690		-31.250000
7691		-35.156250
7692		-31.250000
7693		-35.156250
7694		-31.250000
7695		-35.156250
7696		-33.203125
7697		-37.109375
7698		-31.250000
7699		-37.109375
7700		-33.203125
7701		-37.109375
7702		-33.203125
7703		-37.109375
7704		-33.203125
7705		-37.109375
7706		-35.156250
7707		-37.109375
7708		-35.156250
7709		-37.109375
7710		-35.156250
7711		-39.062500
7712		-33.203125
7713		-39.062500
7714		-35.156250
7715		-39.062500
7716		-35.156250
7717		-39.062500
7718		-35.156250
7719		-39.062500
7720		-35.156250
7721		-39.062500
7722		-35.156250
7723		-39.062500
7724		-35.156250
7725		-39.062500
7726		-35.156250
7727		-41.015625
7728		-35.156250
7729		-41.015625
7730		-37.109375
7731		-39.062500
7732		-37.109375
7733		-41.015625
7734		-37.109375
7735		-39.062500
7736		-37.109375
7737		-41.015625
7738		-37.109375
7739		-41.015625
7740		-37.109375
7741		-41.015625
7742		-37.109375
7743		-41.015625
7744		-37.109375
7745		-41.015625
7746		-37.109375
7747		-39.062500
7748		-37.109375
7749		-41.015625
7750		-37.109375
7751		-41.015625
7752		-37.109375
7753		-41.015625
7754		-37.109375
7755		-41.015625
7756		-37.109375
7757		-41.015625
7758		-37.109375
7759		-41.015625
7760		-35.156250
7761		-41.015625
7762		-35.156250
7763		-39.062500
7764		-37.109375
7765		-41.015625
7766		-37.109375
7767		-39.062500
7768		-35.156250
7769		-39.062500
7770		-37.109375
7771		-39.062500
7772		-37.109375
7773		-39.062500
7774		-35.156250
7775		-39.062500
7776		-35.156250
7777		-39.062500
7778		-35.156250
7779		-39.062500
7780		-35.156250
7781		-39.062500
7782		-35.156250
7783		-39.062500
7784		-35.156250
7785		-39.062500
7786		-35.156250
7787		-37.109375
7788		-35.156250
7789		-37.109375
7790		-35.156250
7791		-37.109375
7792		-35.156250
7793		-37.109375
7794		-33.203125
7795		-39.062500
7796		-33.203125
7797		-37.109375
7798		-33.203125
7799		-37.109375
7800		-33.203125
7801		-37.109375
7802		-33.203125
7803		-37.109375
7804		-33.203125
7805		-35.156250
7806		-31.250000
7807		-35.156250
7808		-31.250000
7809		-35.156250
7810		-31.250000
7811		-35.156250
7812		-31.250000
7813		-33.203125
7814		-31.250000
7815		-35.156250
7816		-29.296875
7817		-33.203125
7818		-29.296875
7819		-33.203125
7820		-29.296875
7821		-33.203125
7822		-29.296875
7823		-33.203125
7824		-29.296875
7825		-31.250000
7826		-29.296875
7827		-31.250000
7828		-27.343750
7829		-31.250000
7830		-27.343750
7831		-31.250000
7832		-27.343750
7833		-31.250000
7834		-27.343750
7835		-29.296875
7836		-27.343750
7837		-29.296875
7838		-25.390625
7839		-29.296875
7840		-25.390625
7841		-29.296875
7842		-25.390625
7843		-27.343750
7844		-23.437500
7845		-27.343750
7846		-23.437500
7847		-27.343750
7848		-23.437500
7849		-27.343750
7850		-21.484375
7851		-25.390625
7852		-21.484375
7853		-25.390625
7854		-21.484375
7855		-25.390625
7856		-21.484375
7857		-23.437500
7858		-21.484375
7859		-23.437500
7860		-21.484375
7861		-23.437500
7862		-19.531250
7863		-21.484375
7864		-19.531250
7865		-21.484375
7866		-19.531250
7867		-21.484375
7868		-17.578125
7869		-21.484375
7870		-17.578125
7871		-19.531250
7872		-17.578125
7873		-19.531250
7874		-15.625000
7875		-19.531250
7876		-15.625000
7877		-17.578125
7878		-15.625000
7879		-19.531250
7880		-13.671875
7881		-17.578125
7882		-13.671875
7883		-17.578125
7884		-13.671875
7885		-17.578125
7886		-11.718750
7887		-15.625000
7888		-11.718750
7889		-13.671875
7890		-9.765625
7891		-15.625000
7892		-9.765625
7893		-13.671875
7894		-9.765625
7895		-13.671875
7896		-7.812500
7897		-11.718750
7898		-9.765625
7899		-11.718750
7900		-7.812500
7901		-11.718750
7902		-7.812500
7903		-9.765625
7904		-5.859375
7905		-9.765625
7906		-5.859375
7907		-7.812500
7908		-5.859375
7909		-7.812500
7910		-5.859375
7911		-7.812500
7912		-3.906250
7913		-5.859375
7914		-3.906250
7915		-5.859375
7916		-3.906250
7917		-5.859375
7918		-1.953125
7919		-3.906250
7920		-1.953125
7921		-3.906250
7922		0.000000
7923		-3.906250
7924		1.953125
7925		-1.953125
7926		0.000000
7927		-1.953125
7928		0.000000
7929		-1.953125
7930		1.953125
7931		-1.953125
7932		1.953125
7933		0.000000
7934		3.906250
7935		0.000000
7936		3.906250
7937		0.000000
7938		3.906250
7939		1.953125
7940		3.906250
7941		1.953125
7942		5.859375
7943		1.953125
7944		5.859375
7945		1.953125
7946		7.812500
7947		3.906250
7948		7.812500
7949		3.906250
7950		9.765625
7951		5.859375
7952		7.812500
7953		5.859375
7954		9.765625
7955		5.859375
7956		9.765625
7957		7.812500
7958		9.765625
7959		7.812500
7960		11.718750
7961		7.812500
7962		11.718750
7963		7.812500
7964		11.718750
7965		9.765625
7966		13.671875
7967		9.765625
7968		13.671875
7969		11.718750
7970		13.671875
7971		11.718750
7972		15.625000
7973		11.718750
7974		15.625000
7975		11.718750
7976		15.625000
7977		13.671875
7978		17.578125
7979		13.671875
7980		17.578125
7981		13.671875
7982		17.578125
7983		15.625000
7984		19.531250
7985		15.625000
7986		19.531250
7987		15.625000
7988		19.531250
7989		17.578125
7990		19.531250
7991		17.578125
7992		21.484375
7993		17.578125
7994		21.484375
7995		17.578125
7996		21.484375
7997		17.578125
7998		23.437500
7999		19.531250
8000		23.437500
8001		19.531250
8002		23.437500
8003		19.531250
8004		23.437500
8005		21.484375
8006		23.437500
8007		21.484375
8008		25.390625
8009		21.484375
8010		25.390625
8011		23.437500
8012		25.390625
8013		21.484375
8014		27.343750
8015		23.437500
8016		27.343750
8017		23.437500
8018		27.343750
8019		25.390625
8020		27.343750
8021		25.390625
8022		27.343750
8023		25.390625
8024		29.296875
8025		25.390625
8026		29.296875
8027		25.390625
8028		29.296875
8029		25.390625
8030		29.296875
8031		27.343750
8032		29.296875
8033		27.343750
8034		31.250000
8035		27.343750
8036		31.250000
8037		27.343750
8038		31.250000
8039		29.296875
8040		31.250000
8041		27.343750
8042		33.203125
8043		29.296875
8044		33.203125
8045		29.296875
8046		33.203125
8047		31.250000
8048		33.203125
8049		31.250000
8050		33.203125
8051		29.296875
8052		35.156250
8053		31.250000
8054		35.156250
8055		31.250000
8056		35.156250
8057		31.250000
8058		35.156250
8059		31.250000
8060		35.156250
8061		33.203125
8062		35.156250
8063		31.250000
8064		35.156250
8065		33.203125
8066		35.156250
8067		33.203125
8068		37.109375
8069		33.203125
8070		37.109375
8071		33.203125
8072		37.109375
8073		33.203125
8074		37.109375
8075		33.203125
8076		37.109375
8077		33.203125
8078		37.109375
8079		33.203125
8080		37.109375
8081		35.156250
8082		37.109375
8083		35.156250
8084		37.109375
8085		35.156250
8086		39.062500
8087		35.156250
8088		39.062500
8089		35.156250
8090		39.062500
8091		35.156250
8092		39.062500
8093		35.156250
8094		39.062500
8095		35.156250
8096		39.062500
8097		35.156250
8098		39.062500
8099		35.156250
8100		39.062500
8101		35.156250
8102		39.062500
8103		35.156250
8104		41.015625
8105		35.156250
8106		39.062500
8107		35.156250
8108		39.062500
8109		35.156250
8110		39.062500
8111		35.156250
8112		39.062500
8113		35.156250
8114		39.062500
8115		37.109375
8116		39.062500
8117		35.156250
8118		41.015625
8119		35.156250
8120		39.062500
8121		35.156250
8122		39.062500
8123		35.156250
8124		39.062500
8125		35.156250
8126		39.062500
8127		35.156250
8128		39.062500
8129		35.156250
8130		39.062500
8131		35.156250
8132		39.062500
8133		35.156250
8134		39.062500
8135		33.203125
8136		39.062500
8137		35.156250
8138		39.062500
8139		35.156250
8140		37.109375
8141		35.156250
8142		39.062500
8143		35.156250
8144		39.062500
8145		35.156250
8146		37.109375
8147		33.203125
8148		37.109375
8149		35.156250
8150		37.109375
8151		35.156250
8152		37.109375
8153		33.203125
8154		37.109375
8155		33.203125
8156		37.109375
8157		33.203125
8158		37.109375
8159		31.250000
8160		37.109375
8161		33.203125
8162		35.156250
8163		31.250000
8164		37.109375
8165		33.203125
8166		35.156250
8167		31.250000
8168		35.156250
8169		31.250000
8170		35.156250
8171		31.250000
8172		35.156250
8173		31.250000
8174		35.156250
8175		31.250000
8176		35.156250
8177		31.250000
8178		33.203125
8179		31.250000
8180		33.203125
8181		31.250000
8182		35.156250
8183		31.250000
8184		33.203125
8185		29.296875
8186		33.203125
8187		29.296875
8188		33.203125
8189		29.296875
8190		31.250000
8191		27.343750
8192		31.250000
8193		27.343750
8194		31.250000
8195		27.343750
8196		31.250000
8197		27.343750
8198		31.250000
8199		27.343750
8200		31.250000
8201		27.343750
8202		29.296875
8203		25.390625
8204		29.296875
8205		25.390625
8206		29.296875
8207		25.390625
8208		29.296875
8209		23.437500
8210		29.296875
8211		23.437500
8212		27.343750
8213		23.437500
8214		27.343750
8215		23.437500
8216		27.343750
8217		23.437500
8218		25.390625
8219		23.437500
8220		27.343750
8221		21.484375
8222		25.390625
8223		21.484375
8224		25.390625
8225		21.484375
8226		23.437500
8227		21.484375
8228		25.390625
8229		19.531250
8230		23.437500
8231		19.531250
8232		23.437500
8233		19.531250
8234		21.484375
8235		19.531250
8236		21.484375
8237		17.578125
8238		21.484375
8239		17.578125
8240		21.484375
8241		17.578125
8242		19.531250
8243		15.625000
8244		19.531250
8245		15.625000
8246		19.531250
8247		15.625000
8248		19.531250
8249		15.625000
8250		17.578125
8251		13.671875
8252		17.578125
8253		13.671875
8254		17.578125
8255		11.718750
8256		15.625000
8257		11.718750
8258		15.625000
8259		11.718750
8260		15.625000
8261		11.718750
8262		13.671875
8263		9.765625
8264		13.671875
8265		9.765625
8266		13.671875
8267		9.765625
8268		11.718750
8269		7.812500
8270		11.718750
8271		7.812500
8272		11.718750
8273		7.812500
8274		11.718750
8275		7.812500
8276		9.765625
8277		5.859375
8278		9.765625
8279		3.906250
8280		9.765625
8281		3.906250
8282		7.812500
8283		3.906250
8284		7.812500
8285		3.906250
8286		5.859375
8287		1.953125
8288		5.859375
8289		1.953125
8290		5.859375
8291		1.953125
8292		5.859375
8293		0.000000
8294		3.906250
8295		0.000000
8296		3.906250
8297		0.000000
8298		1.953125
8299		-1.953125
8300		1.953125
8301		-1.953125
8302		1.953125
8303		-1.953125
8304		0.000000
8305		-3.906250
8306		1.953125
8307		-3.906250
8308		0.000000
8309		-3.906250
8310		0.000000
8311		-5.859375
8312		-1.953125
8313		-5.859375
8314		-1.953125
8315		-5.859375
8316		-1.953125
8317		-5.859375
8318		-3.906250
8319		-7.812500
8320		-5.859375
8321		-9.765625
8322		-3.906250
8323		-9.765625
8324		-5.859375
8325		-9.765625
8326		-5.859375
8327		-9.765625
8328		-7.812500
8329		-11.718750
8330		-7.812500
8331		-11.718750
8332		-7.812500
8333		-13.671875
8334		-9.765625
8335		-11.718750
8336		-9.765625
8337		-13.671875
8338		-9.765625
8339		-13.671875
8340		-9.765625
8341		-13.671875
8342		-11.718750
8343		-15.625000
8344		-11.718750
8345		-15.625000
8346		-11.718750
8347		-15.625000
8348		-13.671875
8349		-17.578125
8350		-13.671875
8351		-17.578125
8352		-13.671875
8353		-17.578125
8354		-13.671875
8355		-19.531250
8356		-15.625000
8357		-19.531250
8358		-17.578125
8359		-21.484375
8360		-15.625000
8361		-19.531250
8362		-17.578125
8363		-19.531250
8364		-17.578125
8365		-21.484375
8366		-17.578125
8367		-21.484375
8368		-19.531250
8369		-21.484375
8370		-19.531250
8371		-23.437500
8372		-19.531250
8373		-23.437500
8374		-19.531250
8375		-25.390625
8376		-21.484375
8377		-25.390625
8378		-21.484375
8379		-25.390625
8380		-21.484375
8381		-25.390625
8382		-21.484375
8383		-27.343750
8384		-21.484375
8385		-25.390625
8386		-23.437500
8387		-27.343750
8388		-23.437500
8389		-27.343750
8390		-23.437500
8391		-27.343750
8392		-23.437500
8393		-29.296875
8394		-25.390625
8395		-29.296875
8396		-25.390625
8397		-29.296875
8398		-25.390625
8399		-29.296875
8400		-25.390625
8401		-29.296875
8402		-27.343750
8403		-31.250000
8404		-27.343750
8405		-31.250000
8406		-27.343750
8407		-31.250000
8408		-27.343750
8409		-31.250000
8410		-27.343750
8411		-31.250000
8412		-29.296875
8413		-33.203125
8414		-29.296875
8415		-33.203125
8416		-29.296875
8417		-33.203125
8418		-29.296875
8419		-35.156250
8420		-31.250000
8421		-35.156250
8422		-31.250000
8423		-35.156250
8424		-31.250000
8425		-35.156250
8426		-31.250000
8427		-35.156250
8428		-31.250000
8429		-37.109375
8430		-33.203125
8431		-35.156250
8432		-33.203125
8433		-37.109375
8434		-33.203125
8435		-37.109375
8436		-33.203125
8437		-37.109375
8438		-33.203125
8439		-37.109375
8440		-33.203125
8441		-37.109375
8442		-33.203125
8443		-37.109375
8444		-33.203125
8445		-37.109375
8446		-35.156250
8447		-37.109375
8448		-35.156250
8449		-37.109375
8450		-35.156250
8451		-39.062500
8452		-35.156250
8453		-37.109375
8454		-35.156250
8455		-39.062500
8456		-35.156250
8457		-39.062500
8458		-35.156250
8459		-39.062500
8460		-35.156250
8461		-39.062500
8462		-35.156250
8463		-39.062500
8464		-35.156250
8465		-39.062500
8466		-35.156250
8467		-39.062500
8468		-35.156250
8469		-39.062500
8470		-35.156250
8471		-39.062500
8472		-35.156250
8473		-39.062500
8474		-35.156250
8475		-39.062500
8476		-35.156250
8477		-39.062500
8478		-37.109375
8479		-41.015625
8480		-35.156250
8481		-39.062500
8482		-35.156250
8483		-41.015625
8484		-35.156250
8485		-39.062500
8486		-37.109375
8487		-39.062500
8488		-37.109375
8489		-41.015625
8490		-35.156250
8491		-41.015625
8492		-35.156250
8493		-39.062500
8494		-37.109375
8495		-41.015625
8496		-33.203125
8497		-41.015625
8498		-33.203125
8499		-41.015625
8500		-35.156250
8501		-39.062500
8502		-35.156250
8503		-39.062500
8504		-35.156250
8505		-39.062500
8506		-33.203125
8507		-39.062500
8508		-33.203125
8509		-39.062500
8510		-35.156250
8511		-39.062500
8512		-35.156250
8513		-39.062500
8514		-33.203125
8515		-39.062500
8516		-33.203125
8517		-37.109375
8518		-33.203125
8519		-37.109375
8520		-35.156250
8521		-39.062500
8522		-33.203125
8523		-37.109375
8524		-31.250000
8525		-37.109375
8526		-31.250000
8527		-39.062500
8528		-31.250000
8529		-39.062500
8530		-31.250000
8531		-37.109375
8532		-31.250000
8533		-35.156250
8534		-31.250000
8535		-35.156250
8536		-31.250000
8537		-35.156250
8538		-33.203125
8539		-37.109375
8540		-31.250000
8541		-37.109375
8542		-29.296875
8543		-37.109375
8544		-29.296875
8545		-35.156250
8546		-29.296875
8547		-35.156250
8548		-29.296875
8549		-35.156250
8550		-29.296875
8551		-33.203125
8552		-29.296875
8553		-31.250000
8554		-29.296875
8555		-33.203125
8556		-27.343750
8557		-33.203125
8558		-27.343750
8559		-31.250000
8560		-27.343750
8561		-31.250000
8562		-25.390625
8563		-31.250000
8564		-25.390625
8565		-31.250000
8566		-25.390625
8567		-31.250000
8568		-25.390625
8569		-29.296875
8570		-25.390625
8571		-27.343750
8572		-25.390625
8573		-29.296875
8574		-23.437500
8575		-29.296875
8576		-23.437500
8577		-29.296875
8578		-23.437500
8579		-27.343750
8580		-21.484375
8581		-27.343750
8582		-21.484375
8583		-27.343750
8584		-19.531250
8585		-25.390625
8586		-21.484375
8587		-23.437500
8588		-21.484375
8589		-25.390625
8590		-19.531250
8591		-25.390625
8592		-19.531250
8593		-25.390625
8594		-17.578125
8595		-23.437500
8596		-17.578125
8597		-23.437500
8598		-17.578125
8599		-23.437500
8600		-15.625000
8601		-21.484375
8602		-15.625000
8603		-19.531250
8604		-17.578125
8605		-19.531250
8606		-15.625000
8607		-19.531250
8608		-13.671875
8609		-19.531250
8610		-13.671875
8611		-19.531250
8612		-13.671875
8613		-19.531250
8614		-11.718750
8615		-19.531250
8616		-11.718750
8617		-17.578125
8618		-11.718750
8619		-15.625000
8620		-11.718750
8621		-15.625000
8622		-11.718750
8623		-15.625000
8624		-9.765625
8625		-15.625000
8626		-7.812500
8627		-13.671875
8628		-7.812500
8629		-13.671875
8630		-7.812500
8631		-13.671875
8632		-5.859375
8633		-13.671875
8634		-5.859375
8635		-9.765625
8636		-5.859375
8637		-9.765625
8638		-5.859375
8639		-9.765625
8640		-5.859375
8641		-9.765625
8642		-3.906250
8643		-9.765625
8644		-1.953125
8645		-7.812500
8646		-1.953125
8647		-7.812500
8648		-1.953125
8649		-7.812500
8650		-1.953125
8651		-7.812500
8652		0.000000
8653		-5.859375
8654		0.000000
8655		-3.906250
8656		0.000000
8657		-5.859375
8658		1.953125
8659		-3.906250
8660		1.953125
8661		-3.906250
8662		3.906250
8663		-3.906250
8664		3.906250
8665		-1.953125
8666		3.906250
8667		-1.953125
8668		5.859375
8669		0.000000
8670		5.859375
8671		0.000000
8672		5.859375
8673		0.000000
8674		7.812500
8675		1.953125
8676		7.812500
8677		1.953125
8678		7.812500
8679		1.953125
8680		9.765625
8681		1.953125
8682		9.765625
8683		3.906250
8684		9.765625
8685		3.906250
8686		9.765625
8687		5.859375
8688		9.765625
8689		7.812500
8690		11.718750
8691		5.859375
8692		13.671875
8693		5.859375
8694		13.671875
8695		7.812500
8696		13.671875
8697		7.812500
8698		15.625000
8699		7.812500
8700		15.625000
8701		9.765625
8702		15.625000
8703		11.718750
8704		13.671875
8705		13.671875
8706		15.625000
8707		11.718750
8708		17.578125
8709		11.718750
8710		17.578125
8711		11.718750
8712		19.531250
8713		13.671875
8714		19.531250
8715		13.671875
8716		19.531250
8717		13.671875
8718		21.484375
8719		15.625000
8720		21.484375
8721		17.578125
8722		21.484375
8723		15.625000
8724		21.484375
8725		15.625000
8726		23.437500
8727		15.625000
8728		23.437500
8729		17.578125
8730		23.437500
8731		17.578125
8732		23.437500
8733		17.578125
8734		25.390625
8735		17.578125
8736		25.390625
8737		21.484375
8738		23.437500
8739		21.484375
8740		25.390625
8741		21.484375
8742		27.343750
8743		21.484375
8744		27.343750
8745		21.484375
8746		29.296875
8747		23.437500
8748		29.296875
8749		21.484375
8750		29.296875
8751		23.437500
8752		29.296875
8753		23.437500
8754		29.296875
8755		25.390625
8756		29.296875
8757		25.390625
8758		31.250000
8759		25.390625
8760		31.250000
8761		25.390625
8762		31.250000
8763		25.390625
8764		31.250000
8765		27.343750
8766		33.203125
8767		25.390625
8768		33.203125
8769		27.343750
8770		33.203125
8771		29.296875
8772		33.203125
8773		29.296875
8774		33.203125
8775		27.343750
8776		35.156250
8777		29.296875
8778		35.156250
8779		29.296875
8780		35.156250
8781		29.296875
8782		35.156250
8783		29.296875
8784		35.156250
8785		29.296875
8786		37.109375
8787		31.250000
8788		35.156250
8789		31.250000
8790		35.156250
8791		31.250000
8792		37.109375
8793		31.250000
8794		37.109375
8795		31.250000
8796		37.109375
8797		31.250000
8798		37.109375
8799		31.250000
8800		37.109375
8801		31.250000
8802		39.062500
8803		33.203125
8804		39.062500
8805		35.156250
8806		37.109375
8807		33.203125
8808		39.062500
8809		31.250000
8810		39.062500
8811		33.203125
8812		39.062500
8813		33.203125
8814		39.062500
8815		33.203125
8816		39.062500
8817		33.203125
8818		39.062500
8819		33.203125
8820		41.015625
8821		35.156250
8822		39.062500
8823		35.156250
8824		39.062500
8825		33.203125
8826		41.015625
8827		33.203125
8828		41.015625
8829		33.203125
8830		41.015625
8831		35.156250
8832		41.015625
8833		35.156250
8834		41.015625
8835		35.156250
8836		41.015625
8837		35.156250
8838		41.015625
8839		37.109375
8840		39.062500
8841		35.156250
8842		41.015625
8843		35.156250
8844		41.015625
8845		35.156250
8846		41.015625
8847		35.156250
8848		41.015625
8849		35.156250
8850		41.015625
8851		35.156250
8852		41.015625
8853		35.156250
8854		41.015625
8855		35.156250
8856		39.062500
8857		37.109375
8858		39.062500
8859		35.156250
8860		41.015625
8861		35.156250
8862		41.015625
8863		35.156250
8864		41.015625
8865		33.203125
8866		41.015625
8867		33.203125
8868		41.015625
8869		33.203125
8870		41.015625
8871		35.156250
8872		39.062500
8873		35.156250
8874		39.062500
8875		33.203125
8876		41.015625
8877		33.203125
8878		41.015625
8879		33.203125
8880		41.015625
8881		33.203125
8882		39.062500
8883		33.203125
8884		39.062500
8885		33.203125
8886		39.062500
8887		33.203125
8888		39.062500
8889		35.156250
8890		37.109375
8891		31.250000
8892		37.109375
8893		31.250000
8894		39.062500
8895		31.250000
8896		39.062500
8897		31.250000
8898		39.062500
8899		31.250000
8900		39.062500
8901		31.250000
8902		37.109375
8903		31.250000
8904		37.109375
8905		31.250000
8906		35.156250
8907		33.203125
8908		35.156250
8909		29.296875
8910		37.109375
8911		29.296875
8912		37.109375
8913		29.296875
8914		37.109375
8915		29.296875
8916		35.156250
8917		29.296875
8918		35.156250
8919		29.296875
8920		35.156250
8921		29.296875
8922		33.203125
8923		29.296875
8924		31.250000
8925		27.343750
8926		33.203125
8927		27.343750
8928		33.203125
8929		27.343750
8930		33.203125
8931		25.390625
8932		33.203125
8933		25.390625
8934		33.203125
8935		25.390625
8936		31.250000
8937		25.390625
8938		31.250000
8939		25.390625
8940		29.296875
8941		25.390625
8942		29.296875
8943		23.437500
8944		29.296875
8945		23.437500
8946		29.296875
8947		23.437500
8948		29.296875
8949		21.484375
8950		29.296875
8951		21.484375
8952		27.343750
8953		21.484375
8954		27.343750
8955		23.437500
8956		27.343750
8957		21.484375
8958		25.390625
8959		19.531250
8960		25.390625
8961		19.531250
8962		25.390625
8963		19.531250
8964		25.390625
8965		17.578125
8966		25.390625
8967		17.578125
8968		23.437500
8969		17.578125
8970		23.437500
8971		17.578125
8972		23.437500
8973		17.578125
8974		21.484375
8975		15.625000
8976		19.531250
8977		13.671875
8978		21.484375
8979		13.671875
8980		21.484375
8981		13.671875
8982		19.531250
8983		11.718750
8984		19.531250
8985		11.718750
8986		19.531250
8987		11.718750
8988		17.578125
8989		11.718750
8990		15.625000
8991		13.671875
8992		15.625000
8993		9.765625
8994		15.625000
8995		7.812500
8996		15.625000
8997		7.812500
8998		15.625000
8999		9.765625
9000		13.671875
9001		7.812500
9002		13.671875
9003		7.812500
9004		13.671875
9005		7.812500
9006		11.718750
9007		7.812500
9008		9.765625
9009		5.859375
9010		11.718750
9011		3.906250
9012		11.718750
9013		3.906250
9014		9.765625
9015		1.953125
9016		9.765625
9017		1.953125
9018		7.812500
9019		1.953125
9020		7.812500
9021		1.953125
9022		7.812500
9023		1.953125
9024		5.859375
9025		0.000000
9026		5.859375
9027		0.000000
9028		5.859375
9029		-1.953125
9030		5.859375
9031		-1.953125
9032		3.906250
9033		-3.906250
9034		3.906250
9035		-3.906250
9036		1.953125
9037		-3.906250
9038		1.953125
9039		-3.906250
9040		1.953125
9041		-3.906250
9042		0.000000
9043		-5.859375
9044		0.000000
9045		-5.859375
9046		0.000000
9047		-7.812500
9048		0.000000
9049		-7.812500
9050		-1.953125
9051		-7.812500
9052		-1.953125
9053		-9.765625
9054		-1.953125
9055		-9.765625
9056		-3.906250
9057		-7.812500
9058		-5.859375
9059		-9.765625
9060		-5.859375
9061		-11.718750
9062		-3.906250
9063		-11.718750
9064		-5.859375
9065		-11.718750
9066		-5.859375
9067		-11.718750
9068		-5.859375
9069		-13.671875
9070		-7.812500
9071		-15.625000
9072		-7.812500
9073		-13.671875
9074		-11.718750
9075		-13.671875
9076		-11.718750
9077		-15.625000
9078		-9.765625
9079		-17.578125
9080		-11.718750
9081		-17.578125
9082		-11.718750
9083		-19.531250
9084		-11.718750
9085		-19.531250
9086		-11.718750
9087		-19.531250
9088		-13.671875
9089		-19.531250
9090		-13.671875
9091		-19.531250
9092		-15.625000
9093		-19.531250
9094		-15.625000
9095		-21.484375
9096		-15.625000
9097		-21.484375
9098		-15.625000
9099		-23.437500
9100		-15.625000
9101		-23.437500
9102		-17.578125
9103		-23.437500
9104		-17.578125
9105		-23.437500
9106		-17.578125
9107		-23.437500
9108		-19.531250
9109		-23.437500
9110		-21.484375
9111		-25.390625
9112		-19.531250
9113		-25.390625
9114		-19.531250
9115		-27.343750
9116		-21.484375
9117		-27.343750
9118		-21.484375
9119		-29.296875
9120		-21.484375
9121		-29.296875
9122		-21.484375
9123		-29.296875
9124		-23.437500
9125		-27.343750
9126		-25.390625
9127		-29.296875
9128		-23.437500
9129		-31.250000
9130		-23.437500
9131		-31.250000
9132		-25.390625
9133		-31.250000
9134		-25.390625
9135		-31.250000
9136		-25.390625
9137		-33.203125
9138		-25.390625
9139		-31.250000
9140		-25.390625
9141		-31.250000
9142		-29.296875
9143		-33.203125
9144		-29.296875
9145		-35.156250
9146		-27.343750
9147		-35.156250
9148		-27.343750
9149		-35.156250
9150		-27.343750
9151		-35.156250
9152		-29.296875
9153		-35.156250
9154		-29.296875
9155		-35.156250
9156		-29.296875
9157		-35.156250
9158		-29.296875
9159		-35.156250
9160		-31.250000
9161		-37.109375
9162		-31.250000
9163		-37.109375
9164		-29.296875
9165		-37.109375
9166		-31.250000
9167		-37.109375
9168		-31.250000
9169		-37.109375
9170		-31.250000
9171		-39.062500
9172		-31.250000
9173		-37.109375
9174		-31.250000
9175		-37.109375
9176		-33.203125
9177		-37.109375
9178		-33.203125
9179		-41.015625
9180		-33.203125
9181		-39.062500
9182		-33.203125
9183		-39.062500
9184		-33.203125
9185		-41.015625
9186		-33.203125
9187		-39.062500
9188		-33.203125
9189		-39.062500
9190		-33.203125
9191		-39.062500
9192		-35.156250
9193		-37.109375
9194		-35.156250
9195		-41.015625
9196		-33.203125
9197		-41.015625
9198		-33.203125
9199		-41.015625
9200		-33.203125
9201		-41.015625
9202		-33.203125
9203		-41.015625
9204		-33.203125
9205		-41.015625
9206		-33.203125
9207		-39.062500
9208		-35.156250
9209		-39.062500
9210		-35.156250
9211		-41.015625
9212		-33.203125
9213		-41.015625
9214		-33.203125
9215		-41.015625
9216		-35.156250
9217		-41.015625
9218		-35.156250
9219		-41.015625
9220		-35.156250
9221		-41.015625
9222		-35.156250
9223		-41.015625
9224		-35.156250
9225		-39.062500
9226		-37.109375
9227		-39.062500
9228		-35.156250
9229		-41.015625
9230		-33.203125
9231		-41.015625
9232		-33.203125
9233		-39.062500
9234		-33.203125
9235		-39.062500
9236		-31.250000
9237		-39.062500
9238		-33.203125
9239		-39.062500
9240		-33.203125
9241		-37.109375
9242		-33.203125
9243		-37.109375
9244		-35.156250
9245		-39.062500
9246		-33.203125
9247		-39.062500
9248		-33.203125
9249		-39.062500
9250		-33.203125
9251		-39.062500
9252		-31.250000
9253		-37.109375
9254		-31.250000
9255		-37.109375
9256		-31.250000
9257		-37.109375
9258		-31.250000
9259		-35.156250
9260		-33.203125
9261		-37.109375
9262		-31.250000
9263		-37.109375
9264		-31.250000
9265		-37.109375
9266		-29.296875
9267		-37.109375
9268		-29.296875
9269		-37.109375
9270		-29.296875
9271		-35.156250
9272		-29.296875
9273		-35.156250
9274		-29.296875
9275		-33.203125
9276		-31.250000
9277		-33.203125
9278		-31.250000
9279		-33.203125
9280		-27.343750
9281		-33.203125
9282		-27.343750
9283		-35.156250
9284		-27.343750
9285		-33.203125
9286		-27.343750
9287		-33.203125
9288		-27.343750
9289		-33.203125
9290		-25.390625
9291		-31.250000
9292		-27.343750
9293		-29.296875
9294		-25.390625
9295		-31.250000
9296		-25.390625
9297		-31.250000
9298		-25.390625
9299		-31.250000
9300		-23.437500
9301		-29.296875
9302		-23.437500
9303		-29.296875
9304		-23.437500
9305		-29.296875
9306		-21.484375
9307		-29.296875
9308		-23.437500
9309		-27.343750
9310		-23.437500
9311		-25.390625
9312		-21.484375
9313		-27.343750
9314		-19.531250
9315		-27.343750
9316		-21.484375
9317		-27.343750
9318		-19.531250
9319		-25.390625
9320		-19.531250
9321		-23.437500
9322		-19.531250
9323		-23.437500
9324		-19.531250
9325		-23.437500
9326		-19.531250
9327		-21.484375
9328		-19.531250
9329		-21.484375
9330		-17.578125
9331		-23.437500
9332		-15.625000
9333		-21.484375
9334		-15.625000
9335		-21.484375
9336		-15.625000
9337		-21.484375
9338		-13.671875
9339		-19.531250
9340		-13.671875
9341		-19.531250
9342		-13.671875
9343		-17.578125
9344		-13.671875
9345		-17.578125
9346		-11.718750
9347		-17.578125
9348		-11.718750
9349		-17.578125
9350		-11.718750
9351		-17.578125
9352		-9.765625
9353		-15.625000
9354		-9.765625
9355		-15.625000
9356		-9.765625
9357		-15.625000
9358		-7.812500
9359		-11.718750
9360		-7.812500
9361		-13.671875
9362		-9.765625
9363		-13.671875
9364		-5.859375
9365		-13.671875
9366		-5.859375
9367		-11.718750
9368		-5.859375
9369		-9.765625
9370		-3.906250
9371		-11.718750
9372		-3.906250
9373		-9.765625
9374		-3.906250
9375		-9.765625
9376		-3.906250
9377		-5.859375
9378		-3.906250
9379		-7.812500
9380		-1.953125
9381		-7.812500
9382		-1.953125
9383		-7.812500
9384		0.000000
9385		-5.859375
9386		0.000000
9387		-5.859375
9388		0.000000
9389		-5.859375
9390		1.953125
9391		-3.906250
9392		1.953125
9393		-1.953125
9394		1.953125
9395		0.000000
9396		1.953125
9397		-1.953125
9398		3.906250
9399		-1.953125
9400		5.859375
9401		-1.953125
9402		5.859375
9403		0.000000
9404		5.859375
9405		0.000000
9406		7.812500
9407		1.953125
9408		7.812500
9409		3.906250
9410		5.859375
9411		3.906250
9412		7.812500
9413		3.906250
9414		9.765625
9415		3.906250
9416		9.765625
9417		3.906250
9418		9.765625
9419		3.906250
9420		11.718750
9421		5.859375
9422		11.718750
9423		5.859375
9424		11.718750
9425		5.859375
9426		13.671875
9427		9.765625
9428		11.718750
9429		7.812500
9430		13.671875
9431		7.812500
9432		15.625000
9433		9.765625
9434		15.625000
9435		9.765625
9436		15.625000
9437		9.765625
9438		17.578125
9439		11.718750
9440		17.578125
9441		11.718750
9442		17.578125
9443		13.671875
9444		17.578125
9445		13.671875
9446		17.578125
9447		13.671875
9448		19.531250
9449		13.671875
9450		19.531250
9451		13.671875
9452		21.484375
9453		15.625000
9454		21.484375
9455		15.625000
9456		21.484375
9457		15.625000
9458		23.437500
9459		15.625000
9460		23.437500
9461		19.531250
9462		21.484375
9463		17.578125
9464		23.437500
9465		17.578125
9466		25.390625
9467		19.531250
9468		25.390625
9469		19.531250
9470		25.390625
9471		19.531250
9472		27.343750
9473		19.531250
9474		27.343750
9475		19.531250
9476		27.343750
9477		23.437500
9478		27.343750
9479		23.437500
9480		25.390625
9481		21.484375
9482		29.296875
9483		21.484375
9484		29.296875
9485		23.437500
9486		29.296875
9487		23.437500
9488		31.250000
9489		23.437500
9490		31.250000
9491		23.437500
9492		31.250000
9493		25.390625
9494		31.250000
9495		27.343750
9496		29.296875
9497		25.390625
9498		33.203125
9499		27.343750
9500		33.203125
9501		25.390625
9502		33.203125
9503		27.343750
9504		33.203125
9505		27.343750
9506		33.203125
9507		27.343750
9508		33.203125
9509		29.296875
9510		33.203125
9511		31.250000
9512		33.203125
9513		29.296875
9514		35.156250
9515		29.296875
9516		35.156250
9517		29.296875
9518		35.156250
9519		29.296875
9520		37.109375
9521		29.296875
9522		37.109375
9523		29.296875
9524		37.109375
9525		31.250000
9526		37.109375
9527		33.203125
9528		35.156250
9529		33.203125
9530		37.109375
9531		31.250000
9532		37.109375
9533		31.250000
9534		39.062500
9535		33.203125
9536		39.062500
9537		33.203125
9538		39.062500
9539		31.250000
9540		39.062500
9541		33.203125
9542		39.062500
9543		33.203125
9544		39.062500
9545		35.156250
9546		37.109375
9547		33.203125
9548		39.062500
9549		33.203125
9550		39.062500
9551		33.203125
9552		41.015625
9553		33.203125
9554		41.015625
9555		35.156250
9556		41.015625
9557		35.156250
9558		41.015625
9559		35.156250
9560		41.015625
9561		35.156250
9562		39.062500
9563		35.156250
9564		39.062500
9565		35.156250
9566		41.015625
9567		35.156250
9568		41.015625
9569		35.156250
9570		41.015625
9571		35.156250
9572		41.015625
9573		35.156250
9574		41.015625
9575		35.156250
9576		41.015625
9577		37.109375
9578		39.062500
9579		35.156250
9580		39.062500
9581		35.156250
9582		41.015625
9583		35.156250
9584		41.015625
9585		35.156250
9586		41.015625
9587		35.156250
9588		41.015625
9589		35.156250
9590		41.015625
9591		35.156250
9592		41.015625
9593		35.156250
9594		41.015625
9595		37.109375
9596		39.062500
9597		35.156250
9598		41.015625
9599		35.156250
9600		41.015625
9601		35.156250
9602		41.015625
9603		35.156250
9604		41.015625
9605		33.203125
9606		42.968750
9607		33.203125
9608		41.015625
9609		33.203125
9610		41.015625
9611		35.156250
9612		39.062500
9613		35.156250
9614		39.062500
9615		33.203125
9616		39.062500
9617		33.203125
9618		41.015625
9619		33.203125
9620		39.062500
9621		33.203125
9622		39.062500
9623		33.203125
9624		39.062500
9625		33.203125
9626		39.062500
9627		33.203125
9628		39.062500
9629		35.156250
9630		37.109375
9631		31.250000
9632		37.109375
9633		31.250000
9634		39.062500
9635		31.250000
9636		39.062500
9637		31.250000
9638		37.109375
9639		31.250000
9640		37.109375
9641		31.250000
9642		37.109375
9643		31.250000
9644		37.109375
9645		33.203125
9646		35.156250
9647		31.250000
9648		33.203125
9649		29.296875
9650		35.156250
9651		29.296875
9652		35.156250
9653		29.296875
9654		35.156250
9655		29.296875
9656		35.156250
9657		27.343750
9658		35.156250
9659		27.343750
9660		35.156250
9661		27.343750
9662		33.203125
9663		29.296875
9664		31.250000
9665		25.390625
9666		33.203125
9667		25.390625
9668		33.203125
9669		25.390625
9670		31.250000
9671		25.390625
9672		31.250000
9673		25.390625
9674		31.250000
9675		23.437500
9676		31.250000
9677		23.437500
9678		31.250000
9679		25.390625
9680		29.296875
9681		23.437500
9682		29.296875
9683		23.437500
9684		29.296875
9685		21.484375
9686		29.296875
9687		21.484375
9688		29.296875
9689		21.484375
9690		27.343750
9691		19.531250
9692		27.343750
9693		19.531250
9694		27.343750
9695		21.484375
9696		23.437500
9697		21.484375
9698		23.437500
9699		17.578125
9700		25.390625
9701		17.578125
9702		25.390625
9703		17.578125
9704		23.437500
9705		17.578125
9706		23.437500
9707		15.625000
9708		23.437500
9709		15.625000
9710		21.484375
9711		15.625000
9712		21.484375
9713		17.578125
9714		19.531250
9715		15.625000
9716		19.531250
9717		13.671875
9718		19.531250
9719		13.671875
9720		19.531250
9721		11.718750
9722		19.531250
9723		11.718750
9724		17.578125
9725		11.718750
9726		17.578125
9727		9.765625
9728		15.625000
9729		11.718750
9730		13.671875
9731		11.718750
9732		13.671875
9733		7.812500
9734		15.625000
9735		7.812500
9736		15.625000
9737		5.859375
9738		13.671875
9739		5.859375
9740		13.671875
9741		5.859375
9742		13.671875
9743		5.859375
9744		11.718750
9745		5.859375
9746		9.765625
9747		5.859375
9748		9.765625
9749		3.906250
9750		9.765625
9751		3.906250
9752		9.765625
9753		1.953125
9754		7.812500
9755		1.953125
9756		7.812500
9757		0.000000
9758		7.812500
9759		0.000000
9760		7.812500
9761		0.000000
9762		5.859375
9763		1.953125
9764		3.906250
9765		-1.953125
9766		3.906250
9767		-1.953125
9768		3.906250
9769		-1.953125
9770		3.906250
9771		-3.906250
9772		1.953125
9773		-5.859375
9774		1.953125
9775		-3.906250
9776		1.953125
9777		-5.859375
9778		1.953125
9779		-3.906250
9780		-1.953125
9781		-5.859375
9782		-1.953125
9783		-7.812500
9784		-1.953125
9785		-7.812500
9786		-1.953125
9787		-9.765625
9788		-1.953125
9789		-7.812500
9790		-3.906250
9791		-9.765625
9792		-3.906250
9793		-11.718750
9794		-3.906250
9795		-9.765625
9796		-5.859375
9797		-9.765625
9798		-7.812500
9799		-11.718750
9800		-5.859375
9801		-13.671875
9802		-7.812500
9803		-13.671875
9804		-7.812500
9805		-15.625000
9806		-7.812500
9807		-13.671875
9808		-9.765625
9809		-15.625000
9810		-9.765625
9811		-15.625000
9812		-9.765625
9813		-15.625000
9814		-11.718750
9815		-15.625000
9816		-11.718750
9817		-17.578125
9818		-11.718750
9819		-19.531250
9820		-11.718750
9821		-19.531250
9822		-11.718750
9823		-19.531250
9824		-13.671875
9825		-19.531250
9826		-13.671875
9827		-21.484375
9828		-13.671875
9829		-19.531250
9830		-15.625000
9831		-19.531250
9832		-17.578125
9833		-23.437500
9834		-17.578125
9835		-23.437500
9836		-17.578125
9837		-23.437500
9838		-17.578125
9839		-23.437500
9840		-19.531250
9841		-25.390625
9842		-19.531250
9843		-25.390625
9844		-17.578125
9845		-25.390625
9846		-19.531250
9847		-25.390625
9848		-21.484375
9849		-25.390625
9850		-21.484375
9851		-27.343750
9852		-21.484375
9853		-29.296875
9854		-21.484375
9855		-27.343750
9856		-23.437500
9857		-29.296875
9858		-23.437500
9859		-29.296875
9860		-23.437500
9861		-29.296875
9862		-23.437500
9863		-27.343750
9864		-25.390625
9865		-29.296875
9866		-25.390625
9867		-31.250000
9868		-25.390625
9869		-31.250000
9870		-25.390625
9871		-31.250000
9872		-25.390625
9873		-33.203125
9874		-25.390625
9875		-33.203125
9876		-27.343750
9877		-33.203125
9878		-27.343750
9879		-33.203125
9880		-27.343750
9881		-31.250000
9882		-29.296875
9883		-33.203125
9884		-29.296875
9885		-35.156250
9886		-29.296875
9887		-35.156250
9888		-29.296875
9889		-35.156250
9890		-29.296875
9891		-35.156250
9892		-29.296875
9893		-37.109375
9894		-29.296875
9895		-35.156250
9896		-31.250000
9897		-35.156250
9898		-31.250000
9899		-37.109375
9900		-33.203125
9901		-37.109375
9902		-29.296875
9903		-37.109375
9904		-31.250000
9905		-37.109375
9906		-33.203125
9907		-37.109375
9908		-33.203125
9909		-37.109375
9910		-33.203125
9911		-37.109375
9912		-33.203125
9913		-37.109375
9914		-33.203125
9915		-37.109375
9916		-33.203125
9917		-37.109375
9918		-33.203125
9919		-37.109375
9920		-35.156250
9921		-37.109375
9922		-33.203125
9923		-39.062500
9924		-35.156250
9925		-39.062500
9926		-35.156250
9927		-39.062500
9928		-35.156250
9929		-39.062500
9930		-35.156250
9931		-39.062500
9932		-35.156250
9933		-39.062500
9934		-35.156250
9935		-39.062500
9936		-35.156250
9937		-39.062500
9938		-35.156250
9939		-39.062500
9940		-35.156250
9941		-39.062500
9942		-35.156250
9943		-39.062500
9944		-35.156250
9945		-39.062500
9946		-35.156250
9947		-39.062500
9948		-35.156250
9949		-39.062500
9950		-35.156250
9951		-39.062500
9952		-35.156250
9953		-39.062500
9954		-35.156250
9955		-39.062500
9956		-35.156250
9957		-39.062500
9958		-35.156250
9959		-39.062500
9960		-35.156250
9961		-39.062500
9962		-35.156250
9963		-39.062500
9964		-35.156250
9965		-39.062500
9966		-35.156250
9967		-39.062500
9968		-35.156250
9969		-39.062500
9970		-35.156250
9971		-37.109375
9972		-35.156250
9973		-37.109375
9974		-35.156250
9975		-37.109375
9976		-35.156250
9977		-37.109375
9978		-33.203125
9979		-37.109375
9980		-33.203125
9981		-37.109375
9982		-33.203125
9983		-37.109375
9984		-33.203125
9985		-37.109375
9986		-31.250000
9987		-37.109375
9988		-31.250000
9989		-35.156250
9990		-33.203125
9991		-37.109375
9992		-31.250000
9993		-35.156250
9994		-33.203125
9995		-35.156250
9996		-31.250000
9997		-35.156250
9998		-31.250000
9999		-35.156250
10000		-31.250000
