Channel              :		CH1
Frequency            :		681.2Hz
Period               :		1.468ms
PK-PK                :		68.36mV
Probe attenuation    :		1X
Voltage per ADC value:		0.122070mV
Time interval        :		2.00000us

index		CH1_Voltage(mV)
1		29.296875
2		29.296875
3		25.390625
4		27.343750
5		25.390625
6		29.296875
7		25.390625
8		29.296875
9		25.390625
10		29.296875
11		25.390625
12		29.296875
13		25.390625
14		29.296875
15		25.390625
16		29.296875
17		25.390625
18		29.296875
19		27.343750
20		29.296875
21		27.343750
22		29.296875
23		25.390625
24		31.250000
25		27.343750
26		29.296875
27		27.343750
28		31.250000
29		25.390625
30		29.296875
31		27.343750
32		31.250000
33		27.343750
34		31.250000
35		27.343750
36		31.250000
37		27.343750
38		31.250000
39		27.343750
40		31.250000
41		27.343750
42		31.250000
43		27.343750
44		31.250000
45		27.343750
46		31.250000
47		27.343750
48		31.250000
49		27.343750
50		31.250000
51		27.343750
52		31.250000
53		27.343750
54		31.250000
55		27.343750
56		29.296875
57		25.390625
58		31.250000
59		27.343750
60		31.250000
61		27.343750
62		31.250000
63		27.343750
64		29.296875
65		27.343750
66		29.296875
67		27.343750
68		31.250000
69		25.390625
70		31.250000
71		27.343750
72		29.296875
73		27.343750
74		31.250000
75		27.343750
76		29.296875
77		27.343750
78		29.296875
79		25.390625
80		29.296875
81		27.343750
82		29.296875
83		25.390625
84		29.296875
85		25.390625
86		29.296875
87		25.390625
88		29.296875
89		25.390625
90		29.296875
91		23.437500
92		29.296875
93		25.390625
94		29.296875
95		25.390625
96		29.296875
97		25.390625
98		29.296875
99		25.390625
100		27.343750
101		23.437500
102		27.343750
103		23.437500
104		27.343750
105		25.390625
106		27.343750
107		23.437500
108		27.343750
109		23.437500
110		27.343750
111		23.437500
112		27.343750
113		23.437500
114		25.390625
115		21.484375
116		27.343750
117		21.484375
118		25.390625
119		23.437500
120		25.390625
121		21.484375
122		25.390625
123		21.484375
124		25.390625
125		21.484375
126		25.390625
127		21.484375
128		25.390625
129		21.484375
130		25.390625
131		21.484375
132		23.437500
133		21.484375
134		23.437500
135		19.531250
136		23.437500
137		19.531250
138		23.437500
139		19.531250
140		23.437500
141		19.531250
142		23.437500
143		17.578125
144		21.484375
145		17.578125
146		21.484375
147		17.578125
148		21.484375
149		17.578125
150		21.484375
151		17.578125
152		21.484375
153		17.578125
154		21.484375
155		15.625000
156		19.531250
157		15.625000
158		19.531250
159		15.625000
160		19.531250
161		15.625000
162		19.531250
163		15.625000
164		19.531250
165		15.625000
166		17.578125
167		13.671875
168		17.578125
169		13.671875
170		17.578125
171		13.671875
172		15.625000
173		13.671875
174		17.578125
175		11.718750
176		17.578125
177		11.718750
178		15.625000
179		11.718750
180		15.625000
181		11.718750
182		13.671875
183		9.765625
184		13.671875
185		9.765625
186		13.671875
187		9.765625
188		13.671875
189		9.765625
190		11.718750
191		9.765625
192		13.671875
193		7.812500
194		11.718750
195		7.812500
196		11.718750
197		7.812500
198		11.718750
199		5.859375
200		11.718750
201		5.859375
202		9.765625
203		5.859375
204		9.765625
205		5.859375
206		7.812500
207		5.859375
208		7.812500
209		3.906250
210		7.812500
211		3.906250
212		7.812500
213		1.953125
214		7.812500
215		1.953125
216		5.859375
217		1.953125
218		5.859375
219		1.953125
220		5.859375
221		1.953125
222		3.906250
223		1.953125
224		3.906250
225		0.000000
226		3.906250
227		0.000000
228		3.906250
229		0.000000
230		3.906250
231		0.000000
232		1.953125
233		-1.953125
234		1.953125
235		-1.953125
236		1.953125
237		-1.953125
238		1.953125
239		-1.953125
240		0.000000
241		-3.906250
242		0.000000
243		-3.906250
244		0.000000
245		-5.859375
246		0.000000
247		-5.859375
248		-1.953125
249		-5.859375
250		-1.953125
251		-5.859375
252		-1.953125
253		-5.859375
254		-1.953125
255		-7.812500
256		-1.953125
257		-5.859375
258		-3.906250
259		-7.812500
260		-3.906250
261		-7.812500
262		-3.906250
263		-7.812500
264		-5.859375
265		-9.765625
266		-5.859375
267		-9.765625
268		-5.859375
269		-11.718750
270		-5.859375
271		-11.718750
272		-7.812500
273		-9.765625
274		-7.812500
275		-11.718750
276		-7.812500
277		-11.718750
278		-7.812500
279		-13.671875
280		-9.765625
281		-13.671875
282		-9.765625
283		-13.671875
284		-9.765625
285		-13.671875
286		-9.765625
287		-15.625000
288		-9.765625
289		-15.625000
290		-11.718750
291		-15.625000
292		-11.718750
293		-15.625000
294		-11.718750
295		-15.625000
296		-13.671875
297		-15.625000
298		-13.671875
299		-17.578125
300		-13.671875
301		-17.578125
302		-13.671875
303		-19.531250
304		-15.625000
305		-19.531250
306		-15.625000
307		-19.531250
308		-15.625000
309		-19.531250
310		-15.625000
311		-21.484375
312		-17.578125
313		-21.484375
314		-17.578125
315		-19.531250
316		-17.578125
317		-21.484375
318		-17.578125
319		-21.484375
320		-17.578125
321		-23.437500
322		-19.531250
323		-21.484375
324		-19.531250
325		-23.437500
326		-19.531250
327		-23.437500
328		-19.531250
329		-23.437500
330		-19.531250
331		-23.437500
332		-21.484375
333		-25.390625
334		-19.531250
335		-25.390625
336		-21.484375
337		-25.390625
338		-21.484375
339		-25.390625
340		-23.437500
341		-25.390625
342		-23.437500
343		-27.343750
344		-21.484375
345		-27.343750
346		-23.437500
347		-27.343750
348		-23.437500
349		-27.343750
350		-23.437500
351		-27.343750
352		-23.437500
353		-29.296875
354		-23.437500
355		-29.296875
356		-23.437500
357		-27.343750
358		-25.390625
359		-29.296875
360		-25.390625
361		-29.296875
362		-25.390625
363		-29.296875
364		-25.390625
365		-29.296875
366		-25.390625
367		-29.296875
368		-27.343750
369		-29.296875
370		-27.343750
371		-29.296875
372		-27.343750
373		-29.296875
374		-27.343750
375		-31.250000
376		-27.343750
377		-31.250000
378		-27.343750
379		-31.250000
380		-27.343750
381		-31.250000
382		-27.343750
383		-31.250000
384		-27.343750
385		-31.250000
386		-27.343750
387		-31.250000
388		-27.343750
389		-31.250000
390		-27.343750
391		-31.250000
392		-29.296875
393		-33.203125
394		-27.343750
395		-33.203125
396		-27.343750
397		-31.250000
398		-29.296875
399		-31.250000
400		-29.296875
401		-31.250000
402		-29.296875
403		-33.203125
404		-29.296875
405		-33.203125
406		-29.296875
407		-33.203125
408		-29.296875
409		-31.250000
410		-29.296875
411		-33.203125
412		-29.296875
413		-33.203125
414		-29.296875
415		-33.203125
416		-29.296875
417		-33.203125
418		-29.296875
419		-33.203125
420		-29.296875
421		-33.203125
422		-29.296875
423		-31.250000
424		-29.296875
425		-33.203125
426		-29.296875
427		-33.203125
428		-29.296875
429		-33.203125
430		-29.296875
431		-33.203125
432		-29.296875
433		-31.250000
434		-29.296875
435		-33.203125
436		-29.296875
437		-33.203125
438		-27.343750
439		-33.203125
440		-27.343750
441		-31.250000
442		-29.296875
443		-31.250000
444		-29.296875
445		-31.250000
446		-27.343750
447		-31.250000
448		-27.343750
449		-31.250000
450		-27.343750
451		-31.250000
452		-27.343750
453		-31.250000
454		-27.343750
455		-29.296875
456		-27.343750
457		-31.250000
458		-25.390625
459		-31.250000
460		-27.343750
461		-29.296875
462		-27.343750
463		-31.250000
464		-25.390625
465		-29.296875
466		-25.390625
467		-29.296875
468		-25.390625
469		-29.296875
470		-25.390625
471		-29.296875
472		-25.390625
473		-29.296875
474		-25.390625
475		-29.296875
476		-25.390625
477		-29.296875
478		-23.437500
479		-29.296875
480		-25.390625
481		-27.343750
482		-23.437500
483		-27.343750
484		-23.437500
485		-27.343750
486		-23.437500
487		-27.343750
488		-23.437500
489		-27.343750
490		-23.437500
491		-27.343750
492		-23.437500
493		-25.390625
494		-23.437500
495		-25.390625
496		-23.437500
497		-25.390625
498		-21.484375
499		-25.390625
500		-21.484375
501		-23.437500
502		-21.484375
503		-23.437500
504		-21.484375
505		-23.437500
506		-19.531250
507		-23.437500
508		-21.484375
509		-23.437500
510		-19.531250
511		-23.437500
512		-19.531250
513		-23.437500
514		-19.531250
515		-21.484375
516		-17.578125
517		-21.484375
518		-19.531250
519		-21.484375
520		-17.578125
521		-21.484375
522		-17.578125
523		-19.531250
524		-17.578125
525		-19.531250
526		-17.578125
527		-19.531250
528		-15.625000
529		-19.531250
530		-15.625000
531		-17.578125
532		-15.625000
533		-19.531250
534		-13.671875
535		-17.578125
536		-13.671875
537		-17.578125
538		-13.671875
539		-17.578125
540		-13.671875
541		-15.625000
542		-13.671875
543		-15.625000
544		-11.718750
545		-17.578125
546		-11.718750
547		-13.671875
548		-11.718750
549		-13.671875
550		-11.718750
551		-13.671875
552		-9.765625
553		-13.671875
554		-9.765625
555		-13.671875
556		-9.765625
557		-13.671875
558		-9.765625
559		-11.718750
560		-9.765625
561		-11.718750
562		-7.812500
563		-11.718750
564		-7.812500
565		-9.765625
566		-5.859375
567		-9.765625
568		-5.859375
569		-9.765625
570		-5.859375
571		-7.812500
572		-5.859375
573		-9.765625
574		-3.906250
575		-7.812500
576		-3.906250
577		-7.812500
578		-3.906250
579		-5.859375
580		-3.906250
581		-5.859375
582		-1.953125
583		-5.859375
584		-1.953125
585		-3.906250
586		-1.953125
587		-5.859375
588		-1.953125
589		-3.906250
590		0.000000
591		-1.953125
592		0.000000
593		-3.906250
594		0.000000
595		-3.906250
596		1.953125
597		-1.953125
598		1.953125
599		-1.953125
600		1.953125
601		0.000000
602		1.953125
603		0.000000
604		3.906250
605		0.000000
606		3.906250
607		0.000000
608		3.906250
609		1.953125
610		3.906250
611		1.953125
612		5.859375
613		1.953125
614		5.859375
615		1.953125
616		5.859375
617		3.906250
618		7.812500
619		3.906250
620		7.812500
621		3.906250
622		7.812500
623		3.906250
624		7.812500
625		5.859375
626		7.812500
627		5.859375
628		9.765625
629		5.859375
630		9.765625
631		5.859375
632		9.765625
633		7.812500
634		9.765625
635		7.812500
636		11.718750
637		7.812500
638		11.718750
639		7.812500
640		11.718750
641		7.812500
642		11.718750
643		9.765625
644		11.718750
645		9.765625
646		13.671875
647		9.765625
648		13.671875
649		11.718750
650		13.671875
651		11.718750
652		15.625000
653		11.718750
654		15.625000
655		11.718750
656		15.625000
657		11.718750
658		15.625000
659		11.718750
660		15.625000
661		13.671875
662		17.578125
663		13.671875
664		17.578125
665		13.671875
666		17.578125
667		15.625000
668		17.578125
669		15.625000
670		19.531250
671		15.625000
672		19.531250
673		15.625000
674		19.531250
675		17.578125
676		19.531250
677		17.578125
678		19.531250
679		17.578125
680		21.484375
681		17.578125
682		21.484375
683		17.578125
684		21.484375
685		19.531250
686		21.484375
687		19.531250
688		23.437500
689		19.531250
690		23.437500
691		17.578125
692		23.437500
693		19.531250
694		23.437500
695		19.531250
696		23.437500
697		19.531250
698		23.437500
699		21.484375
700		23.437500
701		21.484375
702		25.390625
703		21.484375
704		25.390625
705		21.484375
706		25.390625
707		21.484375
708		25.390625
709		23.437500
710		25.390625
711		23.437500
712		25.390625
713		23.437500
714		27.343750
715		23.437500
716		27.343750
717		23.437500
718		27.343750
719		23.437500
720		27.343750
721		23.437500
722		27.343750
723		25.390625
724		27.343750
725		25.390625
726		29.296875
727		25.390625
728		29.296875
729		23.437500
730		29.296875
731		25.390625
732		29.296875
733		25.390625
734		29.296875
735		25.390625
736		29.296875
737		25.390625
738		29.296875
739		25.390625
740		29.296875
741		25.390625
742		29.296875
743		25.390625
744		31.250000
745		25.390625
746		31.250000
747		27.343750
748		31.250000
749		27.343750
750		31.250000
751		27.343750
752		31.250000
753		27.343750
754		31.250000
755		27.343750
756		31.250000
757		27.343750
758		31.250000
759		27.343750
760		31.250000
761		27.343750
762		31.250000
763		27.343750
764		31.250000
765		27.343750
766		31.250000
767		27.343750
768		31.250000
769		27.343750
770		33.203125
771		27.343750
772		31.250000
773		27.343750
774		31.250000
775		27.343750
776		31.250000
777		27.343750
778		31.250000
779		27.343750
780		31.250000
781		27.343750
782		31.250000
783		27.343750
784		31.250000
785		27.343750
786		31.250000
787		27.343750
788		31.250000
789		27.343750
790		31.250000
791		27.343750
792		31.250000
793		27.343750
794		31.250000
795		27.343750
796		31.250000
797		27.343750
798		31.250000
799		27.343750
800		31.250000
801		27.343750
802		31.250000
803		27.343750
804		31.250000
805		27.343750
806		31.250000
807		27.343750
808		31.250000
809		27.343750
810		29.296875
811		27.343750
812		29.296875
813		25.390625
814		31.250000
815		25.390625
816		29.296875
817		27.343750
818		29.296875
819		25.390625
820		29.296875
821		25.390625
822		29.296875
823		25.390625
824		29.296875
825		25.390625
826		29.296875
827		25.390625
828		29.296875
829		25.390625
830		29.296875
831		23.437500
832		29.296875
833		25.390625
834		29.296875
835		23.437500
836		29.296875
837		25.390625
838		27.343750
839		23.437500
840		27.343750
841		23.437500
842		27.343750
843		23.437500
844		27.343750
845		23.437500
846		27.343750
847		23.437500
848		27.343750
849		23.437500
850		27.343750
851		23.437500
852		25.390625
853		23.437500
854		25.390625
855		23.437500
856		25.390625
857		21.484375
858		25.390625
859		21.484375
860		25.390625
861		21.484375
862		25.390625
863		21.484375
864		25.390625
865		21.484375
866		23.437500
867		19.531250
868		25.390625
869		19.531250
870		23.437500
871		19.531250
872		23.437500
873		19.531250
874		23.437500
875		19.531250
876		23.437500
877		19.531250
878		21.484375
879		19.531250
880		21.484375
881		17.578125
882		21.484375
883		17.578125
884		21.484375
885		17.578125
886		19.531250
887		17.578125
888		19.531250
889		15.625000
890		19.531250
891		15.625000
892		19.531250
893		15.625000
894		19.531250
895		15.625000
896		19.531250
897		15.625000
898		19.531250
899		13.671875
900		17.578125
901		13.671875
902		17.578125
903		13.671875
904		17.578125
905		11.718750
906		17.578125
907		13.671875
908		15.625000
909		11.718750
910		15.625000
911		11.718750
912		15.625000
913		9.765625
914		13.671875
915		11.718750
916		13.671875
917		9.765625
918		13.671875
919		9.765625
920		13.671875
921		9.765625
922		13.671875
923		7.812500
924		13.671875
925		7.812500
926		11.718750
927		7.812500
928		11.718750
929		7.812500
930		9.765625
931		5.859375
932		11.718750
933		5.859375
934		9.765625
935		5.859375
936		9.765625
937		5.859375
938		9.765625
939		5.859375
940		9.765625
941		3.906250
942		9.765625
943		3.906250
944		7.812500
945		3.906250
946		7.812500
947		1.953125
948		7.812500
949		1.953125
950		5.859375
951		1.953125
952		5.859375
953		1.953125
954		5.859375
955		1.953125
956		3.906250
957		0.000000
958		3.906250
959		0.000000
960		3.906250
961		0.000000
962		3.906250
963		0.000000
964		3.906250
965		-1.953125
966		3.906250
967		-1.953125
968		1.953125
969		-1.953125
970		1.953125
971		-1.953125
972		0.000000
973		-3.906250
974		0.000000
975		-3.906250
976		0.000000
977		-3.906250
978		0.000000
979		-3.906250
980		-1.953125
981		-5.859375
982		-1.953125
983		-5.859375
984		-1.953125
985		-5.859375
986		-1.953125
987		-7.812500
988		-3.906250
989		-7.812500
990		-3.906250
991		-7.812500
992		-3.906250
993		-7.812500
994		-3.906250
995		-7.812500
996		-3.906250
997		-9.765625
998		-5.859375
999		-9.765625
1000		-5.859375
1001		-11.718750
1002		-5.859375
1003		-11.718750
1004		-7.812500
1005		-11.718750
1006		-7.812500
1007		-11.718750
1008		-7.812500
1009		-11.718750
1010		-9.765625
1011		-11.718750
1012		-7.812500
1013		-13.671875
1014		-9.765625
1015		-13.671875
1016		-9.765625
1017		-13.671875
1018		-9.765625
1019		-13.671875
1020		-11.718750
1021		-15.625000
1022		-11.718750
1023		-15.625000
1024		-11.718750
1025		-15.625000
1026		-11.718750
1027		-17.578125
1028		-13.671875
1029		-15.625000
1030		-13.671875
1031		-17.578125
1032		-13.671875
1033		-17.578125
1034		-13.671875
1035		-17.578125
1036		-15.625000
1037		-17.578125
1038		-15.625000
1039		-19.531250
1040		-15.625000
1041		-19.531250
1042		-15.625000
1043		-19.531250
1044		-15.625000
1045		-19.531250
1046		-15.625000
1047		-19.531250
1048		-17.578125
1049		-21.484375
1050		-17.578125
1051		-21.484375
1052		-17.578125
1053		-21.484375
1054		-19.531250
1055		-23.437500
1056		-17.578125
1057		-23.437500
1058		-19.531250
1059		-23.437500
1060		-19.531250
1061		-23.437500
1062		-19.531250
1063		-23.437500
1064		-21.484375
1065		-25.390625
1066		-19.531250
1067		-25.390625
1068		-21.484375
1069		-25.390625
1070		-21.484375
1071		-25.390625
1072		-21.484375
1073		-25.390625
1074		-21.484375
1075		-27.343750
1076		-21.484375
1077		-27.343750
1078		-23.437500
1079		-27.343750
1080		-23.437500
1081		-27.343750
1082		-23.437500
1083		-27.343750
1084		-23.437500
1085		-27.343750
1086		-23.437500
1087		-27.343750
1088		-23.437500
1089		-29.296875
1090		-23.437500
1091		-29.296875
1092		-25.390625
1093		-29.296875
1094		-25.390625
1095		-29.296875
1096		-25.390625
1097		-29.296875
1098		-25.390625
1099		-29.296875
1100		-25.390625
1101		-29.296875
1102		-27.343750
1103		-29.296875
1104		-25.390625
1105		-29.296875
1106		-27.343750
1107		-29.296875
1108		-27.343750
1109		-31.250000
1110		-27.343750
1111		-31.250000
1112		-27.343750
1113		-31.250000
1114		-27.343750
1115		-31.250000
1116		-27.343750
1117		-31.250000
1118		-27.343750
1119		-31.250000
1120		-27.343750
1121		-31.250000
1122		-27.343750
1123		-31.250000
1124		-27.343750
1125		-31.250000
1126		-27.343750
1127		-31.250000
1128		-27.343750
1129		-31.250000
1130		-27.343750
1131		-31.250000
1132		-29.296875
1133		-33.203125
1134		-27.343750
1135		-31.250000
1136		-27.343750
1137		-31.250000
1138		-29.296875
1139		-31.250000
1140		-27.343750
1141		-31.250000
1142		-29.296875
1143		-31.250000
1144		-27.343750
1145		-31.250000
1146		-27.343750
1147		-31.250000
1148		-29.296875
1149		-33.203125
1150		-27.343750
1151		-31.250000
1152		-29.296875
1153		-31.250000
1154		-27.343750
1155		-31.250000
1156		-29.296875
1157		-31.250000
1158		-27.343750
1159		-31.250000
1160		-27.343750
1161		-31.250000
1162		-29.296875
1163		-33.203125
1164		-27.343750
1165		-31.250000
1166		-27.343750
1167		-31.250000
1168		-27.343750
1169		-31.250000
1170		-27.343750
1171		-31.250000
1172		-27.343750
1173		-31.250000
1174		-27.343750
1175		-31.250000
1176		-27.343750
1177		-31.250000
1178		-27.343750
1179		-31.250000
1180		-27.343750
1181		-31.250000
1182		-27.343750
1183		-31.250000
1184		-27.343750
1185		-31.250000
1186		-27.343750
1187		-31.250000
1188		-27.343750
1189		-31.250000
1190		-25.390625
1191		-29.296875
1192		-27.343750
1193		-29.296875
1194		-25.390625
1195		-31.250000
1196		-25.390625
1197		-29.296875
1198		-25.390625
1199		-29.296875
1200		-25.390625
1201		-29.296875
1202		-25.390625
1203		-29.296875
1204		-25.390625
1205		-29.296875
1206		-25.390625
1207		-29.296875
1208		-25.390625
1209		-27.343750
1210		-23.437500
1211		-27.343750
1212		-23.437500
1213		-27.343750
1214		-23.437500
1215		-27.343750
1216		-25.390625
1217		-27.343750
1218		-23.437500
1219		-27.343750
1220		-23.437500
1221		-25.390625
1222		-23.437500
1223		-25.390625
1224		-21.484375
1225		-25.390625
1226		-23.437500
1227		-25.390625
1228		-21.484375
1229		-25.390625
1230		-21.484375
1231		-23.437500
1232		-21.484375
1233		-25.390625
1234		-21.484375
1235		-25.390625
1236		-21.484375
1237		-23.437500
1238		-19.531250
1239		-23.437500
1240		-19.531250
1241		-23.437500
1242		-19.531250
1243		-23.437500
1244		-19.531250
1245		-23.437500
1246		-19.531250
1247		-21.484375
1248		-17.578125
1249		-21.484375
1250		-17.578125
1251		-21.484375
1252		-17.578125
1253		-21.484375
1254		-15.625000
1255		-19.531250
1256		-15.625000
1257		-21.484375
1258		-15.625000
1259		-19.531250
1260		-15.625000
1261		-19.531250
1262		-15.625000
1263		-17.578125
1264		-13.671875
1265		-17.578125
1266		-15.625000
1267		-17.578125
1268		-13.671875
1269		-17.578125
1270		-13.671875
1271		-17.578125
1272		-13.671875
1273		-17.578125
1274		-11.718750
1275		-15.625000
1276		-11.718750
1277		-15.625000
1278		-11.718750
1279		-15.625000
1280		-9.765625
1281		-13.671875
1282		-11.718750
1283		-13.671875
1284		-9.765625
1285		-13.671875
1286		-9.765625
1287		-13.671875
1288		-9.765625
1289		-11.718750
1290		-9.765625
1291		-13.671875
1292		-7.812500
1293		-11.718750
1294		-7.812500
1295		-11.718750
1296		-5.859375
1297		-9.765625
1298		-7.812500
1299		-9.765625
1300		-5.859375
1301		-9.765625
1302		-5.859375
1303		-9.765625
1304		-5.859375
1305		-7.812500
1306		-3.906250
1307		-7.812500
1308		-3.906250
1309		-7.812500
1310		-3.906250
1311		-5.859375
1312		-3.906250
1313		-5.859375
1314		-1.953125
1315		-5.859375
1316		-1.953125
1317		-5.859375
1318		0.000000
1319		-3.906250
1320		-1.953125
1321		-3.906250
1322		0.000000
1323		-3.906250
1324		0.000000
1325		-3.906250
1326		0.000000
1327		-3.906250
1328		0.000000
1329		-1.953125
1330		1.953125
1331		-1.953125
1332		1.953125
1333		0.000000
1334		1.953125
1335		-1.953125
1336		3.906250
1337		-1.953125
1338		3.906250
1339		0.000000
1340		3.906250
1341		1.953125
1342		5.859375
1343		0.000000
1344		5.859375
1345		1.953125
1346		5.859375
1347		1.953125
1348		5.859375
1349		1.953125
1350		5.859375
1351		3.906250
1352		7.812500
1353		3.906250
1354		7.812500
1355		3.906250
1356		7.812500
1357		5.859375
1358		7.812500
1359		5.859375
1360		9.765625
1361		5.859375
1362		9.765625
1363		5.859375
1364		9.765625
1365		7.812500
1366		11.718750
1367		7.812500
1368		11.718750
1369		7.812500
1370		11.718750
1371		7.812500
1372		11.718750
1373		9.765625
1374		11.718750
1375		9.765625
1376		13.671875
1377		9.765625
1378		13.671875
1379		9.765625
1380		13.671875
1381		9.765625
1382		13.671875
1383		11.718750
1384		15.625000
1385		11.718750
1386		15.625000
1387		11.718750
1388		15.625000
1389		13.671875
1390		15.625000
1391		13.671875
1392		15.625000
1393		13.671875
1394		17.578125
1395		13.671875
1396		17.578125
1397		13.671875
1398		17.578125
1399		15.625000
1400		17.578125
1401		15.625000
1402		19.531250
1403		15.625000
1404		19.531250
1405		15.625000
1406		19.531250
1407		15.625000
1408		21.484375
1409		17.578125
1410		21.484375
1411		17.578125
1412		21.484375
1413		17.578125
1414		21.484375
1415		19.531250
1416		21.484375
1417		19.531250
1418		21.484375
1419		17.578125
1420		23.437500
1421		19.531250
1422		21.484375
1423		19.531250
1424		23.437500
1425		19.531250
1426		23.437500
1427		21.484375
1428		23.437500
1429		19.531250
1430		25.390625
1431		21.484375
1432		23.437500
1433		21.484375
1434		25.390625
1435		21.484375
1436		25.390625
1437		21.484375
1438		25.390625
1439		21.484375
1440		25.390625
1441		21.484375
1442		27.343750
1443		23.437500
1444		27.343750
1445		23.437500
1446		27.343750
1447		21.484375
1448		27.343750
1449		25.390625
1450		27.343750
1451		23.437500
1452		27.343750
1453		23.437500
1454		27.343750
1455		25.390625
1456		27.343750
1457		25.390625
1458		29.296875
1459		25.390625
1460		29.296875
1461		25.390625
1462		29.296875
1463		25.390625
1464		29.296875
1465		25.390625
1466		29.296875
1467		27.343750
1468		29.296875
1469		25.390625
1470		29.296875
1471		27.343750
1472		29.296875
1473		27.343750
1474		31.250000
1475		27.343750
1476		31.250000
1477		27.343750
1478		31.250000
1479		27.343750
1480		31.250000
1481		27.343750
1482		31.250000
1483		27.343750
1484		31.250000
1485		27.343750
1486		31.250000
1487		27.343750
1488		31.250000
1489		27.343750
1490		31.250000
1491		27.343750
1492		31.250000
1493		27.343750
1494		31.250000
1495		27.343750
1496		31.250000
1497		27.343750
1498		31.250000
1499		27.343750
1500		31.250000
1501		27.343750
1502		31.250000
1503		27.343750
1504		31.250000
1505		27.343750
1506		31.250000
1507		27.343750
1508		31.250000
1509		29.296875
1510		31.250000
1511		27.343750
1512		31.250000
1513		27.343750
1514		33.203125
1515		27.343750
1516		31.250000
1517		27.343750
1518		33.203125
1519		27.343750
1520		31.250000
1521		27.343750
1522		31.250000
1523		27.343750
1524		33.203125
1525		27.343750
1526		31.250000
1527		27.343750
1528		31.250000
1529		27.343750
1530		31.250000
1531		27.343750
1532		31.250000
1533		27.343750
1534		31.250000
1535		27.343750
1536		31.250000
1537		27.343750
1538		31.250000
1539		27.343750
1540		31.250000
1541		27.343750
1542		31.250000
1543		27.343750
1544		31.250000
1545		27.343750
1546		31.250000
1547		27.343750
1548		31.250000
1549		27.343750
1550		29.296875
1551		27.343750
1552		29.296875
1553		25.390625
1554		29.296875
1555		27.343750
1556		29.296875
1557		25.390625
1558		31.250000
1559		27.343750
1560		29.296875
1561		25.390625
1562		29.296875
1563		25.390625
1564		29.296875
1565		25.390625
1566		29.296875
1567		25.390625
1568		31.250000
1569		23.437500
1570		29.296875
1571		25.390625
1572		27.343750
1573		23.437500
1574		29.296875
1575		23.437500
1576		27.343750
1577		23.437500
1578		27.343750
1579		23.437500
1580		27.343750
1581		23.437500
1582		27.343750
1583		23.437500
1584		27.343750
1585		23.437500
1586		27.343750
1587		23.437500
1588		27.343750
1589		21.484375
1590		25.390625
1591		21.484375
1592		25.390625
1593		21.484375
1594		27.343750
1595		21.484375
1596		25.390625
1597		21.484375
1598		25.390625
1599		21.484375
1600		25.390625
1601		21.484375
1602		23.437500
1603		19.531250
1604		23.437500
1605		19.531250
1606		23.437500
1607		21.484375
1608		23.437500
1609		19.531250
1610		23.437500
1611		19.531250
1612		23.437500
1613		19.531250
1614		21.484375
1615		17.578125
1616		21.484375
1617		17.578125
1618		21.484375
1619		17.578125
1620		21.484375
1621		15.625000
1622		21.484375
1623		17.578125
1624		19.531250
1625		15.625000
1626		21.484375
1627		15.625000
1628		19.531250
1629		15.625000
1630		19.531250
1631		13.671875
1632		19.531250
1633		15.625000
1634		17.578125
1635		15.625000
1636		17.578125
1637		13.671875
1638		19.531250
1639		13.671875
1640		17.578125
1641		13.671875
1642		15.625000
1643		11.718750
1644		15.625000
1645		11.718750
1646		15.625000
1647		11.718750
1648		15.625000
1649		11.718750
1650		15.625000
1651		11.718750
1652		13.671875
1653		9.765625
1654		13.671875
1655		9.765625
1656		13.671875
1657		9.765625
1658		13.671875
1659		9.765625
1660		11.718750
1661		7.812500
1662		13.671875
1663		7.812500
1664		11.718750
1665		7.812500
1666		11.718750
1667		5.859375
1668		9.765625
1669		7.812500
1670		9.765625
1671		5.859375
1672		9.765625
1673		5.859375
1674		9.765625
1675		5.859375
1676		7.812500
1677		3.906250
1678		7.812500
1679		3.906250
1680		7.812500
1681		3.906250
1682		7.812500
1683		3.906250
1684		7.812500
1685		1.953125
1686		5.859375
1687		1.953125
1688		5.859375
1689		1.953125
1690		5.859375
1691		1.953125
1692		3.906250
1693		0.000000
1694		3.906250
1695		0.000000
1696		3.906250
1697		-1.953125
1698		3.906250
1699		0.000000
1700		3.906250
1701		-1.953125
1702		1.953125
1703		-1.953125
1704		1.953125
1705		-3.906250
1706		1.953125
1707		-3.906250
1708		1.953125
1709		-3.906250
1710		0.000000
1711		-3.906250
1712		0.000000
1713		-5.859375
1714		0.000000
1715		-5.859375
1716		-1.953125
1717		-5.859375
1718		-1.953125
1719		-5.859375
1720		-1.953125
1721		-7.812500
1722		-1.953125
1723		-9.765625
1724		-1.953125
1725		-7.812500
1726		-3.906250
1727		-7.812500
1728		-3.906250
1729		-9.765625
1730		-3.906250
1731		-9.765625
1732		-3.906250
1733		-9.765625
1734		-5.859375
1735		-9.765625
1736		-5.859375
1737		-11.718750
1738		-5.859375
1739		-11.718750
1740		-5.859375
1741		-13.671875
1742		-5.859375
1743		-13.671875
1744		-7.812500
1745		-15.625000
1746		-7.812500
1747		-15.625000
1748		-7.812500
1749		-15.625000
1750		-9.765625
1751		-13.671875
1752		-9.765625
1753		-13.671875
1754		-11.718750
1755		-17.578125
1756		-9.765625
1757		-17.578125
1758		-9.765625
1759		-17.578125
1760		-9.765625
1761		-17.578125
1762		-11.718750
1763		-17.578125
1764		-11.718750
1765		-19.531250
1766		-11.718750
1767		-17.578125
1768		-13.671875
1769		-17.578125
1770		-15.625000
1771		-19.531250
1772		-13.671875
1773		-19.531250
1774		-13.671875
1775		-21.484375
1776		-13.671875
1777		-21.484375
1778		-13.671875
1779		-21.484375
1780		-15.625000
1781		-21.484375
1782		-15.625000
1783		-21.484375
1784		-15.625000
1785		-21.484375
1786		-17.578125
1787		-21.484375
1788		-17.578125
1789		-23.437500
1790		-17.578125
1791		-23.437500
1792		-17.578125
1793		-23.437500
1794		-19.531250
1795		-25.390625
1796		-19.531250
1797		-25.390625
1798		-19.531250
1799		-25.390625
1800		-19.531250
1801		-25.390625
1802		-21.484375
1803		-25.390625
1804		-21.484375
1805		-27.343750
1806		-21.484375
1807		-27.343750
1808		-21.484375
1809		-27.343750
1810		-21.484375
1811		-27.343750
1812		-21.484375
1813		-27.343750
1814		-21.484375
1815		-29.296875
1816		-21.484375
1817		-29.296875
1818		-23.437500
1819		-27.343750
1820		-23.437500
1821		-29.296875
1822		-23.437500
1823		-29.296875
1824		-23.437500
1825		-29.296875
1826		-23.437500
1827		-29.296875
1828		-23.437500
1829		-31.250000
1830		-23.437500
1831		-31.250000
1832		-23.437500
1833		-31.250000
1834		-23.437500
1835		-29.296875
1836		-27.343750
1837		-31.250000
1838		-25.390625
1839		-31.250000
1840		-25.390625
1841		-31.250000
1842		-25.390625
1843		-31.250000
1844		-25.390625
1845		-33.203125
1846		-25.390625
1847		-31.250000
1848		-23.437500
1849		-31.250000
1850		-25.390625
1851		-33.203125
1852		-25.390625
1853		-31.250000
1854		-27.343750
1855		-33.203125
1856		-25.390625
1857		-33.203125
1858		-25.390625
1859		-33.203125
1860		-25.390625
1861		-33.203125
1862		-25.390625
1863		-33.203125
1864		-27.343750
1865		-33.203125
1866		-27.343750
1867		-33.203125
1868		-27.343750
1869		-31.250000
1870		-27.343750
1871		-31.250000
1872		-27.343750
1873		-33.203125
1874		-27.343750
1875		-33.203125
1876		-27.343750
1877		-33.203125
1878		-25.390625
1879		-33.203125
1880		-27.343750
1881		-35.156250
1882		-25.390625
1883		-33.203125
1884		-27.343750
1885		-31.250000
1886		-27.343750
1887		-31.250000
1888		-29.296875
1889		-33.203125
1890		-27.343750
1891		-33.203125
1892		-27.343750
1893		-33.203125
1894		-25.390625
1895		-33.203125
1896		-27.343750
1897		-33.203125
1898		-25.390625
1899		-33.203125
1900		-27.343750
1901		-33.203125
1902		-27.343750
1903		-31.250000
1904		-27.343750
1905		-33.203125
1906		-27.343750
1907		-33.203125
1908		-25.390625
1909		-33.203125
1910		-25.390625
1911		-33.203125
1912		-25.390625
1913		-31.250000
1914		-25.390625
1915		-31.250000
1916		-25.390625
1917		-33.203125
1918		-23.437500
1919		-29.296875
1920		-27.343750
1921		-29.296875
1922		-25.390625
1923		-31.250000
1924		-25.390625
1925		-31.250000
1926		-23.437500
1927		-31.250000
1928		-23.437500
1929		-31.250000
1930		-23.437500
1931		-29.296875
1932		-23.437500
1933		-31.250000
1934		-23.437500
1935		-29.296875
1936		-23.437500
1937		-29.296875
1938		-25.390625
1939		-27.343750
1940		-23.437500
1941		-29.296875
1942		-23.437500
1943		-29.296875
1944		-21.484375
1945		-29.296875
1946		-21.484375
1947		-29.296875
1948		-21.484375
1949		-27.343750
1950		-21.484375
1951		-27.343750
1952		-21.484375
1953		-25.390625
1954		-21.484375
1955		-25.390625
1956		-23.437500
1957		-25.390625
1958		-19.531250
1959		-25.390625
1960		-19.531250
1961		-27.343750
1962		-19.531250
1963		-27.343750
1964		-19.531250
1965		-25.390625
1966		-17.578125
1967		-25.390625
1968		-17.578125
1969		-23.437500
1970		-19.531250
1971		-23.437500
1972		-19.531250
1973		-25.390625
1974		-17.578125
1975		-23.437500
1976		-15.625000
1977		-23.437500
1978		-17.578125
1979		-21.484375
1980		-15.625000
1981		-21.484375
1982		-15.625000
1983		-21.484375
1984		-15.625000
1985		-21.484375
1986		-15.625000
1987		-19.531250
1988		-15.625000
1989		-21.484375
1990		-15.625000
1991		-21.484375
1992		-13.671875
1993		-19.531250
1994		-13.671875
1995		-19.531250
1996		-13.671875
1997		-19.531250
1998		-11.718750
1999		-17.578125
2000		-11.718750
2001		-17.578125
2002		-11.718750
2003		-15.625000
2004		-11.718750
2005		-15.625000
2006		-11.718750
2007		-15.625000
2008		-9.765625
2009		-15.625000
2010		-9.765625
2011		-15.625000
2012		-9.765625
2013		-15.625000
2014		-7.812500
2015		-15.625000
2016		-7.812500
2017		-13.671875
2018		-7.812500
2019		-13.671875
2020		-7.812500
2021		-11.718750
2022		-9.765625
2023		-11.718750
2024		-5.859375
2025		-11.718750
2026		-5.859375
2027		-11.718750
2028		-5.859375
2029		-11.718750
2030		-3.906250
2031		-11.718750
2032		-3.906250
2033		-9.765625
2034		-3.906250
2035		-9.765625
2036		-3.906250
2037		-7.812500
2038		-3.906250
2039		-7.812500
2040		-3.906250
2041		-7.812500
2042		-1.953125
2043		-7.812500
2044		0.000000
2045		-5.859375
2046		0.000000
2047		-7.812500
2048		0.000000
2049		-5.859375
2050		0.000000
2051		-5.859375
2052		1.953125
2053		-3.906250
2054		0.000000
2055		-1.953125
2056		0.000000
2057		-3.906250
2058		1.953125
2059		-3.906250
2060		1.953125
2061		-3.906250
2062		3.906250
2063		-3.906250
2064		3.906250
2065		-1.953125
2066		3.906250
2067		-1.953125
2068		3.906250
2069		0.000000
2070		5.859375
2071		1.953125
2072		3.906250
2073		-1.953125
2074		5.859375
2075		0.000000
2076		7.812500
2077		0.000000
2078		7.812500
2079		1.953125
2080		7.812500
2081		1.953125
2082		7.812500
2083		1.953125
2084		7.812500
2085		1.953125
2086		9.765625
2087		3.906250
2088		7.812500
2089		5.859375
2090		9.765625
2091		3.906250
2092		11.718750
2093		3.906250
2094		11.718750
2095		3.906250
2096		11.718750
2097		5.859375
2098		13.671875
2099		5.859375
2100		11.718750
2101		5.859375
2102		11.718750
2103		7.812500
2104		13.671875
2105		9.765625
2106		11.718750
2107		9.765625
2108		15.625000
2109		9.765625
2110		15.625000
2111		7.812500
2112		15.625000
2113		9.765625
2114		15.625000
2115		9.765625
2116		17.578125
2117		11.718750
2118		17.578125
2119		11.718750
2120		17.578125
2121		11.718750
2122		15.625000
2123		13.671875
2124		15.625000
2125		13.671875
2126		19.531250
2127		13.671875
2128		19.531250
2129		11.718750
2130		19.531250
2131		13.671875
2132		19.531250
2133		13.671875
2134		19.531250
2135		13.671875
2136		21.484375
2137		15.625000
2138		19.531250
2139		17.578125
2140		19.531250
2141		15.625000
2142		21.484375
2143		15.625000
2144		23.437500
2145		17.578125
2146		23.437500
2147		17.578125
2148		23.437500
2149		15.625000
2150		23.437500
2151		17.578125
2152		23.437500
2153		17.578125
2154		25.390625
2155		19.531250
2156		23.437500
2157		19.531250
2158		23.437500
2159		19.531250
2160		25.390625
2161		19.531250
2162		25.390625
2163		19.531250
2164		25.390625
2165		21.484375
2166		27.343750
2167		19.531250
2168		27.343750
2169		21.484375
2170		27.343750
2171		23.437500
2172		25.390625
2173		23.437500
2174		25.390625
2175		21.484375
2176		27.343750
2177		21.484375
2178		27.343750
2179		21.484375
2180		27.343750
2181		21.484375
2182		29.296875
2183		23.437500
2184		29.296875
2185		23.437500
2186		29.296875
2187		23.437500
2188		29.296875
2189		25.390625
2190		29.296875
2191		25.390625
2192		29.296875
2193		23.437500
2194		29.296875
2195		23.437500
2196		31.250000
2197		23.437500
2198		31.250000
2199		23.437500
2200		31.250000
2201		23.437500
2202		31.250000
2203		25.390625
2204		31.250000
2205		25.390625
2206		29.296875
2207		27.343750
2208		29.296875
2209		25.390625
2210		31.250000
2211		25.390625
2212		31.250000
2213		25.390625
2214		33.203125
2215		25.390625
2216		31.250000
2217		25.390625
2218		31.250000
2219		25.390625
2220		33.203125
2221		27.343750
2222		31.250000
2223		27.343750
2224		31.250000
2225		25.390625
2226		33.203125
2227		25.390625
2228		33.203125
2229		25.390625
2230		33.203125
2231		25.390625
2232		33.203125
2233		27.343750
2234		33.203125
2235		25.390625
2236		33.203125
2237		25.390625
2238		33.203125
2239		29.296875
2240		31.250000
2241		27.343750
2242		31.250000
2243		25.390625
2244		33.203125
2245		25.390625
2246		33.203125
2247		27.343750
2248		33.203125
2249		25.390625
2250		33.203125
2251		27.343750
2252		33.203125
2253		27.343750
2254		33.203125
2255		29.296875
2256		31.250000
2257		27.343750
2258		33.203125
2259		27.343750
2260		33.203125
2261		27.343750
2262		33.203125
2263		25.390625
2264		33.203125
2265		25.390625
2266		33.203125
2267		25.390625
2268		33.203125
2269		25.390625
2270		33.203125
2271		25.390625
2272		31.250000
2273		27.343750
2274		31.250000
2275		25.390625
2276		31.250000
2277		25.390625
2278		33.203125
2279		25.390625
2280		31.250000
2281		25.390625
2282		31.250000
2283		25.390625
2284		31.250000
2285		25.390625
2286		31.250000
2287		25.390625
2288		31.250000
2289		25.390625
2290		29.296875
2291		25.390625
2292		29.296875
2293		25.390625
2294		31.250000
2295		23.437500
2296		31.250000
2297		23.437500
2298		31.250000
2299		23.437500
2300		31.250000
2301		23.437500
2302		31.250000
2303		23.437500
2304		31.250000
2305		25.390625
2306		27.343750
2307		23.437500
2308		27.343750
2309		23.437500
2310		29.296875
2311		23.437500
2312		29.296875
2313		23.437500
2314		29.296875
2315		21.484375
2316		29.296875
2317		21.484375
2318		29.296875
2319		21.484375
2320		27.343750
2321		21.484375
2322		27.343750
2323		23.437500
2324		25.390625
2325		21.484375
2326		25.390625
2327		19.531250
2328		27.343750
2329		19.531250
2330		27.343750
2331		19.531250
2332		25.390625
2333		19.531250
2334		27.343750
2335		19.531250
2336		25.390625
2337		19.531250
2338		25.390625
2339		21.484375
2340		23.437500
2341		19.531250
2342		23.437500
2343		15.625000
2344		23.437500
2345		17.578125
2346		23.437500
2347		17.578125
2348		23.437500
2349		15.625000
2350		23.437500
2351		17.578125
2352		23.437500
2353		15.625000
2354		23.437500
2355		15.625000
2356		21.484375
2357		17.578125
2358		19.531250
2359		15.625000
2360		21.484375
2361		15.625000
2362		21.484375
2363		13.671875
2364		19.531250
2365		13.671875
2366		19.531250
2367		13.671875
2368		19.531250
2369		13.671875
2370		19.531250
2371		13.671875
2372		19.531250
2373		13.671875
2374		15.625000
2375		11.718750
2376		17.578125
2377		11.718750
2378		17.578125
2379		11.718750
2380		17.578125
2381		9.765625
2382		17.578125
2383		9.765625
2384		15.625000
2385		7.812500
2386		15.625000
2387		7.812500
2388		13.671875
2389		9.765625
2390		13.671875
2391		9.765625
2392		11.718750
2393		7.812500
2394		13.671875
2395		5.859375
2396		13.671875
2397		5.859375
2398		11.718750
2399		5.859375
2400		11.718750
2401		5.859375
2402		11.718750
2403		3.906250
2404		11.718750
2405		3.906250
2406		9.765625
2407		5.859375
2408		7.812500
2409		3.906250
2410		7.812500
2411		1.953125
2412		9.765625
2413		1.953125
2414		7.812500
2415		0.000000
2416		7.812500
2417		1.953125
2418		7.812500
2419		1.953125
2420		7.812500
2421		0.000000
2422		5.859375
2423		0.000000
2424		3.906250
2425		0.000000
2426		3.906250
2427		-1.953125
2428		5.859375
2429		-1.953125
2430		3.906250
2431		-3.906250
2432		3.906250
2433		-3.906250
2434		3.906250
2435		-3.906250
2436		3.906250
2437		-3.906250
2438		1.953125
2439		-3.906250
2440		1.953125
2441		-3.906250
2442		0.000000
2443		-3.906250
2444		0.000000
2445		-5.859375
2446		0.000000
2447		-5.859375
2448		0.000000
2449		-7.812500
2450		0.000000
2451		-7.812500
2452		0.000000
2453		-7.812500
2454		-1.953125
2455		-7.812500
2456		-1.953125
2457		-7.812500
2458		-3.906250
2459		-7.812500
2460		-5.859375
2461		-9.765625
2462		-3.906250
2463		-9.765625
2464		-3.906250
2465		-11.718750
2466		-3.906250
2467		-11.718750
2468		-3.906250
2469		-11.718750
2470		-5.859375
2471		-11.718750
2472		-5.859375
2473		-11.718750
2474		-7.812500
2475		-11.718750
2476		-7.812500
2477		-13.671875
2478		-7.812500
2479		-13.671875
2480		-7.812500
2481		-15.625000
2482		-7.812500
2483		-15.625000
2484		-9.765625
2485		-15.625000
2486		-9.765625
2487		-15.625000
2488		-9.765625
2489		-17.578125
2490		-9.765625
2491		-15.625000
2492		-13.671875
2493		-15.625000
2494		-11.718750
2495		-17.578125
2496		-11.718750
2497		-17.578125
2498		-11.718750
2499		-19.531250
2500		-11.718750
2501		-19.531250
2502		-13.671875
2503		-19.531250
2504		-13.671875
2505		-21.484375
2506		-13.671875
2507		-19.531250
2508		-15.625000
2509		-19.531250
2510		-17.578125
2511		-21.484375
2512		-15.625000
2513		-23.437500
2514		-15.625000
2515		-23.437500
2516		-15.625000
2517		-23.437500
2518		-15.625000
2519		-23.437500
2520		-17.578125
2521		-25.390625
2522		-15.625000
2523		-25.390625
2524		-17.578125
2525		-23.437500
2526		-19.531250
2527		-23.437500
2528		-19.531250
2529		-27.343750
2530		-19.531250
2531		-25.390625
2532		-19.531250
2533		-25.390625
2534		-19.531250
2535		-27.343750
2536		-19.531250
2537		-27.343750
2538		-19.531250
2539		-27.343750
2540		-21.484375
2541		-25.390625
2542		-21.484375
2543		-25.390625
2544		-23.437500
2545		-27.343750
2546		-21.484375
2547		-29.296875
2548		-21.484375
2549		-29.296875
2550		-21.484375
2551		-29.296875
2552		-23.437500
2553		-29.296875
2554		-21.484375
2555		-29.296875
2556		-23.437500
2557		-29.296875
2558		-25.390625
2559		-27.343750
2560		-25.390625
2561		-29.296875
2562		-23.437500
2563		-31.250000
2564		-23.437500
2565		-31.250000
2566		-23.437500
2567		-31.250000
2568		-25.390625
2569		-31.250000
2570		-25.390625
2571		-31.250000
2572		-25.390625
2573		-31.250000
2574		-25.390625
2575		-29.296875
2576		-27.343750
2577		-31.250000
2578		-27.343750
2579		-33.203125
2580		-25.390625
2581		-33.203125
2582		-25.390625
2583		-33.203125
2584		-25.390625
2585		-31.250000
2586		-25.390625
2587		-33.203125
2588		-25.390625
2589		-33.203125
2590		-25.390625
2591		-31.250000
2592		-29.296875
2593		-31.250000
2594		-27.343750
2595		-33.203125
2596		-27.343750
2597		-33.203125
2598		-27.343750
2599		-33.203125
2600		-27.343750
2601		-33.203125
2602		-27.343750
2603		-33.203125
2604		-27.343750
2605		-33.203125
2606		-27.343750
2607		-33.203125
2608		-27.343750
2609		-33.203125
2610		-29.296875
2611		-33.203125
2612		-27.343750
2613		-33.203125
2614		-27.343750
2615		-35.156250
2616		-27.343750
2617		-33.203125
2618		-27.343750
2619		-33.203125
2620		-27.343750
2621		-33.203125
2622		-27.343750
2623		-33.203125
2624		-27.343750
2625		-31.250000
2626		-29.296875
2627		-31.250000
2628		-27.343750
2629		-33.203125
2630		-27.343750
2631		-33.203125
2632		-27.343750
2633		-33.203125
2634		-27.343750
2635		-33.203125
2636		-27.343750
2637		-33.203125
2638		-27.343750
2639		-33.203125
2640		-25.390625
2641		-33.203125
2642		-25.390625
2643		-31.250000
2644		-27.343750
2645		-33.203125
2646		-27.343750
2647		-33.203125
2648		-25.390625
2649		-33.203125
2650		-25.390625
2651		-33.203125
2652		-25.390625
2653		-31.250000
2654		-25.390625
2655		-31.250000
2656		-25.390625
2657		-33.203125
2658		-25.390625
2659		-31.250000
2660		-25.390625
2661		-29.296875
2662		-27.343750
2663		-31.250000
2664		-25.390625
2665		-31.250000
2666		-25.390625
2667		-31.250000
2668		-23.437500
2669		-31.250000
2670		-23.437500
2671		-29.296875
2672		-23.437500
2673		-31.250000
2674		-23.437500
2675		-27.343750
2676		-23.437500
2677		-27.343750
2678		-25.390625
2679		-29.296875
2680		-23.437500
2681		-29.296875
2682		-21.484375
2683		-29.296875
2684		-21.484375
2685		-29.296875
2686		-21.484375
2687		-29.296875
2688		-21.484375
2689		-27.343750
2690		-21.484375
2691		-27.343750
2692		-21.484375
2693		-25.390625
2694		-23.437500
2695		-25.390625
2696		-19.531250
2697		-25.390625
2698		-19.531250
2699		-27.343750
2700		-19.531250
2701		-25.390625
2702		-19.531250
2703		-25.390625
2704		-17.578125
2705		-23.437500
2706		-17.578125
2707		-25.390625
2708		-17.578125
2709		-21.484375
2710		-19.531250
2711		-21.484375
2712		-19.531250
2713		-23.437500
2714		-17.578125
2715		-23.437500
2716		-15.625000
2717		-23.437500
2718		-15.625000
2719		-21.484375
2720		-15.625000
2721		-21.484375
2722		-13.671875
2723		-21.484375
2724		-15.625000
2725		-19.531250
2726		-13.671875
2727		-19.531250
2728		-13.671875
2729		-19.531250
2730		-13.671875
2731		-19.531250
2732		-11.718750
2733		-17.578125
2734		-11.718750
2735		-17.578125
2736		-11.718750
2737		-17.578125
2738		-11.718750
2739		-17.578125
2740		-11.718750
2741		-17.578125
2742		-9.765625
2743		-15.625000
2744		-11.718750
2745		-13.671875
2746		-11.718750
2747		-15.625000
2748		-9.765625
2749		-15.625000
2750		-7.812500
2751		-13.671875
2752		-7.812500
2753		-13.671875
2754		-5.859375
2755		-13.671875
2756		-7.812500
2757		-13.671875
2758		-5.859375
2759		-11.718750
2760		-7.812500
2761		-9.765625
2762		-7.812500
2763		-11.718750
2764		-5.859375
2765		-9.765625
2766		-5.859375
2767		-11.718750
2768		-5.859375
2769		-9.765625
2770		-3.906250
2771		-9.765625
2772		-3.906250
2773		-7.812500
2774		-1.953125
2775		-7.812500
2776		-1.953125
2777		-5.859375
2778		-3.906250
2779		-5.859375
2780		-1.953125
2781		-5.859375
2782		0.000000
2783		-3.906250
2784		0.000000
2785		-5.859375
2786		0.000000
2787		-5.859375
2788		1.953125
2789		-3.906250
2790		0.000000
2791		-3.906250
2792		1.953125
2793		-1.953125
2794		1.953125
2795		-1.953125
2796		1.953125
2797		-1.953125
2798		3.906250
2799		-1.953125
2800		5.859375
2801		0.000000
2802		3.906250
2803		-1.953125
2804		5.859375
2805		0.000000
2806		5.859375
2807		0.000000
2808		7.812500
2809		1.953125
2810		5.859375
2811		1.953125
2812		5.859375
2813		3.906250
2814		5.859375
2815		1.953125
2816		9.765625
2817		1.953125
2818		9.765625
2819		3.906250
2820		9.765625
2821		3.906250
2822		9.765625
2823		3.906250
2824		9.765625
2825		5.859375
2826		11.718750
2827		5.859375
2828		9.765625
2829		5.859375
2830		9.765625
2831		5.859375
2832		11.718750
2833		5.859375
2834		13.671875
2835		7.812500
2836		13.671875
2837		7.812500
2838		13.671875
2839		7.812500
2840		13.671875
2841		9.765625
2842		13.671875
2843		9.765625
2844		13.671875
2845		11.718750
2846		13.671875
2847		11.718750
2848		15.625000
2849		9.765625
2850		15.625000
2851		11.718750
2852		17.578125
2853		11.718750
2854		17.578125
2855		13.671875
2856		17.578125
2857		11.718750
2858		17.578125
2859		13.671875
2860		17.578125
2861		13.671875
2862		17.578125
2863		13.671875
2864		17.578125
2865		15.625000
2866		19.531250
2867		15.625000
2868		19.531250
2869		15.625000
2870		19.531250
2871		15.625000
2872		19.531250
2873		17.578125
2874		19.531250
2875		15.625000
2876		21.484375
2877		17.578125
2878		21.484375
2879		17.578125
2880		21.484375
2881		17.578125
2882		21.484375
2883		19.531250
2884		21.484375
2885		19.531250
2886		23.437500
2887		19.531250
2888		23.437500
2889		19.531250
2890		23.437500
2891		19.531250
2892		23.437500
2893		21.484375
2894		23.437500
2895		21.484375
2896		23.437500
2897		21.484375
2898		25.390625
2899		21.484375
2900		25.390625
2901		21.484375
2902		25.390625
2903		23.437500
2904		25.390625
2905		21.484375
2906		25.390625
2907		23.437500
2908		25.390625
2909		23.437500
2910		27.343750
2911		23.437500
2912		27.343750
2913		23.437500
2914		27.343750
2915		23.437500
2916		27.343750
2917		23.437500
2918		27.343750
2919		25.390625
2920		27.343750
2921		25.390625
2922		29.296875
2923		25.390625
2924		29.296875
2925		25.390625
2926		29.296875
2927		25.390625
2928		29.296875
2929		25.390625
2930		29.296875
2931		25.390625
2932		29.296875
2933		25.390625
2934		29.296875
2935		25.390625
2936		29.296875
2937		25.390625
2938		29.296875
2939		27.343750
2940		29.296875
2941		25.390625
2942		31.250000
2943		27.343750
2944		31.250000
2945		27.343750
2946		29.296875
2947		27.343750
2948		31.250000
2949		27.343750
2950		31.250000
2951		27.343750
2952		31.250000
2953		27.343750
2954		31.250000
2955		27.343750
2956		31.250000
2957		27.343750
2958		31.250000
2959		25.390625
2960		31.250000
2961		27.343750
2962		31.250000
2963		27.343750
2964		31.250000
2965		27.343750
2966		31.250000
2967		27.343750
2968		31.250000
2969		27.343750
2970		31.250000
2971		27.343750
2972		31.250000
2973		27.343750
2974		31.250000
2975		27.343750
2976		31.250000
2977		27.343750
2978		31.250000
2979		27.343750
2980		31.250000
2981		27.343750
2982		31.250000
2983		27.343750
2984		31.250000
2985		27.343750
2986		31.250000
2987		27.343750
2988		31.250000
2989		27.343750
2990		31.250000
2991		27.343750
2992		31.250000
2993		27.343750
2994		31.250000
2995		27.343750
2996		31.250000
2997		27.343750
2998		31.250000
2999		27.343750
3000		31.250000
3001		27.343750
3002		31.250000
3003		27.343750
3004		31.250000
3005		27.343750
3006		31.250000
3007		27.343750
3008		31.250000
3009		27.343750
3010		31.250000
3011		27.343750
3012		31.250000
3013		27.343750
3014		29.296875
3015		25.390625
3016		31.250000
3017		25.390625
3018		31.250000
3019		27.343750
3020		29.296875
3021		27.343750
3022		29.296875
3023		25.390625
3024		31.250000
3025		25.390625
3026		29.296875
3027		25.390625
3028		29.296875
3029		25.390625
3030		29.296875
3031		23.437500
3032		29.296875
3033		25.390625
3034		29.296875
3035		23.437500
3036		29.296875
3037		25.390625
3038		27.343750
3039		23.437500
3040		27.343750
3041		23.437500
3042		27.343750
3043		23.437500
3044		27.343750
3045		23.437500
3046		27.343750
3047		23.437500
3048		27.343750
3049		23.437500
3050		27.343750
3051		23.437500
3052		25.390625
3053		21.484375
3054		27.343750
3055		21.484375
3056		25.390625
3057		21.484375
3058		25.390625
3059		21.484375
3060		25.390625
3061		21.484375
3062		25.390625
3063		21.484375
3064		23.437500
3065		19.531250
3066		25.390625
3067		21.484375
3068		23.437500
3069		19.531250
3070		23.437500
3071		19.531250
3072		23.437500
3073		19.531250
3074		23.437500
3075		19.531250
3076		21.484375
3077		17.578125
3078		23.437500
3079		19.531250
3080		21.484375
3081		17.578125
3082		21.484375
3083		15.625000
3084		21.484375
3085		17.578125
3086		19.531250
3087		17.578125
3088		19.531250
3089		15.625000
3090		19.531250
3091		15.625000
3092		19.531250
3093		15.625000
3094		19.531250
3095		15.625000
3096		19.531250
3097		15.625000
3098		17.578125
3099		13.671875
3100		17.578125
3101		13.671875
3102		17.578125
3103		13.671875
3104		15.625000
3105		11.718750
3106		15.625000
3107		13.671875
3108		15.625000
3109		11.718750
3110		15.625000
3111		11.718750
3112		15.625000
3113		11.718750
3114		13.671875
3115		9.765625
3116		13.671875
3117		9.765625
3118		13.671875
3119		9.765625
3120		13.671875
3121		9.765625
3122		11.718750
3123		7.812500
3124		11.718750
3125		7.812500
3126		11.718750
3127		7.812500
3128		11.718750
3129		7.812500
3130		11.718750
3131		7.812500
3132		9.765625
3133		5.859375
3134		11.718750
3135		5.859375
3136		9.765625
3137		5.859375
3138		7.812500
3139		5.859375
3140		7.812500
3141		3.906250
3142		7.812500
3143		3.906250
3144		7.812500
3145		3.906250
3146		7.812500
3147		1.953125
3148		7.812500
3149		0.000000
3150		7.812500
3151		1.953125
3152		5.859375
3153		1.953125
3154		5.859375
3155		0.000000
3156		3.906250
3157		0.000000
3158		3.906250
3159		0.000000
3160		3.906250
3161		0.000000
3162		3.906250
3163		0.000000
3164		1.953125
3165		-1.953125
3166		1.953125
3167		-1.953125
3168		1.953125
3169		-1.953125
3170		0.000000
3171		-3.906250
3172		0.000000
3173		-3.906250
3174		0.000000
3175		-3.906250
3176		0.000000
3177		-3.906250
3178		-1.953125
3179		-5.859375
3180		-1.953125
3181		-5.859375
3182		-1.953125
3183		-5.859375
3184		-1.953125
3185		-5.859375
3186		-1.953125
3187		-7.812500
3188		-3.906250
3189		-7.812500
3190		-3.906250
3191		-7.812500
3192		-3.906250
3193		-7.812500
3194		-5.859375
3195		-9.765625
3196		-5.859375
3197		-9.765625
3198		-5.859375
3199		-9.765625
3200		-5.859375
3201		-9.765625
3202		-5.859375
3203		-11.718750
3204		-7.812500
3205		-11.718750
3206		-7.812500
3207		-11.718750
3208		-5.859375
3209		-11.718750
3210		-9.765625
3211		-13.671875
3212		-9.765625
3213		-13.671875
3214		-9.765625
3215		-13.671875
3216		-11.718750
3217		-15.625000
3218		-11.718750
3219		-15.625000
3220		-9.765625
3221		-15.625000
3222		-11.718750
3223		-15.625000
3224		-11.718750
3225		-15.625000
3226		-13.671875
3227		-17.578125
3228		-13.671875
3229		-17.578125
3230		-13.671875
3231		-17.578125
3232		-13.671875
3233		-19.531250
3234		-13.671875
3235		-17.578125
3236		-15.625000
3237		-19.531250
3238		-13.671875
3239		-19.531250
3240		-15.625000
3241		-19.531250
3242		-15.625000
3243		-19.531250
3244		-17.578125
3245		-21.484375
3246		-17.578125
3247		-21.484375
3248		-17.578125
3249		-21.484375
3250		-17.578125
3251		-23.437500
3252		-17.578125
3253		-21.484375
3254		-19.531250
3255		-23.437500
3256		-19.531250
3257		-23.437500
3258		-19.531250
3259		-23.437500
3260		-19.531250
3261		-23.437500
3262		-19.531250
3263		-23.437500
3264		-19.531250
3265		-23.437500
3266		-21.484375
3267		-25.390625
3268		-21.484375
3269		-25.390625
3270		-21.484375
3271		-25.390625
3272		-21.484375
3273		-25.390625
3274		-21.484375
3275		-25.390625
3276		-23.437500
3277		-27.343750
3278		-23.437500
3279		-27.343750
3280		-23.437500
3281		-27.343750
3282		-23.437500
3283		-27.343750
3284		-23.437500
3285		-29.296875
3286		-23.437500
3287		-27.343750
3288		-25.390625
3289		-27.343750
3290		-25.390625
3291		-27.343750
3292		-25.390625
3293		-29.296875
3294		-25.390625
3295		-29.296875
3296		-25.390625
3297		-29.296875
3298		-25.390625
3299		-29.296875
3300		-27.343750
3301		-29.296875
3302		-25.390625
3303		-29.296875
3304		-27.343750
3305		-31.250000
3306		-25.390625
3307		-29.296875
3308		-27.343750
3309		-31.250000
3310		-27.343750
3311		-31.250000
3312		-27.343750
3313		-31.250000
3314		-27.343750
3315		-31.250000
3316		-27.343750
3317		-31.250000
3318		-27.343750
3319		-31.250000
3320		-27.343750
3321		-31.250000
3322		-27.343750
3323		-31.250000
3324		-27.343750
3325		-31.250000
3326		-29.296875
3327		-31.250000
3328		-27.343750
3329		-33.203125
3330		-27.343750
3331		-31.250000
3332		-29.296875
3333		-31.250000
3334		-27.343750
3335		-31.250000
3336		-29.296875
3337		-31.250000
3338		-27.343750
3339		-31.250000
3340		-29.296875
3341		-31.250000
3342		-29.296875
3343		-33.203125
3344		-27.343750
3345		-33.203125
3346		-29.296875
3347		-31.250000
3348		-27.343750
3349		-31.250000
3350		-29.296875
3351		-33.203125
3352		-29.296875
3353		-33.203125
3354		-29.296875
3355		-31.250000
3356		-29.296875
3357		-33.203125
3358		-27.343750
3359		-31.250000
3360		-29.296875
3361		-31.250000
3362		-29.296875
3363		-33.203125
3364		-29.296875
3365		-31.250000
3366		-29.296875
3367		-31.250000
3368		-29.296875
3369		-33.203125
3370		-27.343750
3371		-31.250000
3372		-27.343750
3373		-31.250000
3374		-27.343750
3375		-33.203125
3376		-27.343750
3377		-31.250000
3378		-27.343750
3379		-33.203125
3380		-27.343750
3381		-31.250000
3382		-27.343750
3383		-31.250000
3384		-27.343750
3385		-31.250000
3386		-27.343750
3387		-31.250000
3388		-27.343750
3389		-29.296875
3390		-27.343750
3391		-31.250000
3392		-27.343750
3393		-29.296875
3394		-27.343750
3395		-29.296875
3396		-27.343750
3397		-29.296875
3398		-25.390625
3399		-29.296875
3400		-27.343750
3401		-29.296875
3402		-25.390625
3403		-29.296875
3404		-25.390625
3405		-29.296875
3406		-25.390625
3407		-29.296875
3408		-25.390625
3409		-29.296875
3410		-25.390625
3411		-29.296875
3412		-23.437500
3413		-27.343750
3414		-23.437500
3415		-27.343750
3416		-25.390625
3417		-27.343750
3418		-23.437500
3419		-27.343750
3420		-23.437500
3421		-27.343750
3422		-21.484375
3423		-27.343750
3424		-23.437500
3425		-25.390625
3426		-23.437500
3427		-25.390625
3428		-21.484375
3429		-25.390625
3430		-21.484375
3431		-25.390625
3432		-21.484375
3433		-23.437500
3434		-21.484375
3435		-23.437500
3436		-19.531250
3437		-23.437500
3438		-19.531250
3439		-23.437500
3440		-19.531250
3441		-23.437500
3442		-19.531250
3443		-23.437500
3444		-19.531250
3445		-23.437500
3446		-19.531250
3447		-21.484375
3448		-17.578125
3449		-21.484375
3450		-17.578125
3451		-19.531250
3452		-17.578125
3453		-21.484375
3454		-15.625000
3455		-19.531250
3456		-15.625000
3457		-19.531250
3458		-15.625000
3459		-19.531250
3460		-15.625000
3461		-19.531250
3462		-15.625000
3463		-19.531250
3464		-13.671875
3465		-19.531250
3466		-13.671875
3467		-17.578125
3468		-13.671875
3469		-17.578125
3470		-11.718750
3471		-15.625000
3472		-13.671875
3473		-15.625000
3474		-11.718750
3475		-15.625000
3476		-11.718750
3477		-15.625000
3478		-11.718750
3479		-15.625000
3480		-9.765625
3481		-13.671875
3482		-9.765625
3483		-13.671875
3484		-9.765625
3485		-13.671875
3486		-9.765625
3487		-13.671875
3488		-9.765625
3489		-11.718750
3490		-7.812500
3491		-11.718750
3492		-7.812500
3493		-11.718750
3494		-7.812500
3495		-9.765625
3496		-7.812500
3497		-9.765625
3498		-5.859375
3499		-9.765625
3500		-5.859375
3501		-7.812500
3502		-5.859375
3503		-9.765625
3504		-3.906250
3505		-7.812500
3506		-3.906250
3507		-7.812500
3508		-3.906250
3509		-5.859375
3510		-3.906250
3511		-5.859375
3512		-1.953125
3513		-5.859375
3514		-1.953125
3515		-5.859375
3516		-1.953125
3517		-3.906250
3518		-1.953125
3519		-3.906250
3520		0.000000
3521		-3.906250
3522		0.000000
3523		-3.906250
3524		0.000000
3525		-1.953125
3526		0.000000
3527		-1.953125
3528		1.953125
3529		-1.953125
3530		1.953125
3531		-1.953125
3532		1.953125
3533		0.000000
3534		1.953125
3535		0.000000
3536		3.906250
3537		0.000000
3538		3.906250
3539		0.000000
3540		5.859375
3541		0.000000
3542		3.906250
3543		1.953125
3544		5.859375
3545		1.953125
3546		5.859375
3547		3.906250
3548		5.859375
3549		1.953125
3550		7.812500
3551		3.906250
3552		7.812500
3553		3.906250
3554		7.812500
3555		5.859375
3556		9.765625
3557		5.859375
3558		9.765625
3559		5.859375
3560		9.765625
3561		5.859375
3562		9.765625
3563		7.812500
3564		11.718750
3565		7.812500
3566		11.718750
3567		7.812500
3568		13.671875
3569		7.812500
3570		11.718750
3571		7.812500
3572		13.671875
3573		9.765625
3574		13.671875
3575		9.765625
3576		13.671875
3577		9.765625
3578		13.671875
3579		11.718750
3580		13.671875
3581		11.718750
3582		15.625000
3583		9.765625
3584		15.625000
3585		13.671875
3586		15.625000
3587		11.718750
3588		15.625000
3589		13.671875
3590		17.578125
3591		13.671875
3592		17.578125
3593		13.671875
3594		17.578125
3595		13.671875
3596		17.578125
3597		15.625000
3598		17.578125
3599		13.671875
3600		19.531250
3601		15.625000
3602		19.531250
3603		15.625000
3604		19.531250
3605		15.625000
3606		21.484375
3607		17.578125
3608		21.484375
3609		17.578125
3610		21.484375
3611		17.578125
3612		21.484375
3613		17.578125
3614		21.484375
3615		19.531250
3616		21.484375
3617		19.531250
3618		21.484375
3619		19.531250
3620		21.484375
3621		19.531250
3622		23.437500
3623		19.531250
3624		23.437500
3625		21.484375
3626		25.390625
3627		21.484375
3628		23.437500
3629		21.484375
3630		25.390625
3631		21.484375
3632		25.390625
3633		21.484375
3634		27.343750
3635		23.437500
3636		25.390625
3637		21.484375
3638		25.390625
3639		23.437500
3640		27.343750
3641		23.437500
3642		27.343750
3643		23.437500
3644		27.343750
3645		23.437500
3646		27.343750
3647		23.437500
3648		27.343750
3649		23.437500
3650		27.343750
3651		25.390625
3652		27.343750
3653		23.437500
3654		29.296875
3655		25.390625
3656		29.296875
3657		25.390625
3658		27.343750
3659		23.437500
3660		29.296875
3661		25.390625
3662		29.296875
3663		25.390625
3664		29.296875
3665		25.390625
3666		29.296875
3667		27.343750
3668		29.296875
3669		25.390625
3670		29.296875
3671		25.390625
3672		31.250000
3673		27.343750
3674		29.296875
3675		27.343750
3676		29.296875
3677		27.343750
3678		31.250000
3679		27.343750
3680		31.250000
3681		27.343750
3682		31.250000
3683		27.343750
3684		31.250000
3685		27.343750
3686		29.296875
3687		27.343750
3688		31.250000
3689		27.343750
3690		31.250000
3691		27.343750
3692		31.250000
3693		27.343750
3694		31.250000
3695		27.343750
3696		31.250000
3697		27.343750
3698		31.250000
3699		27.343750
3700		31.250000
3701		27.343750
3702		31.250000
3703		29.296875
3704		31.250000
3705		27.343750
3706		31.250000
3707		27.343750
3708		31.250000
3709		27.343750
3710		31.250000
3711		27.343750
3712		31.250000
3713		27.343750
3714		31.250000
3715		27.343750
3716		31.250000
3717		27.343750
3718		31.250000
3719		27.343750
3720		31.250000
3721		27.343750
3722		31.250000
3723		27.343750
3724		31.250000
3725		27.343750
3726		31.250000
3727		27.343750
3728		31.250000
3729		27.343750
3730		31.250000
3731		27.343750
3732		31.250000
3733		27.343750
3734		31.250000
3735		27.343750
3736		29.296875
3737		27.343750
3738		31.250000
3739		27.343750
3740		31.250000
3741		27.343750
3742		31.250000
3743		27.343750
3744		31.250000
3745		27.343750
3746		31.250000
3747		27.343750
3748		29.296875
3749		25.390625
3750		29.296875
3751		27.343750
3752		29.296875
3753		27.343750
3754		29.296875
3755		25.390625
3756		29.296875
3757		25.390625
3758		29.296875
3759		25.390625
3760		29.296875
3761		25.390625
3762		29.296875
3763		25.390625
3764		29.296875
3765		25.390625
3766		29.296875
3767		25.390625
3768		29.296875
3769		25.390625
3770		27.343750
3771		23.437500
3772		29.296875
3773		25.390625
3774		27.343750
3775		23.437500
3776		27.343750
3777		23.437500
3778		27.343750
3779		23.437500
3780		27.343750
3781		23.437500
3782		27.343750
3783		23.437500
3784		27.343750
3785		23.437500
3786		25.390625
3787		23.437500
3788		25.390625
3789		21.484375
3790		27.343750
3791		21.484375
3792		25.390625
3793		21.484375
3794		25.390625
3795		21.484375
3796		23.437500
3797		19.531250
3798		25.390625
3799		19.531250
3800		25.390625
3801		19.531250
3802		25.390625
3803		19.531250
3804		23.437500
3805		19.531250
3806		23.437500
3807		19.531250
3808		23.437500
3809		19.531250
3810		21.484375
3811		17.578125
3812		21.484375
3813		17.578125
3814		21.484375
3815		17.578125
3816		21.484375
3817		17.578125
3818		21.484375
3819		17.578125
3820		21.484375
3821		17.578125
3822		19.531250
3823		15.625000
3824		19.531250
3825		15.625000
3826		19.531250
3827		15.625000
3828		19.531250
3829		13.671875
3830		19.531250
3831		13.671875
3832		17.578125
3833		13.671875
3834		17.578125
3835		13.671875
3836		17.578125
3837		13.671875
3838		15.625000
3839		11.718750
3840		15.625000
3841		11.718750
3842		15.625000
3843		11.718750
3844		15.625000
3845		11.718750
3846		15.625000
3847		9.765625
3848		15.625000
3849		9.765625
3850		13.671875
3851		9.765625
3852		13.671875
3853		9.765625
3854		13.671875
3855		9.765625
3856		13.671875
3857		7.812500
3858		11.718750
3859		7.812500
3860		11.718750
3861		7.812500
3862		11.718750
3863		5.859375
3864		11.718750
3865		5.859375
3866		9.765625
3867		5.859375
3868		9.765625
3869		5.859375
3870		7.812500
3871		5.859375
3872		7.812500
3873		3.906250
3874		9.765625
3875		3.906250
3876		7.812500
3877		3.906250
3878		7.812500
3879		3.906250
3880		5.859375
3881		1.953125
3882		5.859375
3883		1.953125
3884		5.859375
3885		1.953125
3886		5.859375
3887		1.953125
3888		3.906250
3889		1.953125
3890		3.906250
3891		0.000000
3892		3.906250
3893		0.000000
3894		3.906250
3895		-1.953125
3896		1.953125
3897		-1.953125
3898		1.953125
3899		-1.953125
3900		1.953125
3901		-1.953125
3902		1.953125
3903		-1.953125
3904		0.000000
3905		-3.906250
3906		0.000000
3907		-3.906250
3908		0.000000
3909		-3.906250
3910		-1.953125
3911		-5.859375
3912		-1.953125
3913		-5.859375
3914		-1.953125
3915		-5.859375
3916		-1.953125
3917		-5.859375
3918		-1.953125
3919		-5.859375
3920		-3.906250
3921		-7.812500
3922		-3.906250
3923		-9.765625
3924		-3.906250
3925		-7.812500
3926		-5.859375
3927		-9.765625
3928		-5.859375
3929		-11.718750
3930		-5.859375
3931		-9.765625
3932		-5.859375
3933		-9.765625
3934		-5.859375
3935		-11.718750
3936		-5.859375
3937		-11.718750
3938		-7.812500
3939		-11.718750
3940		-7.812500
3941		-13.671875
3942		-9.765625
3943		-11.718750
3944		-9.765625
3945		-15.625000
3946		-9.765625
3947		-13.671875
3948		-11.718750
3949		-13.671875
3950		-11.718750
3951		-15.625000
3952		-11.718750
3953		-15.625000
3954		-11.718750
3955		-15.625000
3956		-13.671875
3957		-15.625000
3958		-11.718750
3959		-17.578125
3960		-13.671875
3961		-17.578125
3962		-13.671875
3963		-17.578125
3964		-13.671875
3965		-17.578125
3966		-13.671875
3967		-19.531250
3968		-15.625000
3969		-19.531250
3970		-15.625000
3971		-19.531250
3972		-15.625000
3973		-19.531250
3974		-15.625000
3975		-19.531250
3976		-17.578125
3977		-21.484375
3978		-17.578125
3979		-21.484375
3980		-17.578125
3981		-21.484375
3982		-17.578125
3983		-21.484375
3984		-17.578125
3985		-21.484375
3986		-19.531250
3987		-23.437500
3988		-19.531250
3989		-23.437500
3990		-19.531250
3991		-23.437500
3992		-19.531250
3993		-23.437500
3994		-21.484375
3995		-23.437500
3996		-21.484375
3997		-25.390625
3998		-21.484375
3999		-25.390625
4000		-21.484375
4001		-25.390625
4002		-21.484375
4003		-27.343750
4004		-21.484375
4005		-25.390625
4006		-23.437500
4007		-25.390625
4008		-23.437500
4009		-27.343750
4010		-23.437500
4011		-27.343750
4012		-23.437500
4013		-27.343750
4014		-23.437500
4015		-27.343750
4016		-23.437500
4017		-27.343750
4018		-23.437500
4019		-29.296875
4020		-23.437500
4021		-27.343750
4022		-25.390625
4023		-29.296875
4024		-25.390625
4025		-29.296875
4026		-25.390625
4027		-29.296875
4028		-25.390625
4029		-29.296875
4030		-25.390625
4031		-31.250000
4032		-25.390625
4033		-29.296875
4034		-27.343750
4035		-31.250000
4036		-25.390625
4037		-29.296875
4038		-27.343750
4039		-29.296875
4040		-27.343750
4041		-31.250000
4042		-27.343750
4043		-31.250000
4044		-27.343750
4045		-31.250000
4046		-27.343750
4047		-31.250000
4048		-27.343750
4049		-31.250000
4050		-27.343750
4051		-31.250000
4052		-27.343750
4053		-31.250000
4054		-27.343750
4055		-31.250000
4056		-29.296875
4057		-31.250000
4058		-27.343750
4059		-31.250000
4060		-27.343750
4061		-31.250000
4062		-27.343750
4063		-31.250000
4064		-29.296875
4065		-33.203125
4066		-29.296875
4067		-31.250000
4068		-27.343750
4069		-33.203125
4070		-29.296875
4071		-31.250000
4072		-27.343750
4073		-31.250000
4074		-29.296875
4075		-31.250000
4076		-27.343750
4077		-33.203125
4078		-29.296875
4079		-31.250000
4080		-29.296875
4081		-33.203125
4082		-29.296875
4083		-31.250000
4084		-29.296875
4085		-31.250000
4086		-29.296875
4087		-33.203125
4088		-29.296875
4089		-33.203125
4090		-27.343750
4091		-31.250000
4092		-29.296875
4093		-31.250000
4094		-29.296875
4095		-33.203125
4096		-29.296875
4097		-31.250000
4098		-29.296875
4099		-31.250000
4100		-27.343750
4101		-31.250000
4102		-27.343750
4103		-31.250000
4104		-27.343750
4105		-31.250000
4106		-27.343750
4107		-31.250000
4108		-27.343750
4109		-31.250000
4110		-27.343750
4111		-31.250000
4112		-27.343750
4113		-31.250000
4114		-27.343750
4115		-31.250000
4116		-27.343750
4117		-31.250000
4118		-27.343750
4119		-31.250000
4120		-25.390625
4121		-31.250000
4122		-27.343750
4123		-29.296875
4124		-27.343750
4125		-31.250000
4126		-25.390625
4127		-29.296875
4128		-23.437500
4129		-29.296875
4130		-27.343750
4131		-29.296875
4132		-25.390625
4133		-29.296875
4134		-25.390625
4135		-29.296875
4136		-25.390625
4137		-29.296875
4138		-25.390625
4139		-27.343750
4140		-25.390625
4141		-27.343750
4142		-23.437500
4143		-27.343750
4144		-25.390625
4145		-27.343750
4146		-23.437500
4147		-27.343750
4148		-23.437500
4149		-27.343750
4150		-23.437500
4151		-27.343750
4152		-23.437500
4153		-27.343750
4154		-21.484375
4155		-25.390625
4156		-23.437500
4157		-25.390625
4158		-23.437500
4159		-25.390625
4160		-21.484375
4161		-25.390625
4162		-21.484375
4163		-25.390625
4164		-21.484375
4165		-25.390625
4166		-21.484375
4167		-23.437500
4168		-19.531250
4169		-23.437500
4170		-19.531250
4171		-23.437500
4172		-19.531250
4173		-21.484375
4174		-19.531250
4175		-23.437500
4176		-17.578125
4177		-21.484375
4178		-17.578125
4179		-21.484375
4180		-17.578125
4181		-21.484375
4182		-17.578125
4183		-21.484375
4184		-17.578125
4185		-19.531250
4186		-17.578125
4187		-21.484375
4188		-15.625000
4189		-19.531250
4190		-17.578125
4191		-19.531250
4192		-15.625000
4193		-19.531250
4194		-15.625000
4195		-17.578125
4196		-15.625000
4197		-17.578125
4198		-13.671875
4199		-17.578125
4200		-13.671875
4201		-17.578125
4202		-13.671875
4203		-17.578125
4204		-13.671875
4205		-15.625000
4206		-11.718750
4207		-15.625000
4208		-13.671875
4209		-15.625000
4210		-11.718750
4211		-15.625000
4212		-9.765625
4213		-13.671875
4214		-11.718750
4215		-13.671875
4216		-9.765625
4217		-13.671875
4218		-9.765625
4219		-11.718750
4220		-9.765625
4221		-13.671875
4222		-7.812500
4223		-11.718750
4224		-7.812500
4225		-11.718750
4226		-7.812500
4227		-11.718750
4228		-7.812500
4229		-11.718750
4230		-5.859375
4231		-9.765625
4232		-5.859375
4233		-9.765625
4234		-5.859375
4235		-7.812500
4236		-5.859375
4237		-9.765625
4238		-3.906250
4239		-7.812500
4240		-3.906250
4241		-7.812500
4242		-3.906250
4243		-7.812500
4244		-3.906250
4245		-5.859375
4246		-1.953125
4247		-5.859375
4248		-1.953125
4249		-3.906250
4250		-1.953125
4251		-5.859375
4252		0.000000
4253		-3.906250
4254		0.000000
4255		-3.906250
4256		0.000000
4257		-3.906250
4258		0.000000
4259		-3.906250
4260		1.953125
4261		-1.953125
4262		1.953125
4263		-1.953125
4264		1.953125
4265		-1.953125
4266		1.953125
4267		0.000000
4268		3.906250
4269		0.000000
4270		3.906250
4271		0.000000
4272		3.906250
4273		0.000000
4274		3.906250
4275		1.953125
4276		5.859375
4277		1.953125
4278		5.859375
4279		1.953125
4280		5.859375
4281		3.906250
4282		5.859375
4283		3.906250
4284		5.859375
4285		3.906250
4286		9.765625
4287		3.906250
4288		7.812500
4289		5.859375
4290		7.812500
4291		5.859375
4292		9.765625
4293		5.859375
4294		9.765625
4295		5.859375
4296		9.765625
4297		7.812500
4298		9.765625
4299		7.812500
4300		11.718750
4301		7.812500
4302		11.718750
4303		7.812500
4304		11.718750
4305		7.812500
4306		11.718750
4307		9.765625
4308		11.718750
4309		9.765625
4310		13.671875
4311		9.765625
4312		13.671875
4313		9.765625
4314		15.625000
4315		11.718750
4316		15.625000
4317		11.718750
4318		15.625000
4319		11.718750
4320		15.625000
4321		11.718750
4322		15.625000
4323		11.718750
4324		17.578125
4325		13.671875
4326		15.625000
4327		13.671875
4328		17.578125
4329		13.671875
4330		17.578125
4331		15.625000
4332		17.578125
4333		15.625000
4334		19.531250
4335		15.625000
4336		19.531250
4337		15.625000
4338		19.531250
4339		15.625000
4340		19.531250
4341		17.578125
4342		19.531250
4343		17.578125
4344		21.484375
4345		17.578125
4346		21.484375
4347		17.578125
4348		21.484375
4349		17.578125
4350		21.484375
4351		17.578125
4352		21.484375
4353		19.531250
4354		21.484375
4355		19.531250
4356		23.437500
4357		19.531250
4358		23.437500
4359		19.531250
4360		23.437500
4361		21.484375
4362		23.437500
4363		21.484375
4364		23.437500
4365		21.484375
4366		25.390625
4367		21.484375
4368		25.390625
4369		21.484375
4370		25.390625
4371		21.484375
4372		25.390625
4373		23.437500
4374		25.390625
4375		23.437500
4376		25.390625
4377		23.437500
4378		25.390625
4379		23.437500
4380		27.343750
4381		23.437500
4382		27.343750
4383		23.437500
4384		27.343750
4385		23.437500
4386		27.343750
4387		23.437500
4388		27.343750
4389		23.437500
4390		27.343750
4391		23.437500
4392		27.343750
4393		25.390625
4394		29.296875
4395		25.390625
4396		27.343750
4397		25.390625
4398		27.343750
4399		25.390625
4400		29.296875
4401		25.390625
4402		29.296875
4403		25.390625
4404		29.296875
4405		25.390625
4406		29.296875
4407		27.343750
4408		29.296875
4409		27.343750
4410		29.296875
4411		25.390625
4412		31.250000
4413		27.343750
4414		29.296875
4415		27.343750
4416		29.296875
4417		27.343750
4418		29.296875
4419		25.390625
4420		31.250000
4421		27.343750
4422		31.250000
4423		27.343750
4424		31.250000
4425		27.343750
4426		31.250000
4427		27.343750
4428		31.250000
4429		27.343750
4430		31.250000
4431		27.343750
4432		31.250000
4433		27.343750
4434		31.250000
4435		27.343750
4436		31.250000
4437		27.343750
4438		31.250000
4439		27.343750
4440		31.250000
4441		27.343750
4442		29.296875
4443		27.343750
4444		31.250000
4445		27.343750
4446		31.250000
4447		27.343750
4448		31.250000
4449		27.343750
4450		31.250000
4451		27.343750
4452		31.250000
4453		27.343750
4454		31.250000
4455		27.343750
4456		31.250000
4457		27.343750
4458		31.250000
4459		27.343750
4460		31.250000
4461		27.343750
4462		31.250000
4463		27.343750
4464		31.250000
4465		27.343750
4466		31.250000
4467		27.343750
4468		29.296875
4469		27.343750
4470		31.250000
4471		27.343750
4472		31.250000
4473		27.343750
4474		29.296875
4475		27.343750
4476		29.296875
4477		25.390625
4478		29.296875
4479		25.390625
4480		29.296875
4481		25.390625
4482		29.296875
4483		25.390625
4484		29.296875
4485		25.390625
4486		29.296875
4487		25.390625
4488		29.296875
4489		25.390625
4490		29.296875
4491		25.390625
4492		29.296875
4493		25.390625
4494		27.343750
4495		25.390625
4496		29.296875
4497		25.390625
4498		29.296875
4499		23.437500
4500		27.343750
4501		23.437500
4502		27.343750
4503		23.437500
4504		29.296875
4505		23.437500
4506		27.343750
4507		23.437500
4508		27.343750
4509		23.437500
4510		25.390625
4511		23.437500
4512		25.390625
4513		23.437500
4514		27.343750
4515		23.437500
4516		25.390625
4517		21.484375
4518		25.390625
4519		21.484375
4520		25.390625
4521		21.484375
4522		25.390625
4523		21.484375
4524		25.390625
4525		19.531250
4526		23.437500
4527		21.484375
4528		23.437500
4529		19.531250
4530		25.390625
4531		19.531250
4532		23.437500
4533		19.531250
4534		23.437500
4535		19.531250
4536		23.437500
4537		19.531250
4538		23.437500
4539		17.578125
4540		21.484375
4541		17.578125
4542		21.484375
4543		17.578125
4544		21.484375
4545		17.578125
4546		21.484375
4547		17.578125
4548		21.484375
4549		17.578125
4550		21.484375
4551		17.578125
4552		19.531250
4553		15.625000
4554		19.531250
4555		15.625000
4556		19.531250
4557		15.625000
4558		19.531250
4559		15.625000
4560		17.578125
4561		15.625000
4562		19.531250
4563		13.671875
4564		17.578125
4565		13.671875
4566		17.578125
4567		13.671875
4568		17.578125
4569		13.671875
4570		15.625000
4571		11.718750
4572		15.625000
4573		11.718750
4574		15.625000
4575		11.718750
4576		13.671875
4577		9.765625
4578		13.671875
4579		9.765625
4580		13.671875
4581		9.765625
4582		13.671875
4583		9.765625
4584		13.671875
4585		9.765625
4586		11.718750
4587		7.812500
4588		11.718750
4589		7.812500
4590		11.718750
4591		7.812500
4592		11.718750
4593		7.812500
4594		9.765625
4595		5.859375
4596		9.765625
4597		5.859375
4598		9.765625
4599		5.859375
4600		9.765625
4601		5.859375
4602		9.765625
4603		3.906250
4604		7.812500
4605		3.906250
4606		7.812500
4607		3.906250
4608		7.812500
4609		3.906250
4610		5.859375
4611		1.953125
4612		5.859375
4613		1.953125
4614		5.859375
4615		1.953125
4616		5.859375
4617		0.000000
4618		5.859375
4619		0.000000
4620		5.859375
4621		0.000000
4622		3.906250
4623		0.000000
4624		3.906250
4625		0.000000
4626		3.906250
4627		-1.953125
4628		3.906250
4629		-1.953125
4630		1.953125
4631		-1.953125
4632		1.953125
4633		-1.953125
4634		1.953125
4635		-3.906250
4636		0.000000
4637		-3.906250
4638		0.000000
4639		-3.906250
4640		0.000000
4641		-5.859375
4642		-1.953125
4643		-3.906250
4644		-1.953125
4645		-5.859375
4646		-1.953125
4647		-5.859375
4648		-1.953125
4649		-5.859375
4650		-1.953125
4651		-7.812500
4652		-3.906250
4653		-7.812500
4654		-3.906250
4655		-7.812500
4656		-3.906250
4657		-7.812500
4658		-3.906250
4659		-9.765625
4660		-5.859375
4661		-9.765625
4662		-5.859375
4663		-9.765625
4664		-5.859375
4665		-9.765625
4666		-7.812500
4667		-11.718750
4668		-7.812500
4669		-11.718750
4670		-7.812500
4671		-11.718750
4672		-7.812500
4673		-13.671875
4674		-9.765625
4675		-11.718750
4676		-9.765625
4677		-13.671875
4678		-9.765625
4679		-15.625000
4680		-9.765625
4681		-13.671875
4682		-11.718750
4683		-15.625000
4684		-11.718750
4685		-15.625000
4686		-11.718750
4687		-15.625000
4688		-11.718750
4689		-17.578125
4690		-11.718750
4691		-17.578125
4692		-13.671875
4693		-17.578125
4694		-13.671875
4695		-17.578125
4696		-13.671875
4697		-19.531250
4698		-13.671875
4699		-19.531250
4700		-15.625000
4701		-19.531250
4702		-15.625000
4703		-19.531250
4704		-15.625000
4705		-19.531250
4706		-15.625000
4707		-21.484375
4708		-17.578125
4709		-21.484375
4710		-17.578125
4711		-21.484375
4712		-19.531250
4713		-23.437500
4714		-17.578125
4715		-21.484375
4716		-19.531250
4717		-23.437500
4718		-19.531250
4719		-23.437500
4720		-19.531250
4721		-23.437500
4722		-19.531250
4723		-25.390625
4724		-19.531250
4725		-23.437500
4726		-19.531250
4727		-23.437500
4728		-21.484375
4729		-25.390625
4730		-21.484375
4731		-25.390625
4732		-21.484375
4733		-25.390625
4734		-21.484375
4735		-25.390625
4736		-23.437500
4737		-25.390625
4738		-23.437500
4739		-27.343750
4740		-23.437500
4741		-27.343750
4742		-23.437500
4743		-27.343750
4744		-23.437500
4745		-27.343750
4746		-25.390625
4747		-29.296875
4748		-23.437500
4749		-27.343750
4750		-25.390625
4751		-29.296875
4752		-25.390625
4753		-29.296875
4754		-25.390625
4755		-29.296875
4756		-25.390625
4757		-31.250000
4758		-25.390625
4759		-29.296875
4760		-25.390625
4761		-29.296875
4762		-27.343750
4763		-31.250000
4764		-25.390625
4765		-29.296875
4766		-27.343750
4767		-31.250000
4768		-27.343750
4769		-29.296875
4770		-27.343750
4771		-31.250000
4772		-27.343750
4773		-31.250000
4774		-27.343750
4775		-31.250000
4776		-27.343750
4777		-31.250000
4778		-27.343750
4779		-31.250000
4780		-29.296875
4781		-31.250000
4782		-29.296875
4783		-33.203125
4784		-27.343750
4785		-31.250000
4786		-29.296875
4787		-33.203125
4788		-29.296875
4789		-31.250000
4790		-29.296875
4791		-31.250000
4792		-29.296875
4793		-33.203125
4794		-29.296875
4795		-31.250000
4796		-29.296875
4797		-33.203125
4798		-29.296875
4799		-33.203125
4800		-29.296875
4801		-33.203125
4802		-29.296875
4803		-33.203125
4804		-29.296875
4805		-33.203125
4806		-29.296875
4807		-33.203125
4808		-29.296875
4809		-33.203125
4810		-29.296875
4811		-33.203125
4812		-29.296875
4813		-33.203125
4814		-29.296875
4815		-33.203125
4816		-29.296875
4817		-33.203125
4818		-29.296875
4819		-33.203125
4820		-29.296875
4821		-33.203125
4822		-29.296875
4823		-33.203125
4824		-29.296875
4825		-33.203125
4826		-29.296875
4827		-33.203125
4828		-29.296875
4829		-33.203125
4830		-29.296875
4831		-33.203125
4832		-29.296875
4833		-33.203125
4834		-29.296875
4835		-33.203125
4836		-29.296875
4837		-33.203125
4838		-29.296875
4839		-33.203125
4840		-29.296875
4841		-33.203125
4842		-29.296875
4843		-33.203125
4844		-27.343750
4845		-31.250000
4846		-29.296875
4847		-31.250000
4848		-29.296875
4849		-31.250000
4850		-27.343750
4851		-31.250000
4852		-27.343750
4853		-31.250000
4854		-27.343750
4855		-31.250000
4856		-27.343750
4857		-31.250000
4858		-27.343750
4859		-31.250000
4860		-27.343750
4861		-31.250000
4862		-27.343750
4863		-29.296875
4864		-27.343750
4865		-31.250000
4866		-27.343750
4867		-31.250000
4868		-25.390625
4869		-29.296875
4870		-25.390625
4871		-29.296875
4872		-25.390625
4873		-29.296875
4874		-25.390625
4875		-29.296875
4876		-25.390625
4877		-29.296875
4878		-25.390625
4879		-27.343750
4880		-25.390625
4881		-27.343750
4882		-23.437500
4883		-27.343750
4884		-23.437500
4885		-27.343750
4886		-23.437500
4887		-27.343750
4888		-21.484375
4889		-27.343750
4890		-23.437500
4891		-27.343750
4892		-23.437500
4893		-27.343750
4894		-23.437500
4895		-25.390625
4896		-23.437500
4897		-25.390625
4898		-21.484375
4899		-25.390625
4900		-21.484375
4901		-23.437500
4902		-21.484375
4903		-23.437500
4904		-21.484375
4905		-23.437500
4906		-21.484375
4907		-23.437500
4908		-19.531250
4909		-23.437500
4910		-19.531250
4911		-21.484375
4912		-19.531250
4913		-21.484375
4914		-17.578125
4915		-21.484375
4916		-17.578125
4917		-21.484375
4918		-17.578125
4919		-21.484375
4920		-15.625000
4921		-19.531250
4922		-17.578125
4923		-19.531250
4924		-15.625000
4925		-21.484375
4926		-15.625000
4927		-19.531250
4928		-15.625000
4929		-19.531250
4930		-15.625000
4931		-17.578125
4932		-15.625000
4933		-17.578125
4934		-13.671875
4935		-17.578125
4936		-13.671875
4937		-15.625000
4938		-13.671875
4939		-17.578125
4940		-11.718750
4941		-15.625000
4942		-11.718750
4943		-15.625000
4944		-11.718750
4945		-13.671875
4946		-11.718750
4947		-13.671875
4948		-11.718750
4949		-13.671875
4950		-9.765625
4951		-13.671875
4952		-9.765625
4953		-13.671875
4954		-9.765625
4955		-11.718750
4956		-7.812500
4957		-11.718750
4958		-7.812500
4959		-11.718750
4960		-7.812500
4961		-11.718750
4962		-5.859375
4963		-9.765625
4964		-7.812500
4965		-9.765625
4966		-5.859375
4967		-9.765625
4968		-5.859375
4969		-7.812500
4970		-3.906250
4971		-7.812500
4972		-3.906250
4973		-7.812500
4974		-3.906250
4975		-7.812500
4976		-3.906250
4977		-7.812500
4978		-1.953125
4979		-5.859375
4980		-3.906250
4981		-5.859375
4982		-1.953125
4983		-3.906250
4984		-1.953125
4985		-3.906250
4986		-1.953125
4987		-3.906250
4988		0.000000
4989		-3.906250
4990		0.000000
4991		-1.953125
4992		0.000000
4993		-1.953125
4994		1.953125
4995		-1.953125
4996		1.953125
4997		-1.953125
4998		1.953125
4999		-1.953125
5000		3.906250
5001		0.000000
5002		3.906250
5003		0.000000
5004		3.906250
5005		0.000000
5006		3.906250
5007		1.953125
5008		3.906250
5009		0.000000
5010		5.859375
5011		1.953125
5012		5.859375
5013		0.000000
5014		5.859375
5015		1.953125
5016		5.859375
5017		3.906250
5018		7.812500
5019		3.906250
5020		7.812500
5021		3.906250
5022		7.812500
5023		3.906250
5024		9.765625
5025		5.859375
5026		9.765625
5027		5.859375
5028		9.765625
5029		7.812500
5030		9.765625
5031		7.812500
5032		9.765625
5033		7.812500
5034		11.718750
5035		7.812500
5036		11.718750
5037		7.812500
5038		11.718750
5039		7.812500
5040		11.718750
5041		9.765625
5042		13.671875
5043		9.765625
5044		13.671875
5045		9.765625
5046		13.671875
5047		11.718750
5048		13.671875
5049		11.718750
5050		15.625000
5051		11.718750
5052		15.625000
5053		11.718750
5054		15.625000
5055		13.671875
5056		15.625000
5057		13.671875
5058		15.625000
5059		13.671875
5060		17.578125
5061		13.671875
5062		17.578125
5063		15.625000
5064		17.578125
5065		13.671875
5066		17.578125
5067		13.671875
5068		19.531250
5069		15.625000
5070		19.531250
5071		15.625000
5072		19.531250
5073		17.578125
5074		19.531250
5075		15.625000
5076		19.531250
5077		17.578125
5078		19.531250
5079		17.578125
5080		21.484375
5081		17.578125
5082		21.484375
5083		17.578125
5084		21.484375
5085		17.578125
5086		21.484375
5087		17.578125
5088		23.437500
5089		19.531250
5090		23.437500
5091		19.531250
5092		23.437500
5093		19.531250
5094		23.437500
5095		19.531250
5096		23.437500
5097		21.484375
5098		23.437500
5099		19.531250
5100		25.390625
5101		21.484375
5102		23.437500
5103		21.484375
5104		25.390625
5105		21.484375
5106		25.390625
5107		21.484375
5108		25.390625
5109		21.484375
5110		25.390625
5111		21.484375
5112		25.390625
5113		23.437500
5114		25.390625
5115		23.437500
5116		25.390625
5117		21.484375
5118		27.343750
5119		23.437500
5120		27.343750
5121		23.437500
5122		27.343750
5123		23.437500
5124		27.343750
5125		23.437500
5126		27.343750
5127		23.437500
5128		27.343750
5129		23.437500
5130		27.343750
5131		25.390625
5132		27.343750
5133		23.437500
5134		29.296875
5135		23.437500
5136		29.296875
5137		25.390625
5138		27.343750
5139		25.390625
5140		29.296875
5141		25.390625
5142		29.296875
5143		25.390625
5144		29.296875
5145		25.390625
5146		29.296875
5147		25.390625
5148		29.296875
5149		25.390625
5150		29.296875
5151		25.390625
5152		29.296875
5153		25.390625
5154		29.296875
5155		25.390625
5156		29.296875
5157		27.343750
5158		29.296875
5159		25.390625
5160		29.296875
5161		27.343750
5162		29.296875
5163		27.343750
5164		29.296875
5165		27.343750
5166		29.296875
5167		25.390625
5168		29.296875
5169		27.343750
5170		29.296875
5171		27.343750
5172		31.250000
5173		27.343750
5174		29.296875
5175		27.343750
5176		29.296875
5177		27.343750
5178		31.250000
5179		25.390625
5180		31.250000
5181		27.343750
5182		29.296875
5183		27.343750
5184		29.296875
5185		27.343750
5186		31.250000
5187		27.343750
5188		31.250000
5189		27.343750
5190		29.296875
5191		25.390625
5192		31.250000
5193		27.343750
5194		29.296875
5195		25.390625
5196		31.250000
5197		25.390625
5198		29.296875
5199		27.343750
5200		29.296875
5201		25.390625
5202		29.296875
5203		25.390625
5204		29.296875
5205		25.390625
5206		29.296875
5207		25.390625
5208		29.296875
5209		25.390625
5210		29.296875
5211		25.390625
5212		29.296875
5213		25.390625
5214		29.296875
5215		25.390625
5216		27.343750
5217		23.437500
5218		29.296875
5219		25.390625
5220		29.296875
5221		25.390625
5222		27.343750
5223		25.390625
5224		27.343750
5225		25.390625
5226		27.343750
5227		25.390625
5228		29.296875
5229		23.437500
5230		27.343750
5231		23.437500
5232		27.343750
5233		23.437500
5234		27.343750
5235		23.437500
5236		27.343750
5237		23.437500
5238		27.343750
5239		23.437500
5240		27.343750
5241		23.437500
5242		25.390625
5243		21.484375
5244		25.390625
5245		21.484375
5246		25.390625
5247		21.484375
5248		25.390625
5249		21.484375
5250		25.390625
5251		21.484375
5252		25.390625
5253		21.484375
5254		25.390625
5255		21.484375
5256		23.437500
5257		19.531250
5258		23.437500
5259		19.531250
5260		23.437500
5261		19.531250
5262		23.437500
5263		19.531250
5264		23.437500
5265		17.578125
5266		23.437500
5267		19.531250
5268		21.484375
5269		17.578125
5270		21.484375
5271		17.578125
5272		21.484375
5273		17.578125
5274		21.484375
5275		15.625000
5276		21.484375
5277		17.578125
5278		21.484375
5279		15.625000
5280		19.531250
5281		15.625000
5282		19.531250
5283		17.578125
5284		19.531250
5285		15.625000
5286		19.531250
5287		13.671875
5288		19.531250
5289		13.671875
5290		17.578125
5291		13.671875
5292		17.578125
5293		13.671875
5294		17.578125
5295		13.671875
5296		17.578125
5297		11.718750
5298		17.578125
5299		13.671875
5300		15.625000
5301		11.718750
5302		17.578125
5303		11.718750
5304		15.625000
5305		11.718750
5306		15.625000
5307		11.718750
5308		15.625000
5309		9.765625
5310		13.671875
5311		9.765625
5312		13.671875
5313		9.765625
5314		13.671875
5315		9.765625
5316		13.671875
5317		9.765625
5318		11.718750
5319		7.812500
5320		11.718750
5321		7.812500
5322		11.718750
5323		7.812500
5324		9.765625
5325		5.859375
5326		11.718750
5327		5.859375
5328		9.765625
5329		5.859375
5330		9.765625
5331		5.859375
5332		9.765625
5333		5.859375
5334		7.812500
5335		3.906250
5336		7.812500
5337		3.906250
5338		7.812500
5339		3.906250
5340		7.812500
5341		1.953125
5342		5.859375
5343		1.953125
5344		5.859375
5345		1.953125
5346		5.859375
5347		1.953125
5348		5.859375
5349		1.953125
5350		3.906250
5351		0.000000
5352		3.906250
5353		0.000000
5354		3.906250
5355		0.000000
5356		1.953125
5357		-1.953125
5358		1.953125
5359		-1.953125
5360		1.953125
5361		-3.906250
5362		1.953125
5363		-1.953125
5364		0.000000
5365		-1.953125
5366		0.000000
5367		-3.906250
5368		0.000000
5369		-3.906250
5370		0.000000
5371		-3.906250
5372		0.000000
5373		-5.859375
5374		-1.953125
5375		-5.859375
5376		-1.953125
5377		-5.859375
5378		-1.953125
5379		-7.812500
5380		-1.953125
5381		-7.812500
5382		-3.906250
5383		-7.812500
5384		-3.906250
5385		-7.812500
5386		-3.906250
5387		-7.812500
5388		-5.859375
5389		-9.765625
5390		-5.859375
5391		-9.765625
5392		-5.859375
5393		-9.765625
5394		-5.859375
5395		-9.765625
5396		-7.812500
5397		-11.718750
5398		-7.812500
5399		-11.718750
5400		-7.812500
5401		-11.718750
5402		-9.765625
5403		-11.718750
5404		-9.765625
5405		-13.671875
5406		-9.765625
5407		-13.671875
5408		-9.765625
5409		-13.671875
5410		-11.718750
5411		-13.671875
5412		-9.765625
5413		-15.625000
5414		-11.718750
5415		-15.625000
5416		-11.718750
5417		-15.625000
5418		-11.718750
5419		-17.578125
5420		-13.671875
5421		-17.578125
5422		-13.671875
5423		-17.578125
5424		-13.671875
5425		-17.578125
5426		-13.671875
5427		-19.531250
5428		-13.671875
5429		-19.531250
5430		-15.625000
5431		-19.531250
5432		-15.625000
5433		-19.531250
5434		-15.625000
5435		-21.484375
5436		-17.578125
5437		-19.531250
5438		-15.625000
5439		-21.484375
5440		-17.578125
5441		-21.484375
5442		-17.578125
5443		-21.484375
5444		-17.578125
5445		-21.484375
5446		-19.531250
5447		-23.437500
5448		-19.531250
5449		-23.437500
5450		-19.531250
5451		-23.437500
5452		-21.484375
5453		-23.437500
5454		-19.531250
5455		-23.437500
5456		-19.531250
5457		-25.390625
5458		-21.484375
5459		-25.390625
5460		-21.484375
5461		-25.390625
5462		-21.484375
5463		-25.390625
5464		-23.437500
5465		-25.390625
5466		-21.484375
5467		-25.390625
5468		-23.437500
5469		-27.343750
5470		-23.437500
5471		-27.343750
5472		-23.437500
5473		-27.343750
5474		-23.437500
5475		-27.343750
5476		-23.437500
5477		-29.296875
5478		-23.437500
5479		-29.296875
5480		-25.390625
5481		-29.296875
5482		-25.390625
5483		-29.296875
5484		-25.390625
5485		-29.296875
5486		-25.390625
5487		-29.296875
5488		-25.390625
5489		-29.296875
5490		-27.343750
5491		-31.250000
5492		-27.343750
5493		-29.296875
5494		-27.343750
5495		-31.250000
5496		-27.343750
5497		-31.250000
5498		-27.343750
5499		-31.250000
5500		-27.343750
5501		-31.250000
5502		-27.343750
5503		-33.203125
5504		-27.343750
5505		-31.250000
5506		-27.343750
5507		-33.203125
5508		-27.343750
5509		-33.203125
5510		-27.343750
5511		-33.203125
5512		-27.343750
5513		-33.203125
5514		-27.343750
5515		-33.203125
5516		-29.296875
5517		-31.250000
5518		-29.296875
5519		-33.203125
5520		-29.296875
5521		-33.203125
5522		-29.296875
5523		-33.203125
5524		-29.296875
5525		-33.203125
5526		-29.296875
5527		-33.203125
5528		-29.296875
5529		-33.203125
5530		-29.296875
5531		-33.203125
5532		-29.296875
5533		-33.203125
5534		-29.296875
5535		-33.203125
5536		-29.296875
5537		-33.203125
5538		-29.296875
5539		-33.203125
5540		-29.296875
5541		-33.203125
5542		-29.296875
5543		-33.203125
5544		-29.296875
5545		-33.203125
5546		-29.296875
5547		-35.156250
5548		-29.296875
5549		-33.203125
5550		-29.296875
5551		-33.203125
5552		-31.250000
5553		-33.203125
5554		-29.296875
5555		-35.156250
5556		-29.296875
5557		-35.156250
5558		-29.296875
5559		-33.203125
5560		-29.296875
5561		-35.156250
5562		-29.296875
5563		-33.203125
5564		-29.296875
5565		-35.156250
5566		-29.296875
5567		-33.203125
5568		-29.296875
5569		-33.203125
5570		-29.296875
5571		-33.203125
5572		-29.296875
5573		-33.203125
5574		-29.296875
5575		-33.203125
5576		-29.296875
5577		-33.203125
5578		-29.296875
5579		-33.203125
5580		-27.343750
5581		-33.203125
5582		-27.343750
5583		-33.203125
5584		-29.296875
5585		-31.250000
5586		-29.296875
5587		-33.203125
5588		-27.343750
5589		-33.203125
5590		-27.343750
5591		-33.203125
5592		-27.343750
5593		-31.250000
5594		-27.343750
5595		-31.250000
5596		-27.343750
5597		-33.203125
5598		-27.343750
5599		-31.250000
5600		-27.343750
5601		-29.296875
5602		-27.343750
5603		-31.250000
5604		-27.343750
5605		-31.250000
5606		-25.390625
5607		-29.296875
5608		-25.390625
5609		-31.250000
5610		-25.390625
5611		-29.296875
5612		-25.390625
5613		-29.296875
5614		-25.390625
5615		-29.296875
5616		-23.437500
5617		-27.343750
5618		-23.437500
5619		-27.343750
5620		-25.390625
5621		-27.343750
5622		-25.390625
5623		-27.343750
5624		-23.437500
5625		-25.390625
5626		-23.437500
5627		-25.390625
5628		-23.437500
5629		-25.390625
5630		-23.437500
5631		-25.390625
5632		-23.437500
5633		-25.390625
5634		-21.484375
5635		-25.390625
5636		-21.484375
5637		-25.390625
5638		-21.484375
5639		-25.390625
5640		-21.484375
5641		-23.437500
5642		-21.484375
5643		-23.437500
5644		-19.531250
5645		-23.437500
5646		-19.531250
5647		-21.484375
5648		-19.531250
5649		-21.484375
5650		-19.531250
5651		-21.484375
5652		-17.578125
5653		-21.484375
5654		-17.578125
5655		-19.531250
5656		-17.578125
5657		-21.484375
5658		-15.625000
5659		-19.531250
5660		-17.578125
5661		-19.531250
5662		-15.625000
5663		-19.531250
5664		-15.625000
5665		-17.578125
5666		-15.625000
5667		-17.578125
5668		-15.625000
5669		-17.578125
5670		-15.625000
5671		-17.578125
5672		-13.671875
5673		-17.578125
5674		-11.718750
5675		-15.625000
5676		-13.671875
5677		-15.625000
5678		-13.671875
5679		-15.625000
5680		-11.718750
5681		-13.671875
5682		-11.718750
5683		-13.671875
5684		-11.718750
5685		-15.625000
5686		-11.718750
5687		-11.718750
5688		-9.765625
5689		-13.671875
5690		-7.812500
5691		-11.718750
5692		-9.765625
5693		-11.718750
5694		-7.812500
5695		-11.718750
5696		-7.812500
5697		-11.718750
5698		-7.812500
5699		-11.718750
5700		-7.812500
5701		-9.765625
5702		-5.859375
5703		-7.812500
5704		-5.859375
5705		-9.765625
5706		-5.859375
5707		-7.812500
5708		-5.859375
5709		-7.812500
5710		-3.906250
5711		-7.812500
5712		-3.906250
5713		-5.859375
5714		-3.906250
5715		-5.859375
5716		-1.953125
5717		-5.859375
5718		-1.953125
5719		-3.906250
5720		-1.953125
5721		-5.859375
5722		1.953125
5723		-5.859375
5724		1.953125
5725		-5.859375
5726		1.953125
5727		-5.859375
5728		1.953125
5729		-1.953125
5730		0.000000
5731		-1.953125
5732		1.953125
5733		-1.953125
5734		1.953125
5735		0.000000
5736		1.953125
5737		0.000000
5738		3.906250
5739		-1.953125
5740		5.859375
5741		-1.953125
5742		7.812500
5743		-1.953125
5744		7.812500
5745		1.953125
5746		5.859375
5747		1.953125
5748		5.859375
5749		1.953125
5750		5.859375
5751		3.906250
5752		5.859375
5753		3.906250
5754		7.812500
5755		1.953125
5756		9.765625
5757		1.953125
5758		11.718750
5759		1.953125
5760		13.671875
5761		3.906250
5762		11.718750
5763		5.859375
5764		9.765625
5765		5.859375
5766		9.765625
5767		7.812500
5768		9.765625
5769		7.812500
5770		11.718750
5771		7.812500
5772		11.718750
5773		5.859375
5774		15.625000
5775		5.859375
5776		15.625000
5777		5.859375
5778		15.625000
5779		9.765625
5780		13.671875
5781		9.765625
5782		13.671875
5783		11.718750
5784		13.671875
5785		11.718750
5786		15.625000
5787		11.718750
5788		15.625000
5789		9.765625
5790		19.531250
5791		9.765625
5792		19.531250
5793		9.765625
5794		19.531250
5795		13.671875
5796		17.578125
5797		13.671875
5798		17.578125
5799		15.625000
5800		17.578125
5801		15.625000
5802		19.531250
5803		15.625000
5804		19.531250
5805		13.671875
5806		21.484375
5807		13.671875
5808		23.437500
5809		13.671875
5810		23.437500
5811		13.671875
5812		23.437500
5813		17.578125
5814		19.531250
5815		17.578125
5816		21.484375
5817		17.578125
5818		21.484375
5819		19.531250
5820		21.484375
5821		19.531250
5822		21.484375
5823		15.625000
5824		27.343750
5825		15.625000
5826		25.390625
5827		17.578125
5828		25.390625
5829		19.531250
5830		23.437500
5831		21.484375
5832		23.437500
5833		21.484375
5834		25.390625
5835		21.484375
5836		25.390625
5837		21.484375
5838		25.390625
5839		19.531250
5840		27.343750
5841		19.531250
5842		29.296875
5843		19.531250
5844		29.296875
5845		21.484375
5846		29.296875
5847		23.437500
5848		25.390625
5849		23.437500
5850		27.343750
5851		23.437500
5852		25.390625
5853		23.437500
5854		27.343750
5855		23.437500
5856		27.343750
5857		21.484375
5858		31.250000
5859		21.484375
5860		31.250000
5861		21.484375
5862		29.296875
5863		25.390625
5864		27.343750
5865		25.390625
5866		29.296875
5867		25.390625
5868		27.343750
5869		25.390625
5870		29.296875
5871		25.390625
5872		29.296875
5873		23.437500
5874		33.203125
5875		23.437500
5876		31.250000
5877		21.484375
5878		33.203125
5879		25.390625
5880		29.296875
5881		27.343750
5882		29.296875
5883		27.343750
5884		29.296875
5885		25.390625
5886		29.296875
5887		27.343750
5888		29.296875
5889		23.437500
5890		31.250000
5891		23.437500
5892		33.203125
5893		23.437500
5894		33.203125
5895		23.437500
5896		33.203125
5897		27.343750
5898		29.296875
5899		27.343750
5900		31.250000
5901		27.343750
5902		29.296875
5903		27.343750
5904		31.250000
5905		27.343750
5906		29.296875
5907		27.343750
5908		29.296875
5909		25.390625
5910		31.250000
5911		25.390625
5912		33.203125
5913		25.390625
5914		31.250000
5915		27.343750
5916		29.296875
5917		27.343750
5918		29.296875
5919		25.390625
5920		29.296875
5921		27.343750
5922		29.296875
5923		25.390625
5924		31.250000
5925		25.390625
5926		29.296875
5927		23.437500
5928		31.250000
5929		25.390625
5930		29.296875
5931		27.343750
5932		29.296875
5933		25.390625
5934		29.296875
5935		25.390625
5936		29.296875
5937		25.390625
5938		29.296875
5939		25.390625
5940		29.296875
5941		25.390625
5942		27.343750
5943		23.437500
5944		31.250000
5945		23.437500
5946		31.250000
5947		23.437500
5948		29.296875
5949		25.390625
5950		27.343750
5951		25.390625
5952		27.343750
5953		23.437500
5954		27.343750
5955		25.390625
5956		27.343750
5957		23.437500
5958		29.296875
5959		25.390625
5960		27.343750
5961		23.437500
5962		27.343750
5963		23.437500
5964		27.343750
5965		23.437500
5966		25.390625
5967		23.437500
5968		27.343750
5969		23.437500
5970		25.390625
5971		23.437500
5972		25.390625
5973		23.437500
5974		27.343750
5975		23.437500
5976		25.390625
5977		21.484375
5978		25.390625
5979		21.484375
5980		25.390625
5981		21.484375
5982		23.437500
5983		21.484375
5984		25.390625
5985		21.484375
5986		23.437500
5987		19.531250
5988		25.390625
5989		21.484375
5990		23.437500
5991		19.531250
5992		23.437500
5993		19.531250
5994		23.437500
5995		19.531250
5996		21.484375
5997		19.531250
5998		21.484375
5999		19.531250
6000		21.484375
6001		17.578125
6002		21.484375
6003		17.578125
6004		21.484375
6005		17.578125
6006		19.531250
6007		17.578125
6008		21.484375
6009		15.625000
6010		19.531250
6011		17.578125
6012		19.531250
6013		15.625000
6014		19.531250
6015		15.625000
6016		19.531250
6017		15.625000
6018		19.531250
6019		15.625000
6020		17.578125
6021		13.671875
6022		17.578125
6023		13.671875
6024		17.578125
6025		13.671875
6026		17.578125
6027		13.671875
6028		17.578125
6029		13.671875
6030		15.625000
6031		11.718750
6032		15.625000
6033		11.718750
6034		15.625000
6035		11.718750
6036		13.671875
6037		9.765625
6038		15.625000
6039		9.765625
6040		13.671875
6041		9.765625
6042		13.671875
6043		9.765625
6044		13.671875
6045		9.765625
6046		11.718750
6047		7.812500
6048		11.718750
6049		7.812500
6050		11.718750
6051		7.812500
6052		11.718750
6053		7.812500
6054		11.718750
6055		7.812500
6056		9.765625
6057		5.859375
6058		9.765625
6059		5.859375
6060		9.765625
6061		5.859375
6062		9.765625
6063		5.859375
6064		7.812500
6065		3.906250
6066		7.812500
6067		3.906250
6068		7.812500
6069		3.906250
6070		5.859375
6071		3.906250
6072		5.859375
6073		3.906250
6074		5.859375
6075		0.000000
6076		5.859375
6077		0.000000
6078		5.859375
6079		1.953125
6080		3.906250
6081		0.000000
6082		3.906250
6083		0.000000
6084		3.906250
6085		0.000000
6086		1.953125
6087		0.000000
6088		3.906250
6089		0.000000
6090		1.953125
6091		-1.953125
6092		1.953125
6093		-1.953125
6094		1.953125
6095		-1.953125
6096		0.000000
6097		-3.906250
6098		0.000000
6099		-3.906250
6100		0.000000
6101		-3.906250
6102		-1.953125
6103		-3.906250
6104		-1.953125
6105		-5.859375
6106		-1.953125
6107		-5.859375
6108		-1.953125
6109		-7.812500
6110		-1.953125
6111		-7.812500
6112		-3.906250
6113		-5.859375
6114		-3.906250
6115		-7.812500
6116		-3.906250
6117		-7.812500
6118		-3.906250
6119		-7.812500
6120		-5.859375
6121		-9.765625
6122		-5.859375
6123		-9.765625
6124		-5.859375
6125		-11.718750
6126		-5.859375
6127		-11.718750
6128		-7.812500
6129		-11.718750
6130		-7.812500
6131		-11.718750
6132		-7.812500
6133		-13.671875
6134		-7.812500
6135		-11.718750
6136		-9.765625
6137		-13.671875
6138		-7.812500
6139		-13.671875
6140		-9.765625
6141		-15.625000
6142		-9.765625
6143		-15.625000
6144		-9.765625
6145		-15.625000
6146		-11.718750
6147		-15.625000
6148		-11.718750
6149		-17.578125
6150		-11.718750
6151		-15.625000
6152		-13.671875
6153		-15.625000
6154		-13.671875
6155		-17.578125
6156		-13.671875
6157		-17.578125
6158		-15.625000
6159		-19.531250
6160		-15.625000
6161		-19.531250
6162		-15.625000
6163		-19.531250
6164		-17.578125
6165		-19.531250
6166		-15.625000
6167		-21.484375
6168		-17.578125
6169		-21.484375
6170		-17.578125
6171		-21.484375
6172		-17.578125
6173		-21.484375
6174		-17.578125
6175		-23.437500
6176		-17.578125
6177		-21.484375
6178		-19.531250
6179		-23.437500
6180		-19.531250
6181		-23.437500
6182		-19.531250
6183		-23.437500
6184		-19.531250
6185		-23.437500
6186		-19.531250
6187		-23.437500
6188		-21.484375
6189		-23.437500
6190		-21.484375
6191		-25.390625
6192		-21.484375
6193		-25.390625
6194		-21.484375
6195		-25.390625
6196		-21.484375
6197		-25.390625
6198		-23.437500
6199		-27.343750
6200		-23.437500
6201		-27.343750
6202		-23.437500
6203		-27.343750
6204		-23.437500
6205		-27.343750
6206		-23.437500
6207		-27.343750
6208		-25.390625
6209		-27.343750
6210		-25.390625
6211		-27.343750
6212		-25.390625
6213		-27.343750
6214		-25.390625
6215		-29.296875
6216		-25.390625
6217		-29.296875
6218		-25.390625
6219		-29.296875
6220		-27.343750
6221		-29.296875
6222		-27.343750
6223		-29.296875
6224		-27.343750
6225		-29.296875
6226		-27.343750
6227		-29.296875
6228		-27.343750
6229		-31.250000
6230		-27.343750
6231		-31.250000
6232		-27.343750
6233		-31.250000
6234		-29.296875
6235		-31.250000
6236		-27.343750
6237		-31.250000
6238		-29.296875
6239		-33.203125
6240		-27.343750
6241		-31.250000
6242		-29.296875
6243		-31.250000
6244		-29.296875
6245		-33.203125
6246		-29.296875
6247		-33.203125
6248		-29.296875
6249		-33.203125
6250		-29.296875
6251		-33.203125
6252		-29.296875
6253		-33.203125
6254		-29.296875
6255		-33.203125
6256		-29.296875
6257		-33.203125
6258		-29.296875
6259		-33.203125
6260		-31.250000
6261		-33.203125
6262		-29.296875
6263		-33.203125
6264		-31.250000
6265		-33.203125
6266		-29.296875
6267		-33.203125
6268		-31.250000
6269		-33.203125
6270		-29.296875
6271		-33.203125
6272		-29.296875
6273		-33.203125
6274		-31.250000
6275		-33.203125
6276		-31.250000
6277		-33.203125
6278		-29.296875
6279		-33.203125
6280		-31.250000
6281		-33.203125
6282		-29.296875
6283		-33.203125
6284		-31.250000
6285		-33.203125
6286		-31.250000
6287		-33.203125
6288		-29.296875
6289		-33.203125
6290		-31.250000
6291		-33.203125
6292		-31.250000
6293		-33.203125
6294		-29.296875
6295		-33.203125
6296		-31.250000
6297		-33.203125
6298		-31.250000
6299		-33.203125
6300		-29.296875
6301		-33.203125
6302		-29.296875
6303		-33.203125
6304		-29.296875
6305		-33.203125
6306		-29.296875
6307		-31.250000
6308		-29.296875
6309		-33.203125
6310		-29.296875
6311		-33.203125
6312		-29.296875
6313		-31.250000
6314		-29.296875
6315		-31.250000
6316		-29.296875
6317		-31.250000
6318		-27.343750
6319		-31.250000
6320		-29.296875
6321		-33.203125
6322		-27.343750
6323		-31.250000
6324		-29.296875
6325		-31.250000
6326		-29.296875
6327		-31.250000
6328		-27.343750
6329		-31.250000
6330		-27.343750
6331		-31.250000
6332		-27.343750
6333		-31.250000
6334		-27.343750
6335		-29.296875
6336		-27.343750
6337		-29.296875
6338		-25.390625
6339		-29.296875
6340		-27.343750
6341		-29.296875
6342		-27.343750
6343		-29.296875
6344		-25.390625
6345		-29.296875
6346		-25.390625
6347		-29.296875
6348		-25.390625
6349		-27.343750
6350		-25.390625
6351		-27.343750
6352		-25.390625
6353		-27.343750
6354		-23.437500
6355		-27.343750
6356		-23.437500
6357		-27.343750
6358		-23.437500
6359		-27.343750
6360		-23.437500
6361		-27.343750
6362		-21.484375
6363		-27.343750
6364		-21.484375
6365		-27.343750
6366		-21.484375
6367		-25.390625
6368		-23.437500
6369		-25.390625
6370		-21.484375
6371		-25.390625
6372		-19.531250
6373		-23.437500
6374		-21.484375
6375		-23.437500
6376		-21.484375
6377		-25.390625
6378		-17.578125
6379		-23.437500
6380		-17.578125
6381		-23.437500
6382		-19.531250
6383		-21.484375
6384		-19.531250
6385		-21.484375
6386		-19.531250
6387		-21.484375
6388		-15.625000
6389		-21.484375
6390		-17.578125
6391		-19.531250
6392		-17.578125
6393		-21.484375
6394		-15.625000
6395		-21.484375
6396		-13.671875
6397		-19.531250
6398		-15.625000
6399		-19.531250
6400		-15.625000
6401		-17.578125
6402		-15.625000
6403		-17.578125
6404		-15.625000
6405		-17.578125
6406		-13.671875
6407		-15.625000
6408		-13.671875
6409		-15.625000
6410		-13.671875
6411		-17.578125
6412		-11.718750
6413		-15.625000
6414		-11.718750
6415		-15.625000
6416		-9.765625
6417		-13.671875
6418		-11.718750
6419		-13.671875
6420		-11.718750
6421		-15.625000
6422		-9.765625
6423		-11.718750
6424		-9.765625
6425		-11.718750
6426		-9.765625
6427		-11.718750
6428		-7.812500
6429		-11.718750
6430		-5.859375
6431		-11.718750
6432		-7.812500
6433		-9.765625
6434		-7.812500
6435		-9.765625
6436		-5.859375
6437		-9.765625
6438		-5.859375
6439		-7.812500
6440		-5.859375
6441		-7.812500
6442		-5.859375
6443		-7.812500
6444		-3.906250
6445		-7.812500
6446		-1.953125
6447		-7.812500
6448		-1.953125
6449		-5.859375
6450		-1.953125
6451		-5.859375
6452		-1.953125
6453		-5.859375
6454		-1.953125
6455		-5.859375
6456		0.000000
6457		-3.906250
6458		-1.953125
6459		-3.906250
6460		0.000000
6461		-3.906250
6462		1.953125
6463		-3.906250
6464		1.953125
6465		-1.953125
6466		1.953125
6467		-1.953125
6468		1.953125
6469		0.000000
6470		1.953125
6471		0.000000
6472		3.906250
6473		0.000000
6474		1.953125
6475		0.000000
6476		3.906250
6477		0.000000
6478		5.859375
6479		0.000000
6480		5.859375
6481		0.000000
6482		5.859375
6483		1.953125
6484		5.859375
6485		1.953125
6486		5.859375
6487		3.906250
6488		7.812500
6489		3.906250
6490		7.812500
6491		5.859375
6492		7.812500
6493		5.859375
6494		7.812500
6495		3.906250
6496		9.765625
6497		3.906250
6498		11.718750
6499		5.859375
6500		9.765625
6501		5.859375
6502		9.765625
6503		7.812500
6504		9.765625
6505		7.812500
6506		11.718750
6507		7.812500
6508		11.718750
6509		9.765625
6510		11.718750
6511		7.812500
6512		13.671875
6513		7.812500
6514		15.625000
6515		11.718750
6516		13.671875
6517		11.718750
6518		13.671875
6519		11.718750
6520		15.625000
6521		11.718750
6522		15.625000
6523		11.718750
6524		15.625000
6525		11.718750
6526		15.625000
6527		13.671875
6528		15.625000
6529		13.671875
6530		17.578125
6531		13.671875
6532		17.578125
6533		15.625000
6534		17.578125
6535		15.625000
6536		17.578125
6537		13.671875
6538		19.531250
6539		15.625000
6540		17.578125
6541		15.625000
6542		19.531250
6543		15.625000
6544		19.531250
6545		15.625000
6546		21.484375
6547		17.578125
6548		19.531250
6549		17.578125
6550		21.484375
6551		17.578125
6552		21.484375
6553		17.578125
6554		21.484375
6555		17.578125
6556		21.484375
6557		19.531250
6558		21.484375
6559		19.531250
6560		21.484375
6561		19.531250
6562		23.437500
6563		19.531250
6564		23.437500
6565		19.531250
6566		23.437500
6567		21.484375
6568		25.390625
6569		21.484375
6570		23.437500
6571		21.484375
6572		23.437500
6573		21.484375
6574		25.390625
6575		21.484375
6576		25.390625
6577		21.484375
6578		25.390625
6579		21.484375
6580		25.390625
6581		23.437500
6582		25.390625
6583		23.437500
6584		27.343750
6585		23.437500
6586		25.390625
6587		23.437500
6588		27.343750
6589		23.437500
6590		27.343750
6591		23.437500
6592		27.343750
6593		23.437500
6594		27.343750
6595		23.437500
6596		27.343750
6597		25.390625
6598		27.343750
6599		25.390625
6600		27.343750
6601		23.437500
6602		29.296875
6603		25.390625
6604		27.343750
6605		25.390625
6606		27.343750
6607		25.390625
6608		29.296875
6609		25.390625
6610		27.343750
6611		25.390625
6612		27.343750
6613		25.390625
6614		29.296875
6615		25.390625
6616		29.296875
6617		25.390625
6618		29.296875
6619		25.390625
6620		29.296875
6621		25.390625
6622		29.296875
6623		27.343750
6624		29.296875
6625		25.390625
6626		29.296875
6627		25.390625
6628		29.296875
6629		25.390625
6630		29.296875
6631		25.390625
6632		29.296875
6633		27.343750
6634		29.296875
6635		27.343750
6636		29.296875
6637		25.390625
6638		29.296875
6639		27.343750
6640		29.296875
6641		27.343750
6642		29.296875
6643		25.390625
6644		29.296875
6645		27.343750
6646		29.296875
6647		27.343750
6648		29.296875
6649		25.390625
6650		29.296875
6651		27.343750
6652		29.296875
6653		25.390625
6654		29.296875
6655		25.390625
6656		29.296875
6657		27.343750
6658		29.296875
6659		25.390625
6660		29.296875
6661		25.390625
6662		29.296875
6663		25.390625
6664		29.296875
6665		25.390625
6666		29.296875
6667		25.390625
6668		29.296875
6669		25.390625
6670		27.343750
6671		25.390625
6672		29.296875
6673		25.390625
6674		27.343750
6675		25.390625
6676		27.343750
6677		25.390625
6678		29.296875
6679		25.390625
6680		27.343750
6681		25.390625
6682		27.343750
6683		23.437500
6684		27.343750
6685		25.390625
6686		27.343750
6687		23.437500
6688		27.343750
6689		23.437500
6690		27.343750
6691		23.437500
6692		27.343750
6693		23.437500
6694		25.390625
6695		23.437500
6696		27.343750
6697		23.437500
6698		25.390625
6699		23.437500
6700		25.390625
6701		23.437500
6702		27.343750
6703		23.437500
6704		25.390625
6705		23.437500
6706		25.390625
6707		21.484375
6708		25.390625
6709		21.484375
6710		25.390625
6711		21.484375
6712		23.437500
6713		21.484375
6714		25.390625
6715		21.484375
6716		23.437500
6717		21.484375
6718		23.437500
6719		19.531250
6720		23.437500
6721		19.531250
6722		23.437500
6723		19.531250
6724		23.437500
6725		19.531250
6726		23.437500
6727		19.531250
6728		21.484375
6729		19.531250
6730		21.484375
6731		17.578125
6732		21.484375
6733		17.578125
6734		21.484375
6735		17.578125
6736		21.484375
6737		17.578125
6738		21.484375
6739		17.578125
6740		19.531250
6741		17.578125
6742		19.531250
6743		15.625000
6744		19.531250
6745		15.625000
6746		19.531250
6747		15.625000
6748		17.578125
6749		13.671875
6750		19.531250
6751		15.625000
6752		17.578125
6753		13.671875
6754		17.578125
6755		13.671875
6756		17.578125
6757		13.671875
6758		17.578125
6759		11.718750
6760		17.578125
6761		11.718750
6762		15.625000
6763		11.718750
6764		15.625000
6765		9.765625
6766		13.671875
6767		11.718750
6768		13.671875
6769		9.765625
6770		13.671875
6771		9.765625
6772		13.671875
6773		9.765625
6774		11.718750
6775		9.765625
6776		11.718750
6777		9.765625
6778		11.718750
6779		7.812500
6780		11.718750
6781		7.812500
6782		11.718750
6783		7.812500
6784		11.718750
6785		7.812500
6786		9.765625
6787		5.859375
6788		9.765625
6789		5.859375
6790		9.765625
6791		5.859375
6792		7.812500
6793		5.859375
6794		7.812500
6795		3.906250
6796		7.812500
6797		3.906250
6798		7.812500
6799		3.906250
6800		5.859375
6801		1.953125
6802		5.859375
6803		1.953125
6804		5.859375
6805		1.953125
6806		5.859375
6807		1.953125
6808		5.859375
6809		1.953125
6810		3.906250
6811		0.000000
6812		3.906250
6813		-1.953125
6814		3.906250
6815		-1.953125
6816		1.953125
6817		-1.953125
6818		1.953125
6819		-1.953125
6820		1.953125
6821		-1.953125
6822		0.000000
6823		-1.953125
6824		1.953125
6825		-3.906250
6826		0.000000
6827		-3.906250
6828		0.000000
6829		-3.906250
6830		0.000000
6831		-3.906250
6832		-1.953125
6833		-5.859375
6834		-1.953125
6835		-5.859375
6836		-1.953125
6837		-5.859375
6838		-1.953125
6839		-5.859375
6840		-1.953125
6841		-5.859375
6842		-3.906250
6843		-7.812500
6844		-3.906250
6845		-7.812500
6846		-3.906250
6847		-7.812500
6848		-5.859375
6849		-9.765625
6850		-5.859375
6851		-9.765625
6852		-5.859375
6853		-9.765625
6854		-7.812500
6855		-11.718750
6856		-7.812500
6857		-9.765625
6858		-7.812500
6859		-11.718750
6860		-7.812500
6861		-11.718750
6862		-7.812500
6863		-13.671875
6864		-9.765625
6865		-13.671875
6866		-9.765625
6867		-13.671875
6868		-9.765625
6869		-13.671875
6870		-11.718750
6871		-13.671875
6872		-11.718750
6873		-15.625000
6874		-9.765625
6875		-15.625000
6876		-13.671875
6877		-15.625000
6878		-11.718750
6879		-15.625000
6880		-13.671875
6881		-17.578125
6882		-13.671875
6883		-17.578125
6884		-13.671875
6885		-17.578125
6886		-15.625000
6887		-17.578125
6888		-15.625000
6889		-19.531250
6890		-15.625000
6891		-19.531250
6892		-15.625000
6893		-19.531250
6894		-17.578125
6895		-19.531250
6896		-15.625000
6897		-19.531250
6898		-17.578125
6899		-21.484375
6900		-17.578125
6901		-21.484375
6902		-17.578125
6903		-21.484375
6904		-17.578125
6905		-21.484375
6906		-19.531250
6907		-23.437500
6908		-19.531250
6909		-23.437500
6910		-19.531250
6911		-23.437500
6912		-19.531250
6913		-23.437500
6914		-21.484375
6915		-23.437500
6916		-21.484375
6917		-25.390625
6918		-21.484375
6919		-25.390625
6920		-21.484375
6921		-25.390625
6922		-21.484375
6923		-25.390625
6924		-23.437500
6925		-27.343750
6926		-23.437500
6927		-25.390625
6928		-23.437500
6929		-27.343750
6930		-23.437500
6931		-27.343750
6932		-23.437500
6933		-27.343750
6934		-25.390625
6935		-27.343750
6936		-25.390625
6937		-29.296875
6938		-23.437500
6939		-27.343750
6940		-25.390625
6941		-29.296875
6942		-25.390625
6943		-29.296875
6944		-25.390625
6945		-29.296875
6946		-27.343750
6947		-29.296875
6948		-25.390625
6949		-29.296875
6950		-27.343750
6951		-29.296875
6952		-27.343750
6953		-31.250000
6954		-27.343750
6955		-31.250000
6956		-27.343750
6957		-31.250000
6958		-27.343750
6959		-31.250000
6960		-27.343750
6961		-31.250000
6962		-29.296875
6963		-31.250000
6964		-29.296875
6965		-33.203125
6966		-27.343750
6967		-33.203125
6968		-29.296875
6969		-33.203125
6970		-29.296875
6971		-31.250000
6972		-29.296875
6973		-33.203125
6974		-29.296875
6975		-33.203125
6976		-29.296875
6977		-33.203125
6978		-29.296875
6979		-33.203125
6980		-31.250000
6981		-33.203125
6982		-29.296875
6983		-33.203125
6984		-31.250000
6985		-35.156250
6986		-31.250000
6987		-33.203125
6988		-31.250000
6989		-33.203125
6990		-31.250000
6991		-33.203125
6992		-29.296875
6993		-33.203125
6994		-31.250000
6995		-35.156250
6996		-31.250000
6997		-33.203125
6998		-31.250000
6999		-35.156250
7000		-31.250000
7001		-35.156250
7002		-31.250000
7003		-33.203125
7004		-31.250000
7005		-35.156250
7006		-31.250000
7007		-33.203125
7008		-31.250000
7009		-33.203125
7010		-31.250000
7011		-35.156250
7012		-31.250000
7013		-33.203125
7014		-31.250000
7015		-33.203125
7016		-31.250000
7017		-35.156250
7018		-29.296875
7019		-33.203125
7020		-31.250000
7021		-33.203125
7022		-31.250000
7023		-35.156250
7024		-31.250000
7025		-33.203125
7026		-31.250000
7027		-35.156250
7028		-31.250000
7029		-33.203125
7030		-31.250000
7031		-33.203125
7032		-31.250000
7033		-35.156250
7034		-29.296875
7035		-33.203125
7036		-31.250000
7037		-33.203125
7038		-31.250000
7039		-33.203125
7040		-29.296875
7041		-33.203125
7042		-31.250000
7043		-33.203125
7044		-29.296875
7045		-33.203125
7046		-29.296875
7047		-33.203125
7048		-29.296875
7049		-33.203125
7050		-29.296875
7051		-31.250000
7052		-29.296875
7053		-31.250000
7054		-29.296875
7055		-31.250000
7056		-29.296875
7057		-31.250000
7058		-29.296875
7059		-31.250000
7060		-27.343750
7061		-31.250000
7062		-29.296875
7063		-31.250000
7064		-27.343750
7065		-31.250000
7066		-27.343750
7067		-29.296875
7068		-27.343750
7069		-31.250000
7070		-27.343750
7071		-31.250000
7072		-27.343750
7073		-29.296875
7074		-27.343750
7075		-29.296875
7076		-27.343750
7077		-29.296875
7078		-27.343750
7079		-29.296875
7080		-25.390625
7081		-27.343750
7082		-25.390625
7083		-29.296875
7084		-25.390625
7085		-29.296875
7086		-25.390625
7087		-27.343750
7088		-25.390625
7089		-27.343750
7090		-23.437500
7091		-27.343750
7092		-23.437500
7093		-25.390625
7094		-23.437500
7095		-27.343750
7096		-23.437500
7097		-25.390625
7098		-23.437500
7099		-25.390625
7100		-23.437500
7101		-25.390625
7102		-21.484375
7103		-23.437500
7104		-21.484375
7105		-23.437500
7106		-21.484375
7107		-23.437500
7108		-19.531250
7109		-23.437500
7110		-21.484375
7111		-23.437500
7112		-19.531250
7113		-21.484375
7114		-19.531250
7115		-21.484375
7116		-19.531250
7117		-23.437500
7118		-17.578125
7119		-21.484375
7120		-19.531250
7121		-21.484375
7122		-17.578125
7123		-21.484375
7124		-15.625000
7125		-19.531250
7126		-17.578125
7127		-19.531250
7128		-15.625000
7129		-19.531250
7130		-15.625000
7131		-19.531250
7132		-15.625000
7133		-19.531250
7134		-13.671875
7135		-17.578125
7136		-15.625000
7137		-17.578125
7138		-13.671875
7139		-17.578125
7140		-13.671875
7141		-17.578125
7142		-11.718750
7143		-15.625000
7144		-13.671875
7145		-15.625000
7146		-11.718750
7147		-15.625000
7148		-11.718750
7149		-13.671875
7150		-11.718750
7151		-13.671875
7152		-11.718750
7153		-13.671875
7154		-9.765625
7155		-13.671875
7156		-9.765625
7157		-11.718750
7158		-9.765625
7159		-11.718750
7160		-9.765625
7161		-11.718750
7162		-7.812500
7163		-11.718750
7164		-7.812500
7165		-11.718750
7166		-7.812500
7167		-9.765625
7168		-7.812500
7169		-9.765625
7170		-5.859375
7171		-9.765625
7172		-5.859375
7173		-7.812500
7174		-5.859375
7175		-7.812500
7176		-5.859375
7177		-7.812500
7178		-3.906250
7179		-5.859375
7180		-3.906250
7181		-7.812500
7182		-1.953125
7183		-5.859375
7184		-1.953125
7185		-3.906250
7186		-1.953125
7187		-5.859375
7188		-1.953125
7189		-3.906250
7190		0.000000
7191		-3.906250
7192		0.000000
7193		-3.906250
7194		0.000000
7195		-1.953125
7196		0.000000
7197		-1.953125
7198		1.953125
7199		-1.953125
7200		1.953125
7201		-1.953125
7202		1.953125
7203		0.000000
7204		1.953125
7205		0.000000
7206		1.953125
7207		0.000000
7208		3.906250
7209		0.000000
7210		3.906250
7211		1.953125
7212		3.906250
7213		1.953125
7214		5.859375
7215		1.953125
7216		5.859375
7217		3.906250
7218		5.859375
7219		1.953125
7220		5.859375
7221		3.906250
7222		5.859375
7223		3.906250
7224		7.812500
7225		3.906250
7226		7.812500
7227		5.859375
7228		7.812500
7229		5.859375
7230		9.765625
7231		5.859375
7232		9.765625
7233		5.859375
7234		9.765625
7235		5.859375
7236		9.765625
7237		7.812500
7238		9.765625
7239		7.812500
7240		11.718750
7241		7.812500
7242		11.718750
7243		9.765625
7244		11.718750
7245		9.765625
7246		13.671875
7247		9.765625
7248		13.671875
7249		9.765625
7250		13.671875
7251		9.765625
7252		15.625000
7253		11.718750
7254		13.671875
7255		11.718750
7256		13.671875
7257		11.718750
7258		15.625000
7259		13.671875
7260		15.625000
7261		11.718750
7262		15.625000
7263		13.671875
7264		17.578125
7265		13.671875
7266		17.578125
7267		13.671875
7268		17.578125
7269		15.625000
7270		17.578125
7271		15.625000
7272		17.578125
7273		15.625000
7274		19.531250
7275		15.625000
7276		19.531250
7277		15.625000
7278		19.531250
7279		17.578125
7280		19.531250
7281		15.625000
7282		21.484375
7283		17.578125
7284		19.531250
7285		17.578125
7286		21.484375
7287		17.578125
7288		21.484375
7289		17.578125
7290		21.484375
7291		19.531250
7292		21.484375
7293		19.531250
7294		21.484375
7295		17.578125
7296		23.437500
7297		19.531250
7298		21.484375
7299		19.531250
7300		23.437500
7301		19.531250
7302		23.437500
7303		21.484375
7304		23.437500
7305		21.484375
7306		23.437500
7307		19.531250
7308		25.390625
7309		21.484375
7310		25.390625
7311		21.484375
7312		25.390625
7313		21.484375
7314		25.390625
7315		23.437500
7316		25.390625
7317		23.437500
7318		25.390625
7319		23.437500
7320		27.343750
7321		23.437500
7322		25.390625
7323		23.437500
7324		25.390625
7325		23.437500
7326		27.343750
7327		23.437500
7328		27.343750
7329		23.437500
7330		27.343750
7331		23.437500
7332		27.343750
7333		25.390625
7334		27.343750
7335		23.437500
7336		27.343750
7337		25.390625
7338		27.343750
7339		23.437500
7340		29.296875
7341		25.390625
7342		27.343750
7343		23.437500
7344		29.296875
7345		25.390625
7346		27.343750
7347		25.390625
7348		29.296875
7349		25.390625
7350		27.343750
7351		25.390625
7352		29.296875
7353		25.390625
7354		29.296875
7355		25.390625
7356		29.296875
7357		25.390625
7358		29.296875
7359		25.390625
7360		29.296875
7361		25.390625
7362		29.296875
7363		25.390625
7364		29.296875
7365		25.390625
7366		29.296875
7367		25.390625
7368		29.296875
7369		25.390625
7370		29.296875
7371		27.343750
7372		29.296875
7373		23.437500
7374		31.250000
7375		25.390625
7376		29.296875
7377		25.390625
7378		31.250000
7379		25.390625
7380		29.296875
7381		25.390625
7382		29.296875
7383		27.343750
7384		29.296875
7385		27.343750
7386		29.296875
7387		25.390625
7388		29.296875
7389		23.437500
7390		31.250000
7391		25.390625
7392		29.296875
7393		25.390625
7394		31.250000
7395		25.390625
7396		29.296875
7397		23.437500
7398		31.250000
7399		25.390625
7400		29.296875
7401		25.390625
7402		29.296875
7403		23.437500
7404		29.296875
7405		25.390625
7406		27.343750
7407		25.390625
7408		31.250000
7409		23.437500
7410		29.296875
7411		23.437500
7412		29.296875
7413		25.390625
7414		27.343750
7415		23.437500
7416		31.250000
7417		25.390625
7418		29.296875
7419		23.437500
7420		27.343750
7421		23.437500
7422		29.296875
7423		23.437500
7424		27.343750
7425		23.437500
7426		27.343750
7427		21.484375
7428		27.343750
7429		23.437500
7430		27.343750
7431		21.484375
7432		27.343750
7433		23.437500
7434		25.390625
7435		23.437500
7436		25.390625
7437		21.484375
7438		25.390625
7439		21.484375
7440		27.343750
7441		19.531250
7442		27.343750
7443		21.484375
7444		25.390625
7445		19.531250
7446		25.390625
7447		21.484375
7448		23.437500
7449		19.531250
7450		27.343750
7451		21.484375
7452		25.390625
7453		19.531250
7454		23.437500
7455		19.531250
7456		25.390625
7457		17.578125
7458		25.390625
7459		19.531250
7460		23.437500
7461		15.625000
7462		23.437500
7463		17.578125
7464		25.390625
7465		15.625000
7466		25.390625
7467		17.578125
7468		21.484375
7469		17.578125
7470		21.484375
7471		17.578125
7472		23.437500
7473		15.625000
7474		21.484375
7475		15.625000
7476		19.531250
7477		15.625000
7478		19.531250
7479		13.671875
7480		21.484375
7481		13.671875
7482		21.484375
7483		15.625000
7484		19.531250
7485		15.625000
7486		17.578125
7487		13.671875
7488		17.578125
7489		9.765625
7490		19.531250
7491		13.671875
7492		17.578125
7493		11.718750
7494		15.625000
7495		9.765625
7496		19.531250
7497		11.718750
7498		17.578125
7499		7.812500
7500		19.531250
7501		11.718750
7502		13.671875
7503		9.765625
7504		15.625000
7505		7.812500
7506		15.625000
7507		7.812500
7508		13.671875
7509		7.812500
7510		13.671875
7511		7.812500
7512		13.671875
7513		5.859375
7514		15.625000
7515		5.859375
7516		15.625000
7517		7.812500
7518		11.718750
7519		7.812500
7520		9.765625
7521		3.906250
7522		11.718750
7523		3.906250
7524		11.718750
7525		3.906250
7526		9.765625
7527		5.859375
7528		9.765625
7529		1.953125
7530		11.718750
7531		3.906250
7532		7.812500
7533		1.953125
7534		9.765625
7535		3.906250
7536		5.859375
7537		1.953125
7538		5.859375
7539		0.000000
7540		7.812500
7541		1.953125
7542		5.859375
7543		1.953125
7544		3.906250
7545		0.000000
7546		5.859375
7547		-1.953125
7548		5.859375
7549		-1.953125
7550		5.859375
7551		0.000000
7552		1.953125
7553		-1.953125
7554		1.953125
7555		-1.953125
7556		1.953125
7557		-3.906250
7558		3.906250
7559		-1.953125
7560		1.953125
7561		-3.906250
7562		0.000000
7563		-5.859375
7564		1.953125
7565		-5.859375
7566		0.000000
7567		-3.906250
7568		-1.953125
7569		-5.859375
7570		-1.953125
7571		-5.859375
7572		-1.953125
7573		-7.812500
7574		0.000000
7575		-7.812500
7576		-1.953125
7577		-7.812500
7578		-3.906250
7579		-11.718750
7580		-1.953125
7581		-11.718750
7582		-3.906250
7583		-11.718750
7584		-3.906250
7585		-9.765625
7586		-5.859375
7587		-11.718750
7588		-5.859375
7589		-13.671875
7590		-3.906250
7591		-13.671875
7592		-5.859375
7593		-11.718750
7594		-7.812500
7595		-13.671875
7596		-7.812500
7597		-15.625000
7598		-5.859375
7599		-15.625000
7600		-7.812500
7601		-13.671875
7602		-9.765625
7603		-13.671875
7604		-11.718750
7605		-15.625000
7606		-9.765625
7607		-17.578125
7608		-7.812500
7609		-15.625000
7610		-9.765625
7611		-15.625000
7612		-11.718750
7613		-19.531250
7614		-9.765625
7615		-17.578125
7616		-13.671875
7617		-19.531250
7618		-11.718750
7619		-17.578125
7620		-15.625000
7621		-19.531250
7622		-15.625000
7623		-21.484375
7624		-13.671875
7625		-19.531250
7626		-15.625000
7627		-19.531250
7628		-17.578125
7629		-21.484375
7630		-15.625000
7631		-23.437500
7632		-13.671875
7633		-21.484375
7634		-15.625000
7635		-21.484375
7636		-17.578125
7637		-21.484375
7638		-19.531250
7639		-23.437500
7640		-17.578125
7641		-25.390625
7642		-15.625000
7643		-23.437500
7644		-19.531250
7645		-23.437500
7646		-19.531250
7647		-25.390625
7648		-19.531250
7649		-27.343750
7650		-19.531250
7651		-25.390625
7652		-21.484375
7653		-25.390625
7654		-21.484375
7655		-27.343750
7656		-23.437500
7657		-29.296875
7658		-21.484375
7659		-27.343750
7660		-21.484375
7661		-27.343750
7662		-23.437500
7663		-29.296875
7664		-23.437500
7665		-27.343750
7666		-25.390625
7667		-27.343750
7668		-23.437500
7669		-27.343750
7670		-25.390625
7671		-29.296875
7672		-25.390625
7673		-29.296875
7674		-25.390625
7675		-29.296875
7676		-23.437500
7677		-29.296875
7678		-25.390625
7679		-31.250000
7680		-25.390625
7681		-31.250000
7682		-27.343750
7683		-31.250000
7684		-27.343750
7685		-31.250000
7686		-27.343750
7687		-31.250000
7688		-27.343750
7689		-31.250000
7690		-27.343750
7691		-31.250000
7692		-29.296875
7693		-31.250000
7694		-29.296875
7695		-31.250000
7696		-29.296875
7697		-33.203125
7698		-29.296875
7699		-31.250000
7700		-29.296875
7701		-33.203125
7702		-29.296875
7703		-33.203125
7704		-29.296875
7705		-33.203125
7706		-29.296875
7707		-33.203125
7708		-29.296875
7709		-33.203125
7710		-29.296875
7711		-33.203125
7712		-29.296875
7713		-33.203125
7714		-29.296875
7715		-33.203125
7716		-31.250000
7717		-35.156250
7718		-29.296875
7719		-35.156250
7720		-29.296875
7721		-33.203125
7722		-31.250000
7723		-35.156250
7724		-29.296875
7725		-35.156250
7726		-29.296875
7727		-35.156250
7728		-29.296875
7729		-35.156250
7730		-29.296875
7731		-35.156250
7732		-29.296875
7733		-35.156250
7734		-29.296875
7735		-35.156250
7736		-31.250000
7737		-33.203125
7738		-31.250000
7739		-35.156250
7740		-29.296875
7741		-35.156250
7742		-29.296875
7743		-35.156250
7744		-31.250000
7745		-35.156250
7746		-29.296875
7747		-35.156250
7748		-29.296875
7749		-35.156250
7750		-31.250000
7751		-35.156250
7752		-29.296875
7753		-35.156250
7754		-31.250000
7755		-35.156250
7756		-31.250000
7757		-35.156250
7758		-29.296875
7759		-35.156250
7760		-29.296875
7761		-35.156250
7762		-29.296875
7763		-35.156250
7764		-29.296875
7765		-35.156250
7766		-29.296875
7767		-35.156250
7768		-29.296875
7769		-33.203125
7770		-29.296875
7771		-33.203125
7772		-29.296875
7773		-35.156250
7774		-29.296875
7775		-33.203125
7776		-27.343750
7777		-33.203125
7778		-29.296875
7779		-33.203125
7780		-27.343750
7781		-33.203125
7782		-29.296875
7783		-33.203125
7784		-27.343750
7785		-33.203125
7786		-27.343750
7787		-31.250000
7788		-29.296875
7789		-31.250000
7790		-27.343750
7791		-31.250000
7792		-27.343750
7793		-31.250000
7794		-27.343750
7795		-33.203125
7796		-27.343750
7797		-31.250000
7798		-27.343750
7799		-31.250000
7800		-27.343750
7801		-31.250000
7802		-25.390625
7803		-29.296875
7804		-27.343750
7805		-29.296875
7806		-27.343750
7807		-29.296875
7808		-25.390625
7809		-29.296875
7810		-25.390625
7811		-29.296875
7812		-25.390625
7813		-31.250000
7814		-23.437500
7815		-29.296875
7816		-23.437500
7817		-27.343750
7818		-23.437500
7819		-27.343750
7820		-23.437500
7821		-27.343750
7822		-23.437500
7823		-27.343750
7824		-23.437500
7825		-27.343750
7826		-23.437500
7827		-27.343750
7828		-21.484375
7829		-27.343750
7830		-21.484375
7831		-25.390625
7832		-21.484375
7833		-25.390625
7834		-21.484375
7835		-25.390625
7836		-21.484375
7837		-23.437500
7838		-19.531250
7839		-23.437500
7840		-21.484375
7841		-23.437500
7842		-19.531250
7843		-23.437500
7844		-19.531250
7845		-23.437500
7846		-17.578125
7847		-21.484375
7848		-19.531250
7849		-23.437500
7850		-17.578125
7851		-21.484375
7852		-17.578125
7853		-21.484375
7854		-17.578125
7855		-19.531250
7856		-17.578125
7857		-21.484375
7858		-15.625000
7859		-19.531250
7860		-15.625000
7861		-19.531250
7862		-15.625000
7863		-21.484375
7864		-13.671875
7865		-17.578125
7866		-15.625000
7867		-17.578125
7868		-15.625000
7869		-17.578125
7870		-13.671875
7871		-17.578125
7872		-13.671875
7873		-15.625000
7874		-13.671875
7875		-15.625000
7876		-11.718750
7877		-15.625000
7878		-11.718750
7879		-15.625000
7880		-9.765625
7881		-13.671875
7882		-11.718750
7883		-13.671875
7884		-9.765625
7885		-13.671875
7886		-9.765625
7887		-11.718750
7888		-9.765625
7889		-13.671875
7890		-7.812500
7891		-13.671875
7892		-7.812500
7893		-11.718750
7894		-7.812500
7895		-11.718750
7896		-7.812500
7897		-13.671875
7898		-5.859375
7899		-9.765625
7900		-5.859375
7901		-9.765625
7902		-5.859375
7903		-9.765625
7904		-5.859375
7905		-7.812500
7906		-5.859375
7907		-9.765625
7908		-3.906250
7909		-7.812500
7910		-3.906250
7911		-5.859375
7912		-3.906250
7913		-7.812500
7914		-1.953125
7915		-5.859375
7916		-1.953125
7917		-5.859375
7918		-1.953125
7919		-3.906250
7920		-1.953125
7921		-3.906250
7922		-1.953125
7923		-3.906250
7924		0.000000
7925		-3.906250
7926		0.000000
7927		-1.953125
7928		0.000000
7929		-3.906250
7930		1.953125
7931		-1.953125
7932		1.953125
7933		-1.953125
7934		1.953125
7935		0.000000
7936		3.906250
7937		0.000000
7938		3.906250
7939		0.000000
7940		3.906250
7941		0.000000
7942		3.906250
7943		0.000000
7944		3.906250
7945		1.953125
7946		5.859375
7947		1.953125
7948		5.859375
7949		1.953125
7950		5.859375
7951		3.906250
7952		7.812500
7953		3.906250
7954		7.812500
7955		3.906250
7956		7.812500
7957		5.859375
7958		7.812500
7959		3.906250
7960		9.765625
7961		5.859375
7962		9.765625
7963		5.859375
7964		9.765625
7965		5.859375
7966		11.718750
7967		7.812500
7968		11.718750
7969		7.812500
7970		11.718750
7971		7.812500
7972		11.718750
7973		9.765625
7974		11.718750
7975		7.812500
7976		11.718750
7977		9.765625
7978		13.671875
7979		9.765625
7980		13.671875
7981		11.718750
7982		13.671875
7983		9.765625
7984		13.671875
7985		11.718750
7986		15.625000
7987		11.718750
7988		15.625000
7989		11.718750
7990		15.625000
7991		11.718750
7992		15.625000
7993		13.671875
7994		15.625000
7995		13.671875
7996		17.578125
7997		13.671875
7998		17.578125
7999		13.671875
8000		17.578125
8001		13.671875
8002		19.531250
8003		15.625000
8004		19.531250
8005		15.625000
8006		19.531250
8007		15.625000
8008		19.531250
8009		17.578125
8010		19.531250
8011		17.578125
8012		19.531250
8013		17.578125
8014		21.484375
8015		17.578125
8016		19.531250
8017		17.578125
8018		21.484375
8019		17.578125
8020		21.484375
8021		19.531250
8022		21.484375
8023		19.531250
8024		21.484375
8025		19.531250
8026		23.437500
8027		19.531250
8028		23.437500
8029		19.531250
8030		23.437500
8031		19.531250
8032		23.437500
8033		19.531250
8034		23.437500
8035		19.531250
8036		23.437500
8037		21.484375
8038		25.390625
8039		21.484375
8040		25.390625
8041		21.484375
8042		25.390625
8043		21.484375
8044		25.390625
8045		21.484375
8046		25.390625
8047		21.484375
8048		25.390625
8049		21.484375
8050		25.390625
8051		21.484375
8052		27.343750
8053		23.437500
8054		25.390625
8055		23.437500
8056		25.390625
8057		23.437500
8058		27.343750
8059		23.437500
8060		27.343750
8061		23.437500
8062		27.343750
8063		23.437500
8064		27.343750
8065		23.437500
8066		27.343750
8067		23.437500
8068		27.343750
8069		25.390625
8070		27.343750
8071		25.390625
8072		29.296875
8073		23.437500
8074		29.296875
8075		25.390625
8076		29.296875
8077		25.390625
8078		29.296875
8079		25.390625
8080		29.296875
8081		25.390625
8082		29.296875
8083		25.390625
8084		29.296875
8085		25.390625
8086		29.296875
8087		25.390625
8088		29.296875
8089		25.390625
8090		29.296875
8091		25.390625
8092		29.296875
8093		25.390625
8094		29.296875
8095		25.390625
8096		29.296875
8097		25.390625
8098		29.296875
8099		25.390625
8100		29.296875
8101		25.390625
8102		29.296875
8103		25.390625
8104		29.296875
8105		25.390625
8106		29.296875
8107		25.390625
8108		29.296875
8109		25.390625
8110		29.296875
8111		25.390625
8112		29.296875
8113		25.390625
8114		31.250000
8115		25.390625
8116		29.296875
8117		25.390625
8118		29.296875
8119		25.390625
8120		29.296875
8121		25.390625
8122		29.296875
8123		25.390625
8124		29.296875
8125		25.390625
8126		29.296875
8127		25.390625
8128		29.296875
8129		25.390625
8130		29.296875
8131		25.390625
8132		29.296875
8133		25.390625
8134		29.296875
8135		25.390625
8136		29.296875
8137		25.390625
8138		29.296875
8139		25.390625
8140		29.296875
8141		25.390625
8142		27.343750
8143		25.390625
8144		29.296875
8145		25.390625
8146		27.343750
8147		23.437500
8148		27.343750
8149		23.437500
8150		29.296875
8151		23.437500
8152		27.343750
8153		23.437500
8154		27.343750
8155		23.437500
8156		27.343750
8157		23.437500
8158		27.343750
8159		23.437500
8160		27.343750
8161		23.437500
8162		27.343750
8163		23.437500
8164		25.390625
8165		23.437500
8166		25.390625
8167		23.437500
8168		27.343750
8169		21.484375
8170		25.390625
8171		21.484375
8172		27.343750
8173		23.437500
8174		25.390625
8175		21.484375
8176		25.390625
8177		21.484375
8178		25.390625
8179		21.484375
8180		25.390625
8181		21.484375
8182		25.390625
8183		21.484375
8184		25.390625
8185		19.531250
8186		23.437500
8187		19.531250
8188		23.437500
8189		19.531250
8190		23.437500
8191		19.531250
8192		23.437500
8193		19.531250
8194		23.437500
8195		19.531250
8196		23.437500
8197		19.531250
8198		21.484375
8199		17.578125
8200		21.484375
8201		17.578125
8202		21.484375
8203		17.578125
8204		21.484375
8205		17.578125
8206		21.484375
8207		17.578125
8208		19.531250
8209		15.625000
8210		19.531250
8211		15.625000
8212		19.531250
8213		15.625000
8214		19.531250
8215		15.625000
8216		19.531250
8217		15.625000
8218		19.531250
8219		13.671875
8220		19.531250
8221		13.671875
8222		17.578125
8223		13.671875
8224		17.578125
8225		13.671875
8226		17.578125
8227		13.671875
8228		17.578125
8229		11.718750
8230		15.625000
8231		11.718750
8232		15.625000
8233		11.718750
8234		15.625000
8235		11.718750
8236		17.578125
8237		11.718750
8238		13.671875
8239		9.765625
8240		13.671875
8241		9.765625
8242		13.671875
8243		7.812500
8244		13.671875
8245		7.812500
8246		11.718750
8247		7.812500
8248		11.718750
8249		7.812500
8250		11.718750
8251		7.812500
8252		11.718750
8253		7.812500
8254		9.765625
8255		7.812500
8256		9.765625
8257		5.859375
8258		9.765625
8259		5.859375
8260		9.765625
8261		5.859375
8262		9.765625
8263		3.906250
8264		7.812500
8265		3.906250
8266		7.812500
8267		3.906250
8268		7.812500
8269		3.906250
8270		5.859375
8271		3.906250
8272		5.859375
8273		1.953125
8274		5.859375
8275		1.953125
8276		5.859375
8277		1.953125
8278		5.859375
8279		1.953125
8280		5.859375
8281		0.000000
8282		3.906250
8283		0.000000
8284		3.906250
8285		0.000000
8286		1.953125
8287		0.000000
8288		1.953125
8289		-1.953125
8290		1.953125
8291		-1.953125
8292		1.953125
8293		-1.953125
8294		1.953125
8295		-3.906250
8296		0.000000
8297		-3.906250
8298		0.000000
8299		-3.906250
8300		0.000000
8301		-3.906250
8302		0.000000
8303		-5.859375
8304		0.000000
8305		-5.859375
8306		-1.953125
8307		-5.859375
8308		-3.906250
8309		-5.859375
8310		-1.953125
8311		-7.812500
8312		-3.906250
8313		-7.812500
8314		-3.906250
8315		-7.812500
8316		-5.859375
8317		-9.765625
8318		-5.859375
8319		-9.765625
8320		-5.859375
8321		-9.765625
8322		-5.859375
8323		-11.718750
8324		-5.859375
8325		-9.765625
8326		-7.812500
8327		-11.718750
8328		-7.812500
8329		-13.671875
8330		-7.812500
8331		-11.718750
8332		-7.812500
8333		-11.718750
8334		-9.765625
8335		-13.671875
8336		-9.765625
8337		-13.671875
8338		-9.765625
8339		-15.625000
8340		-11.718750
8341		-15.625000
8342		-11.718750
8343		-15.625000
8344		-11.718750
8345		-15.625000
8346		-11.718750
8347		-17.578125
8348		-11.718750
8349		-17.578125
8350		-13.671875
8351		-17.578125
8352		-13.671875
8353		-17.578125
8354		-13.671875
8355		-19.531250
8356		-13.671875
8357		-19.531250
8358		-15.625000
8359		-19.531250
8360		-15.625000
8361		-19.531250
8362		-15.625000
8363		-19.531250
8364		-15.625000
8365		-19.531250
8366		-17.578125
8367		-21.484375
8368		-17.578125
8369		-21.484375
8370		-17.578125
8371		-21.484375
8372		-19.531250
8373		-23.437500
8374		-17.578125
8375		-23.437500
8376		-19.531250
8377		-23.437500
8378		-19.531250
8379		-23.437500
8380		-19.531250
8381		-23.437500
8382		-19.531250
8383		-23.437500
8384		-21.484375
8385		-25.390625
8386		-19.531250
8387		-25.390625
8388		-21.484375
8389		-25.390625
8390		-21.484375
8391		-25.390625
8392		-23.437500
8393		-25.390625
8394		-23.437500
8395		-27.343750
8396		-23.437500
8397		-27.343750
8398		-23.437500
8399		-27.343750
8400		-23.437500
8401		-29.296875
8402		-23.437500
8403		-27.343750
8404		-23.437500
8405		-27.343750
8406		-23.437500
8407		-29.296875
8408		-25.390625
8409		-29.296875
8410		-25.390625
8411		-29.296875
8412		-25.390625
8413		-29.296875
8414		-25.390625
8415		-29.296875
8416		-27.343750
8417		-31.250000
8418		-27.343750
8419		-31.250000
8420		-27.343750
8421		-31.250000
8422		-27.343750
8423		-31.250000
8424		-27.343750
8425		-31.250000
8426		-29.296875
8427		-31.250000
8428		-27.343750
8429		-33.203125
8430		-27.343750
8431		-31.250000
8432		-27.343750
8433		-31.250000
8434		-29.296875
8435		-33.203125
8436		-27.343750
8437		-33.203125
8438		-29.296875
8439		-33.203125
8440		-29.296875
8441		-33.203125
8442		-29.296875
8443		-33.203125
8444		-29.296875
8445		-33.203125
8446		-29.296875
8447		-33.203125
8448		-29.296875
8449		-35.156250
8450		-29.296875
8451		-33.203125
8452		-29.296875
8453		-33.203125
8454		-29.296875
8455		-33.203125
8456		-31.250000
8457		-33.203125
8458		-29.296875
8459		-33.203125
8460		-31.250000
8461		-35.156250
8462		-31.250000
8463		-33.203125
8464		-31.250000
8465		-35.156250
8466		-31.250000
8467		-33.203125
8468		-31.250000
8469		-33.203125
8470		-31.250000
8471		-35.156250
8472		-31.250000
8473		-35.156250
8474		-31.250000
8475		-33.203125
8476		-29.296875
8477		-35.156250
8478		-31.250000
8479		-35.156250
8480		-31.250000
8481		-35.156250
8482		-31.250000
8483		-35.156250
8484		-31.250000
8485		-33.203125
8486		-31.250000
8487		-35.156250
8488		-31.250000
8489		-35.156250
8490		-31.250000
8491		-35.156250
8492		-31.250000
8493		-33.203125
8494		-31.250000
8495		-33.203125
8496		-31.250000
8497		-35.156250
8498		-29.296875
8499		-33.203125
8500		-29.296875
8501		-33.203125
8502		-29.296875
8503		-33.203125
8504		-29.296875
8505		-33.203125
8506		-29.296875
8507		-33.203125
8508		-29.296875
8509		-33.203125
8510		-29.296875
8511		-33.203125
8512		-29.296875
8513		-33.203125
8514		-29.296875
8515		-33.203125
8516		-29.296875
8517		-31.250000
8518		-29.296875
8519		-33.203125
8520		-27.343750
8521		-31.250000
8522		-29.296875
8523		-31.250000
8524		-29.296875
8525		-31.250000
8526		-27.343750
8527		-31.250000
8528		-27.343750
8529		-31.250000
8530		-27.343750
8531		-31.250000
8532		-27.343750
8533		-29.296875
8534		-27.343750
8535		-29.296875
8536		-27.343750
8537		-31.250000
8538		-25.390625
8539		-29.296875
8540		-25.390625
8541		-29.296875
8542		-25.390625
8543		-29.296875
8544		-25.390625
8545		-29.296875
8546		-25.390625
8547		-29.296875
8548		-25.390625
8549		-27.343750
8550		-25.390625
8551		-27.343750
8552		-23.437500
8553		-27.343750
8554		-23.437500
8555		-27.343750
8556		-23.437500
8557		-27.343750
8558		-23.437500
8559		-27.343750
8560		-21.484375
8561		-25.390625
8562		-23.437500
8563		-25.390625
8564		-21.484375
8565		-25.390625
8566		-21.484375
8567		-25.390625
8568		-21.484375
8569		-25.390625
8570		-21.484375
8571		-23.437500
8572		-21.484375
8573		-23.437500
8574		-21.484375
8575		-23.437500
8576		-19.531250
8577		-23.437500
8578		-19.531250
8579		-21.484375
8580		-19.531250
8581		-21.484375
8582		-17.578125
8583		-21.484375
8584		-17.578125
8585		-21.484375
8586		-17.578125
8587		-21.484375
8588		-17.578125
8589		-19.531250
8590		-17.578125
8591		-19.531250
8592		-15.625000
8593		-19.531250
8594		-15.625000
8595		-19.531250
8596		-15.625000
8597		-19.531250
8598		-15.625000
8599		-17.578125
8600		-13.671875
8601		-17.578125
8602		-13.671875
8603		-17.578125
8604		-13.671875
8605		-17.578125
8606		-13.671875
8607		-15.625000
8608		-13.671875
8609		-15.625000
8610		-11.718750
8611		-15.625000
8612		-11.718750
8613		-15.625000
8614		-11.718750
8615		-13.671875
8616		-11.718750
8617		-13.671875
8618		-9.765625
8619		-13.671875
8620		-9.765625
8621		-11.718750
8622		-9.765625
8623		-11.718750
8624		-7.812500
8625		-11.718750
8626		-7.812500
8627		-11.718750
8628		-7.812500
8629		-11.718750
8630		-5.859375
8631		-9.765625
8632		-7.812500
8633		-9.765625
8634		-5.859375
8635		-9.765625
8636		-5.859375
8637		-9.765625
8638		-3.906250
8639		-7.812500
8640		-3.906250
8641		-7.812500
8642		-3.906250
8643		-5.859375
8644		-3.906250
8645		-5.859375
8646		-3.906250
8647		-5.859375
8648		-1.953125
8649		-5.859375
8650		-1.953125
8651		-5.859375
8652		0.000000
8653		-3.906250
8654		-1.953125
8655		-3.906250
8656		0.000000
8657		-3.906250
8658		0.000000
8659		-1.953125
8660		0.000000
8661		-1.953125
8662		1.953125
8663		-1.953125
8664		1.953125
8665		-1.953125
8666		1.953125
8667		-1.953125
8668		1.953125
8669		-1.953125
8670		3.906250
8671		0.000000
8672		3.906250
8673		1.953125
8674		3.906250
8675		0.000000
8676		5.859375
8677		1.953125
8678		3.906250
8679		3.906250
8680		5.859375
8681		1.953125
8682		7.812500
8683		3.906250
8684		5.859375
8685		3.906250
8686		7.812500
8687		3.906250
8688		7.812500
8689		3.906250
8690		7.812500
8691		5.859375
8692		9.765625
8693		5.859375
8694		9.765625
8695		5.859375
8696		9.765625
8697		5.859375
8698		9.765625
8699		5.859375
8700		9.765625
8701		7.812500
8702		11.718750
8703		7.812500
8704		11.718750
8705		9.765625
8706		11.718750
8707		7.812500
8708		13.671875
8709		9.765625
8710		13.671875
8711		9.765625
8712		13.671875
8713		11.718750
8714		13.671875
8715		9.765625
8716		15.625000
8717		11.718750
8718		13.671875
8719		11.718750
8720		15.625000
8721		11.718750
8722		15.625000
8723		13.671875
8724		15.625000
8725		11.718750
8726		17.578125
8727		13.671875
8728		17.578125
8729		13.671875
8730		17.578125
8731		13.671875
8732		17.578125
8733		13.671875
8734		17.578125
8735		15.625000
8736		19.531250
8737		15.625000
8738		19.531250
8739		15.625000
8740		19.531250
8741		15.625000
8742		19.531250
8743		17.578125
8744		19.531250
8745		17.578125
8746		19.531250
8747		17.578125
8748		21.484375
8749		17.578125
8750		21.484375
8751		17.578125
8752		21.484375
8753		17.578125
8754		21.484375
8755		19.531250
8756		23.437500
8757		17.578125
8758		23.437500
8759		19.531250
8760		23.437500
8761		19.531250
8762		23.437500
8763		19.531250
8764		23.437500
8765		19.531250
8766		25.390625
8767		21.484375
8768		25.390625
8769		21.484375
8770		25.390625
8771		21.484375
8772		25.390625
8773		21.484375
8774		25.390625
8775		21.484375
8776		25.390625
8777		21.484375
8778		25.390625
8779		21.484375
8780		25.390625
8781		23.437500
8782		25.390625
8783		23.437500
8784		27.343750
8785		23.437500
8786		27.343750
8787		23.437500
8788		25.390625
8789		23.437500
8790		27.343750
8791		23.437500
8792		27.343750
8793		23.437500
8794		27.343750
8795		25.390625
8796		27.343750
8797		25.390625
8798		27.343750
8799		23.437500
8800		27.343750
8801		25.390625
8802		27.343750
8803		25.390625
8804		27.343750
8805		25.390625
8806		29.296875
8807		25.390625
8808		29.296875
8809		25.390625
8810		29.296875
8811		25.390625
8812		29.296875
8813		25.390625
8814		29.296875
8815		25.390625
8816		29.296875
8817		25.390625
8818		29.296875
8819		25.390625
8820		29.296875
8821		25.390625
8822		29.296875
8823		25.390625
8824		29.296875
8825		25.390625
8826		29.296875
8827		25.390625
8828		29.296875
8829		25.390625
8830		29.296875
8831		27.343750
8832		31.250000
8833		27.343750
8834		29.296875
8835		25.390625
8836		29.296875
8837		25.390625
8838		29.296875
8839		27.343750
8840		29.296875
8841		25.390625
8842		29.296875
8843		25.390625
8844		29.296875
8845		25.390625
8846		29.296875
8847		27.343750
8848		29.296875
8849		27.343750
8850		29.296875
8851		25.390625
8852		29.296875
8853		25.390625
8854		29.296875
8855		27.343750
8856		29.296875
8857		25.390625
8858		29.296875
8859		25.390625
8860		29.296875
8861		25.390625
8862		31.250000
8863		25.390625
8864		29.296875
8865		25.390625
8866		29.296875
8867		25.390625
8868		29.296875
8869		25.390625
8870		29.296875
8871		25.390625
8872		29.296875
8873		25.390625
8874		29.296875
8875		25.390625
8876		27.343750
8877		25.390625
8878		29.296875
8879		23.437500
8880		27.343750
8881		25.390625
8882		27.343750
8883		23.437500
8884		27.343750
8885		23.437500
8886		27.343750
8887		23.437500
8888		27.343750
8889		23.437500
8890		27.343750
8891		23.437500
8892		27.343750
8893		23.437500
8894		27.343750
8895		23.437500
8896		27.343750
8897		23.437500
8898		27.343750
8899		23.437500
8900		27.343750
8901		23.437500
8902		25.390625
8903		21.484375
8904		27.343750
8905		21.484375
8906		25.390625
8907		21.484375
8908		25.390625
8909		21.484375
8910		25.390625
8911		19.531250
8912		25.390625
8913		21.484375
8914		23.437500
8915		21.484375
8916		23.437500
8917		19.531250
8918		23.437500
8919		19.531250
8920		23.437500
8921		19.531250
8922		23.437500
8923		19.531250
8924		23.437500
8925		19.531250
8926		23.437500
8927		19.531250
8928		23.437500
8929		19.531250
8930		21.484375
8931		17.578125
8932		21.484375
8933		17.578125
8934		21.484375
8935		17.578125
8936		21.484375
8937		17.578125
8938		21.484375
8939		17.578125
8940		19.531250
8941		17.578125
8942		19.531250
8943		15.625000
8944		19.531250
8945		15.625000
8946		19.531250
8947		15.625000
8948		17.578125
8949		13.671875
8950		19.531250
8951		15.625000
8952		17.578125
8953		13.671875
8954		17.578125
8955		13.671875
8956		17.578125
8957		13.671875
8958		15.625000
8959		13.671875
8960		15.625000
8961		11.718750
8962		15.625000
8963		13.671875
8964		15.625000
8965		11.718750
8966		15.625000
8967		11.718750
8968		15.625000
8969		11.718750
8970		13.671875
8971		11.718750
8972		13.671875
8973		9.765625
8974		13.671875
8975		9.765625
8976		13.671875
8977		9.765625
8978		13.671875
8979		7.812500
8980		13.671875
8981		7.812500
8982		11.718750
8983		7.812500
8984		11.718750
8985		7.812500
8986		9.765625
8987		5.859375
8988		9.765625
8989		5.859375
8990		9.765625
8991		5.859375
8992		9.765625
8993		5.859375
8994		7.812500
8995		3.906250
8996		9.765625
8997		3.906250
8998		7.812500
8999		3.906250
9000		7.812500
9001		3.906250
9002		7.812500
9003		3.906250
9004		5.859375
9005		1.953125
9006		5.859375
9007		1.953125
9008		5.859375
9009		1.953125
9010		5.859375
9011		1.953125
9012		5.859375
9013		1.953125
9014		3.906250
9015		0.000000
9016		3.906250
9017		-1.953125
9018		3.906250
9019		0.000000
9020		1.953125
9021		-1.953125
9022		1.953125
9023		-1.953125
9024		1.953125
9025		-1.953125
9026		1.953125
9027		-3.906250
9028		0.000000
9029		-3.906250
9030		0.000000
9031		-3.906250
9032		-1.953125
9033		-5.859375
9034		0.000000
9035		-5.859375
9036		-1.953125
9037		-5.859375
9038		-1.953125
9039		-5.859375
9040		-1.953125
9041		-5.859375
9042		-3.906250
9043		-7.812500
9044		-3.906250
9045		-7.812500
9046		-3.906250
9047		-7.812500
9048		-3.906250
9049		-7.812500
9050		-5.859375
9051		-9.765625
9052		-5.859375
9053		-9.765625
9054		-5.859375
9055		-9.765625
9056		-7.812500
9057		-9.765625
9058		-5.859375
9059		-11.718750
9060		-7.812500
9061		-11.718750
9062		-7.812500
9063		-13.671875
9064		-7.812500
9065		-11.718750
9066		-9.765625
9067		-13.671875
9068		-9.765625
9069		-13.671875
9070		-9.765625
9071		-13.671875
9072		-9.765625
9073		-15.625000
9074		-11.718750
9075		-15.625000
9076		-11.718750
9077		-15.625000
9078		-11.718750
9079		-17.578125
9080		-11.718750
9081		-15.625000
9082		-13.671875
9083		-17.578125
9084		-13.671875
9085		-17.578125
9086		-13.671875
9087		-17.578125
9088		-13.671875
9089		-17.578125
9090		-15.625000
9091		-17.578125
9092		-15.625000
9093		-19.531250
9094		-15.625000
9095		-19.531250
9096		-15.625000
9097		-21.484375
9098		-15.625000
9099		-19.531250
9100		-17.578125
9101		-21.484375
9102		-17.578125
9103		-21.484375
9104		-17.578125
9105		-21.484375
9106		-17.578125
9107		-21.484375
9108		-19.531250
9109		-23.437500
9110		-19.531250
9111		-23.437500
9112		-19.531250
9113		-23.437500
9114		-19.531250
9115		-23.437500
9116		-21.484375
9117		-23.437500
9118		-21.484375
9119		-25.390625
9120		-21.484375
9121		-25.390625
9122		-21.484375
9123		-25.390625
9124		-21.484375
9125		-25.390625
9126		-21.484375
9127		-27.343750
9128		-21.484375
9129		-27.343750
9130		-23.437500
9131		-27.343750
9132		-23.437500
9133		-27.343750
9134		-23.437500
9135		-27.343750
9136		-23.437500
9137		-27.343750
9138		-25.390625
9139		-29.296875
9140		-25.390625
9141		-27.343750
9142		-25.390625
9143		-29.296875
9144		-25.390625
9145		-29.296875
9146		-25.390625
9147		-29.296875
9148		-25.390625
9149		-29.296875
9150		-27.343750
9151		-31.250000
9152		-25.390625
9153		-31.250000
9154		-27.343750
9155		-29.296875
9156		-27.343750
9157		-31.250000
9158		-27.343750
9159		-31.250000
9160		-27.343750
9161		-31.250000
9162		-27.343750
9163		-31.250000
9164		-27.343750
9165		-31.250000
9166		-29.296875
9167		-33.203125
9168		-27.343750
9169		-33.203125
9170		-29.296875
9171		-31.250000
9172		-29.296875
9173		-31.250000
9174		-29.296875
9175		-33.203125
9176		-29.296875
9177		-33.203125
9178		-29.296875
9179		-33.203125
9180		-29.296875
9181		-33.203125
9182		-29.296875
9183		-33.203125
9184		-29.296875
9185		-33.203125
9186		-29.296875
9187		-33.203125
9188		-29.296875
9189		-33.203125
9190		-29.296875
9191		-33.203125
9192		-29.296875
9193		-33.203125
9194		-29.296875
9195		-33.203125
9196		-31.250000
9197		-33.203125
9198		-29.296875
9199		-33.203125
9200		-31.250000
9201		-33.203125
9202		-31.250000
9203		-33.203125
9204		-31.250000
9205		-33.203125
9206		-29.296875
9207		-33.203125
9208		-31.250000
9209		-33.203125
9210		-29.296875
9211		-33.203125
9212		-29.296875
9213		-33.203125
9214		-29.296875
9215		-33.203125
9216		-29.296875
9217		-33.203125
9218		-31.250000
9219		-33.203125
9220		-31.250000
9221		-33.203125
9222		-29.296875
9223		-33.203125
9224		-29.296875
9225		-33.203125
9226		-29.296875
9227		-33.203125
9228		-29.296875
9229		-33.203125
9230		-29.296875
9231		-33.203125
9232		-29.296875
9233		-33.203125
9234		-29.296875
9235		-33.203125
9236		-29.296875
9237		-33.203125
9238		-29.296875
9239		-33.203125
9240		-29.296875
9241		-33.203125
9242		-29.296875
9243		-33.203125
9244		-29.296875
9245		-33.203125
9246		-29.296875
9247		-31.250000
9248		-29.296875
9249		-31.250000
9250		-29.296875
9251		-31.250000
9252		-27.343750
9253		-31.250000
9254		-27.343750
9255		-31.250000
9256		-27.343750
9257		-31.250000
9258		-27.343750
9259		-31.250000
9260		-27.343750
9261		-31.250000
9262		-27.343750
9263		-31.250000
9264		-27.343750
9265		-29.296875
9266		-25.390625
9267		-29.296875
9268		-27.343750
9269		-29.296875
9270		-25.390625
9271		-29.296875
9272		-25.390625
9273		-29.296875
9274		-25.390625
9275		-29.296875
9276		-25.390625
9277		-29.296875
9278		-25.390625
9279		-29.296875
9280		-25.390625
9281		-29.296875
9282		-23.437500
9283		-27.343750
9284		-25.390625
9285		-27.343750
9286		-23.437500
9287		-27.343750
9288		-23.437500
9289		-27.343750
9290		-23.437500
9291		-25.390625
9292		-23.437500
9293		-27.343750
9294		-23.437500
9295		-25.390625
9296		-21.484375
9297		-25.390625
9298		-21.484375
9299		-23.437500
9300		-21.484375
9301		-23.437500
9302		-21.484375
9303		-25.390625
9304		-19.531250
9305		-23.437500
9306		-21.484375
9307		-23.437500
9308		-19.531250
9309		-23.437500
9310		-19.531250
9311		-21.484375
9312		-19.531250
9313		-21.484375
9314		-17.578125
9315		-23.437500
9316		-17.578125
9317		-21.484375
9318		-17.578125
9319		-21.484375
9320		-17.578125
9321		-19.531250
9322		-17.578125
9323		-19.531250
9324		-17.578125
9325		-19.531250
9326		-15.625000
9327		-19.531250
9328		-15.625000
9329		-17.578125
9330		-15.625000
9331		-17.578125
9332		-13.671875
9333		-17.578125
9334		-13.671875
9335		-17.578125
9336		-13.671875
9337		-17.578125
9338		-13.671875
9339		-15.625000
9340		-13.671875
9341		-15.625000
9342		-11.718750
9343		-15.625000
9344		-11.718750
9345		-13.671875
9346		-11.718750
9347		-13.671875
9348		-9.765625
9349		-13.671875
9350		-9.765625
9351		-13.671875
9352		-9.765625
9353		-13.671875
9354		-7.812500
9355		-11.718750
9356		-7.812500
9357		-11.718750
9358		-7.812500
9359		-11.718750
9360		-7.812500
9361		-9.765625
9362		-7.812500
9363		-9.765625
9364		-5.859375
9365		-9.765625
9366		-5.859375
9367		-7.812500
9368		-5.859375
9369		-7.812500
9370		-3.906250
9371		-7.812500
9372		-3.906250
9373		-7.812500
9374		-3.906250
9375		-5.859375
9376		-3.906250
9377		-5.859375
9378		-1.953125
9379		-5.859375
9380		-1.953125
9381		-5.859375
9382		-1.953125
9383		-3.906250
9384		-1.953125
9385		-3.906250
9386		-1.953125
9387		-3.906250
9388		0.000000
9389		-3.906250
9390		0.000000
9391		-3.906250
9392		0.000000
9393		-1.953125
9394		0.000000
9395		-1.953125
9396		3.906250
9397		-1.953125
9398		3.906250
9399		-1.953125
9400		3.906250
9401		0.000000
9402		3.906250
9403		0.000000
9404		3.906250
9405		1.953125
9406		3.906250
9407		0.000000
9408		3.906250
9409		1.953125
9410		5.859375
9411		1.953125
9412		5.859375
9413		3.906250
9414		5.859375
9415		3.906250
9416		5.859375
9417		3.906250
9418		7.812500
9419		3.906250
9420		7.812500
9421		3.906250
9422		7.812500
9423		3.906250
9424		7.812500
9425		5.859375
9426		9.765625
9427		5.859375
9428		9.765625
9429		7.812500
9430		9.765625
9431		7.812500
9432		11.718750
9433		7.812500
9434		11.718750
9435		9.765625
9436		11.718750
9437		7.812500
9438		11.718750
9439		9.765625
9440		11.718750
9441		9.765625
9442		13.671875
9443		9.765625
9444		13.671875
9445		11.718750
9446		13.671875
9447		11.718750
9448		13.671875
9449		11.718750
9450		15.625000
9451		11.718750
9452		15.625000
9453		11.718750
9454		17.578125
9455		13.671875
9456		17.578125
9457		13.671875
9458		17.578125
9459		13.671875
9460		17.578125
9461		13.671875
9462		17.578125
9463		13.671875
9464		17.578125
9465		15.625000
9466		19.531250
9467		15.625000
9468		19.531250
9469		15.625000
9470		19.531250
9471		17.578125
9472		19.531250
9473		15.625000
9474		21.484375
9475		17.578125
9476		21.484375
9477		17.578125
9478		21.484375
9479		17.578125
9480		21.484375
9481		17.578125
9482		21.484375
9483		19.531250
9484		21.484375
9485		17.578125
9486		23.437500
9487		17.578125
9488		23.437500
9489		19.531250
9490		23.437500
9491		19.531250
9492		23.437500
9493		21.484375
9494		23.437500
9495		21.484375
9496		23.437500
9497		21.484375
9498		25.390625
9499		21.484375
9500		25.390625
9501		21.484375
9502		25.390625
9503		21.484375
9504		25.390625
9505		21.484375
9506		25.390625
9507		21.484375
9508		27.343750
9509		23.437500
9510		25.390625
9511		23.437500
9512		27.343750
9513		23.437500
9514		27.343750
9515		23.437500
9516		27.343750
9517		23.437500
9518		27.343750
9519		23.437500
9520		27.343750
9521		23.437500
9522		27.343750
9523		25.390625
9524		27.343750
9525		25.390625
9526		27.343750
9527		25.390625
9528		27.343750
9529		25.390625
9530		29.296875
9531		25.390625
9532		29.296875
9533		25.390625
9534		29.296875
9535		25.390625
9536		29.296875
9537		25.390625
9538		29.296875
9539		25.390625
9540		29.296875
9541		25.390625
9542		29.296875
9543		25.390625
9544		29.296875
9545		25.390625
9546		29.296875
9547		25.390625
9548		29.296875
9549		25.390625
9550		29.296875
9551		25.390625
9552		29.296875
9553		27.343750
9554		29.296875
9555		27.343750
9556		29.296875
9557		27.343750
9558		29.296875
9559		27.343750
9560		31.250000
9561		27.343750
9562		29.296875
9563		27.343750
9564		31.250000
9565		27.343750
9566		31.250000
9567		27.343750
9568		31.250000
9569		27.343750
9570		31.250000
9571		27.343750
9572		31.250000
9573		25.390625
9574		31.250000
9575		27.343750
9576		31.250000
9577		27.343750
9578		31.250000
9579		27.343750
9580		31.250000
9581		27.343750
9582		31.250000
9583		27.343750
9584		31.250000
9585		27.343750
9586		29.296875
9587		27.343750
9588		31.250000
9589		25.390625
9590		31.250000
9591		25.390625
9592		29.296875
9593		27.343750
9594		29.296875
9595		27.343750
9596		29.296875
9597		25.390625
9598		29.296875
9599		25.390625
9600		29.296875
9601		25.390625
9602		29.296875
9603		25.390625
9604		29.296875
9605		25.390625
9606		29.296875
9607		25.390625
9608		29.296875
9609		25.390625
9610		29.296875
9611		25.390625
9612		29.296875
9613		25.390625
9614		29.296875
9615		25.390625
9616		29.296875
9617		25.390625
9618		29.296875
9619		23.437500
9620		29.296875
9621		25.390625
9622		27.343750
9623		25.390625
9624		27.343750
9625		23.437500
9626		27.343750
9627		23.437500
9628		27.343750
9629		23.437500
9630		27.343750
9631		23.437500
9632		27.343750
9633		23.437500
9634		27.343750
9635		23.437500
9636		27.343750
9637		23.437500
9638		25.390625
9639		21.484375
9640		27.343750
9641		21.484375
9642		25.390625
9643		21.484375
9644		25.390625
9645		21.484375
9646		25.390625
9647		21.484375
9648		25.390625
9649		21.484375
9650		25.390625
9651		21.484375
9652		25.390625
9653		21.484375
9654		23.437500
9655		19.531250
9656		23.437500
9657		19.531250
9658		23.437500
9659		19.531250
9660		23.437500
9661		19.531250
9662		23.437500
9663		19.531250
9664		23.437500
9665		19.531250
9666		21.484375
9667		17.578125
9668		21.484375
9669		17.578125
9670		21.484375
9671		17.578125
9672		21.484375
9673		17.578125
9674		21.484375
9675		17.578125
9676		19.531250
9677		15.625000
9678		21.484375
9679		15.625000
9680		19.531250
9681		15.625000
9682		19.531250
9683		15.625000
9684		19.531250
9685		15.625000
9686		19.531250
9687		13.671875
9688		17.578125
9689		11.718750
9690		17.578125
9691		13.671875
9692		17.578125
9693		13.671875
9694		17.578125
9695		13.671875
9696		17.578125
9697		11.718750
9698		15.625000
9699		11.718750
9700		15.625000
9701		11.718750
9702		15.625000
9703		11.718750
9704		13.671875
9705		9.765625
9706		13.671875
9707		9.765625
9708		13.671875
9709		9.765625
9710		13.671875
9711		9.765625
9712		11.718750
9713		7.812500
9714		11.718750
9715		7.812500
9716		11.718750
9717		7.812500
9718		11.718750
9719		7.812500
9720		11.718750
9721		7.812500
9722		9.765625
9723		5.859375
9724		11.718750
9725		5.859375
9726		9.765625
9727		3.906250
9728		9.765625
9729		5.859375
9730		7.812500
9731		3.906250
9732		7.812500
9733		3.906250
9734		7.812500
9735		3.906250
9736		7.812500
9737		1.953125
9738		5.859375
9739		1.953125
9740		5.859375
9741		1.953125
9742		5.859375
9743		1.953125
9744		5.859375
9745		0.000000
9746		5.859375
9747		0.000000
9748		3.906250
9749		0.000000
9750		3.906250
9751		-1.953125
9752		3.906250
9753		0.000000
9754		1.953125
9755		-1.953125
9756		1.953125
9757		-1.953125
9758		1.953125
9759		-1.953125
9760		1.953125
9761		-3.906250
9762		0.000000
9763		-3.906250
9764		0.000000
9765		-3.906250
9766		0.000000
9767		-3.906250
9768		-1.953125
9769		-3.906250
9770		0.000000
9771		-5.859375
9772		-1.953125
9773		-7.812500
9774		-1.953125
9775		-5.859375
9776		-3.906250
9777		-7.812500
9778		-3.906250
9779		-7.812500
9780		-3.906250
9781		-7.812500
9782		-3.906250
9783		-7.812500
9784		-3.906250
9785		-9.765625
9786		-5.859375
9787		-9.765625
9788		-5.859375
9789		-9.765625
9790		-5.859375
9791		-11.718750
9792		-5.859375
9793		-11.718750
9794		-7.812500
9795		-11.718750
9796		-7.812500
9797		-11.718750
9798		-9.765625
9799		-13.671875
9800		-7.812500
9801		-13.671875
9802		-9.765625
9803		-13.671875
9804		-9.765625
9805		-13.671875
9806		-9.765625
9807		-13.671875
9808		-9.765625
9809		-15.625000
9810		-9.765625
9811		-15.625000
9812		-11.718750
9813		-15.625000
9814		-13.671875
9815		-15.625000
9816		-13.671875
9817		-15.625000
9818		-13.671875
9819		-17.578125
9820		-13.671875
9821		-17.578125
9822		-13.671875
9823		-17.578125
9824		-15.625000
9825		-19.531250
9826		-15.625000
9827		-19.531250
9828		-13.671875
9829		-19.531250
9830		-15.625000
9831		-19.531250
9832		-15.625000
9833		-21.484375
9834		-15.625000
9835		-19.531250
9836		-17.578125
9837		-21.484375
9838		-17.578125
9839		-21.484375
9840		-17.578125
9841		-23.437500
9842		-17.578125
9843		-21.484375
9844		-17.578125
9845		-23.437500
9846		-19.531250
9847		-23.437500
9848		-19.531250
9849		-23.437500
9850		-19.531250
9851		-23.437500
9852		-19.531250
9853		-23.437500
9854		-21.484375
9855		-23.437500
9856		-21.484375
9857		-25.390625
9858		-21.484375
9859		-25.390625
9860		-21.484375
9861		-25.390625
9862		-21.484375
9863		-27.343750
9864		-21.484375
9865		-27.343750
9866		-23.437500
9867		-27.343750
9868		-23.437500
9869		-27.343750
9870		-23.437500
9871		-27.343750
9872		-25.390625
9873		-27.343750
9874		-23.437500
9875		-29.296875
9876		-25.390625
9877		-29.296875
9878		-25.390625
9879		-29.296875
9880		-25.390625
9881		-29.296875
9882		-25.390625
9883		-29.296875
9884		-25.390625
9885		-29.296875
9886		-25.390625
9887		-29.296875
9888		-27.343750
9889		-31.250000
9890		-25.390625
9891		-29.296875
9892		-27.343750
9893		-31.250000
9894		-27.343750
9895		-31.250000
9896		-27.343750
9897		-31.250000
9898		-27.343750
9899		-31.250000
9900		-27.343750
9901		-31.250000
9902		-27.343750
9903		-31.250000
9904		-27.343750
9905		-31.250000
9906		-29.296875
9907		-31.250000
9908		-29.296875
9909		-31.250000
9910		-29.296875
9911		-33.203125
9912		-29.296875
9913		-33.203125
9914		-29.296875
9915		-31.250000
9916		-29.296875
9917		-33.203125
9918		-29.296875
9919		-33.203125
9920		-29.296875
9921		-31.250000
9922		-29.296875
9923		-33.203125
9924		-29.296875
9925		-33.203125
9926		-29.296875
9927		-33.203125
9928		-29.296875
9929		-33.203125
9930		-29.296875
9931		-33.203125
9932		-29.296875
9933		-33.203125
9934		-29.296875
9935		-33.203125
9936		-29.296875
9937		-33.203125
9938		-29.296875
9939		-33.203125
9940		-29.296875
9941		-33.203125
9942		-29.296875
9943		-33.203125
9944		-29.296875
9945		-35.156250
9946		-29.296875
9947		-33.203125
9948		-29.296875
9949		-33.203125
9950		-29.296875
9951		-33.203125
9952		-29.296875
9953		-33.203125
9954		-29.296875
9955		-33.203125
9956		-29.296875
9957		-33.203125
9958		-29.296875
9959		-33.203125
9960		-29.296875
9961		-33.203125
9962		-29.296875
9963		-33.203125
9964		-29.296875
9965		-33.203125
9966		-29.296875
9967		-31.250000
9968		-29.296875
9969		-31.250000
9970		-29.296875
9971		-33.203125
9972		-27.343750
9973		-31.250000
9974		-29.296875
9975		-33.203125
9976		-27.343750
9977		-31.250000
9978		-29.296875
9979		-31.250000
9980		-27.343750
9981		-31.250000
9982		-27.343750
9983		-31.250000
9984		-27.343750
9985		-31.250000
9986		-27.343750
9987		-31.250000
9988		-27.343750
9989		-29.296875
9990		-27.343750
9991		-29.296875
9992		-27.343750
9993		-29.296875
9994		-25.390625
9995		-29.296875
9996		-25.390625
9997		-29.296875
9998		-25.390625
9999		-29.296875
10000		-25.390625
