Channel              :		CH1
Frequency            :		1.973kHz
Period               :		0.507ms
PK-PK                :		72.27mV
Probe attenuation    :		1X
Voltage per ADC value:		0.122070mV
Time interval        :		2.00000us

index		CH1_Voltage(mV)
1		37.109375
2		37.109375
3		41.015625
4		37.109375
5		41.015625
6		37.109375
7		39.062500
8		35.156250
9		39.062500
10		35.156250
11		39.062500
12		35.156250
13		39.062500
14		33.203125
15		37.109375
16		33.203125
17		35.156250
18		31.250000
19		35.156250
20		29.296875
21		35.156250
22		29.296875
23		33.203125
24		27.343750
25		31.250000
26		27.343750
27		31.250000
28		25.390625
29		29.296875
30		23.437500
31		27.343750
32		23.437500
33		27.343750
34		21.484375
35		25.390625
36		21.484375
37		25.390625
38		17.578125
39		23.437500
40		17.578125
41		21.484375
42		17.578125
43		19.531250
44		15.625000
45		19.531250
46		13.671875
47		17.578125
48		11.718750
49		15.625000
50		9.765625
51		13.671875
52		7.812500
53		11.718750
54		7.812500
55		11.718750
56		5.859375
57		9.765625
58		3.906250
59		7.812500
60		1.953125
61		5.859375
62		0.000000
63		3.906250
64		0.000000
65		3.906250
66		-1.953125
67		1.953125
68		-3.906250
69		0.000000
70		-5.859375
71		-1.953125
72		-7.812500
73		-1.953125
74		-7.812500
75		-5.859375
76		-11.718750
77		-5.859375
78		-11.718750
79		-7.812500
80		-11.718750
81		-7.812500
82		-13.671875
83		-9.765625
84		-13.671875
85		-11.718750
86		-15.625000
87		-11.718750
88		-17.578125
89		-13.671875
90		-17.578125
91		-15.625000
92		-19.531250
93		-15.625000
94		-19.531250
95		-15.625000
96		-19.531250
97		-17.578125
98		-21.484375
99		-17.578125
100		-21.484375
101		-17.578125
102		-23.437500
103		-19.531250
104		-23.437500
105		-19.531250
106		-23.437500
107		-19.531250
108		-23.437500
109		-21.484375
110		-25.390625
111		-21.484375
112		-25.390625
113		-21.484375
114		-25.390625
115		-21.484375
116		-25.390625
117		-21.484375
118		-25.390625
119		-21.484375
120		-25.390625
121		-21.484375
122		-25.390625
123		-21.484375
124		-23.437500
125		-21.484375
126		-23.437500
127		-21.484375
128		-23.437500
129		-19.531250
130		-23.437500
131		-19.531250
132		-23.437500
133		-19.531250
134		-21.484375
135		-17.578125
136		-21.484375
137		-17.578125
138		-21.484375
139		-17.578125
140		-19.531250
141		-15.625000
142		-17.578125
143		-15.625000
144		-17.578125
145		-13.671875
146		-15.625000
147		-13.671875
148		-15.625000
149		-11.718750
150		-13.671875
151		-9.765625
152		-11.718750
153		-9.765625
154		-11.718750
155		-7.812500
156		-9.765625
157		-7.812500
158		-7.812500
159		-5.859375
160		-7.812500
161		-3.906250
162		-5.859375
163		-1.953125
164		-3.906250
165		-1.953125
166		-3.906250
167		0.000000
168		-1.953125
169		1.953125
170		0.000000
171		3.906250
172		1.953125
173		5.859375
174		3.906250
175		5.859375
176		3.906250
177		7.812500
178		5.859375
179		9.765625
180		7.812500
181		11.718750
182		9.765625
183		11.718750
184		9.765625
185		13.671875
186		11.718750
187		17.578125
188		13.671875
189		17.578125
190		15.625000
191		19.531250
192		17.578125
193		19.531250
194		17.578125
195		21.484375
196		19.531250
197		23.437500
198		21.484375
199		25.390625
200		21.484375
201		25.390625
202		23.437500
203		27.343750
204		25.390625
205		29.296875
206		25.390625
207		31.250000
208		27.343750
209		31.250000
210		29.296875
211		31.250000
212		29.296875
213		33.203125
214		31.250000
215		35.156250
216		31.250000
217		35.156250
218		33.203125
219		37.109375
220		33.203125
221		37.109375
222		35.156250
223		37.109375
224		33.203125
225		37.109375
226		37.109375
227		39.062500
228		37.109375
229		41.015625
230		37.109375
231		41.015625
232		37.109375
233		41.015625
234		37.109375
235		41.015625
236		39.062500
237		41.015625
238		39.062500
239		41.015625
240		37.109375
241		42.968750
242		39.062500
243		41.015625
244		39.062500
245		41.015625
246		39.062500
247		41.015625
248		39.062500
249		41.015625
250		37.109375
251		41.015625
252		37.109375
253		41.015625
254		37.109375
255		41.015625
256		37.109375
257		41.015625
258		37.109375
259		39.062500
260		37.109375
261		39.062500
262		35.156250
263		39.062500
264		35.156250
265		37.109375
266		33.203125
267		37.109375
268		33.203125
269		37.109375
270		33.203125
271		35.156250
272		31.250000
273		35.156250
274		31.250000
275		33.203125
276		29.296875
277		31.250000
278		27.343750
279		31.250000
280		27.343750
281		31.250000
282		25.390625
283		29.296875
284		25.390625
285		27.343750
286		23.437500
287		27.343750
288		21.484375
289		25.390625
290		19.531250
291		23.437500
292		19.531250
293		21.484375
294		17.578125
295		21.484375
296		15.625000
297		19.531250
298		13.671875
299		17.578125
300		13.671875
301		17.578125
302		11.718750
303		13.671875
304		9.765625
305		13.671875
306		7.812500
307		11.718750
308		5.859375
309		9.765625
310		5.859375
311		7.812500
312		3.906250
313		5.859375
314		1.953125
315		5.859375
316		0.000000
317		3.906250
318		0.000000
319		1.953125
320		-1.953125
321		1.953125
322		-3.906250
323		0.000000
324		-5.859375
325		-1.953125
326		-7.812500
327		-3.906250
328		-7.812500
329		-5.859375
330		-9.765625
331		-5.859375
332		-11.718750
333		-7.812500
334		-11.718750
335		-9.765625
336		-13.671875
337		-11.718750
338		-15.625000
339		-11.718750
340		-15.625000
341		-11.718750
342		-17.578125
343		-13.671875
344		-17.578125
345		-15.625000
346		-19.531250
347		-15.625000
348		-19.531250
349		-15.625000
350		-21.484375
351		-17.578125
352		-21.484375
353		-17.578125
354		-21.484375
355		-19.531250
356		-23.437500
357		-19.531250
358		-23.437500
359		-19.531250
360		-23.437500
361		-21.484375
362		-25.390625
363		-21.484375
364		-23.437500
365		-21.484375
366		-25.390625
367		-21.484375
368		-25.390625
369		-21.484375
370		-25.390625
371		-21.484375
372		-25.390625
373		-21.484375
374		-25.390625
375		-21.484375
376		-23.437500
377		-21.484375
378		-23.437500
379		-21.484375
380		-23.437500
381		-19.531250
382		-23.437500
383		-19.531250
384		-23.437500
385		-19.531250
386		-21.484375
387		-19.531250
388		-21.484375
389		-17.578125
390		-21.484375
391		-17.578125
392		-19.531250
393		-15.625000
394		-17.578125
395		-15.625000
396		-17.578125
397		-13.671875
398		-15.625000
399		-13.671875
400		-15.625000
401		-11.718750
402		-15.625000
403		-11.718750
404		-13.671875
405		-9.765625
406		-11.718750
407		-9.765625
408		-11.718750
409		-7.812500
410		-9.765625
411		-5.859375
412		-7.812500
413		-5.859375
414		-7.812500
415		-3.906250
416		-5.859375
417		-1.953125
418		-3.906250
419		0.000000
420		-1.953125
421		1.953125
422		-1.953125
423		1.953125
424		0.000000
425		3.906250
426		1.953125
427		5.859375
428		3.906250
429		7.812500
430		5.859375
431		9.765625
432		5.859375
433		9.765625
434		7.812500
435		11.718750
436		9.765625
437		13.671875
438		11.718750
439		15.625000
440		11.718750
441		15.625000
442		13.671875
443		17.578125
444		15.625000
445		19.531250
446		17.578125
447		21.484375
448		19.531250
449		23.437500
450		21.484375
451		23.437500
452		21.484375
453		25.390625
454		23.437500
455		27.343750
456		23.437500
457		27.343750
458		25.390625
459		31.250000
460		27.343750
461		31.250000
462		29.296875
463		31.250000
464		27.343750
465		33.203125
466		29.296875
467		33.203125
468		31.250000
469		35.156250
470		33.203125
471		35.156250
472		33.203125
473		37.109375
474		33.203125
475		37.109375
476		35.156250
477		39.062500
478		37.109375
479		39.062500
480		37.109375
481		41.015625
482		37.109375
483		39.062500
484		37.109375
485		41.015625
486		37.109375
487		41.015625
488		37.109375
489		41.015625
490		39.062500
491		41.015625
492		39.062500
493		41.015625
494		39.062500
495		41.015625
496		39.062500
497		41.015625
498		39.062500
499		42.968750
500		39.062500
501		41.015625
502		39.062500
503		41.015625
504		39.062500
505		41.015625
506		37.109375
507		41.015625
508		37.109375
509		41.015625
510		37.109375
511		41.015625
512		37.109375
513		39.062500
514		35.156250
515		39.062500
516		35.156250
517		39.062500
518		35.156250
519		37.109375
520		33.203125
521		37.109375
522		33.203125
523		37.109375
524		31.250000
525		35.156250
526		31.250000
527		35.156250
528		29.296875
529		33.203125
530		27.343750
531		33.203125
532		27.343750
533		31.250000
534		27.343750
535		29.296875
536		25.390625
537		29.296875
538		23.437500
539		27.343750
540		23.437500
541		25.390625
542		21.484375
543		25.390625
544		19.531250
545		23.437500
546		19.531250
547		21.484375
548		17.578125
549		21.484375
550		15.625000
551		19.531250
552		13.671875
553		17.578125
554		11.718750
555		15.625000
556		9.765625
557		15.625000
558		9.765625
559		13.671875
560		7.812500
561		11.718750
562		5.859375
563		9.765625
564		3.906250
565		7.812500
566		3.906250
567		5.859375
568		1.953125
569		5.859375
570		0.000000
571		3.906250
572		-1.953125
573		1.953125
574		-3.906250
575		0.000000
576		-5.859375
577		0.000000
578		-5.859375
579		-1.953125
580		-7.812500
581		-3.906250
582		-9.765625
583		-3.906250
584		-9.765625
585		-5.859375
586		-11.718750
587		-7.812500
588		-13.671875
589		-9.765625
590		-13.671875
591		-11.718750
592		-15.625000
593		-11.718750
594		-17.578125
595		-11.718750
596		-17.578125
597		-13.671875
598		-19.531250
599		-15.625000
600		-19.531250
601		-15.625000
602		-21.484375
603		-17.578125
604		-21.484375
605		-17.578125
606		-21.484375
607		-17.578125
608		-21.484375
609		-19.531250
610		-23.437500
611		-19.531250
612		-23.437500
613		-21.484375
614		-25.390625
615		-19.531250
616		-23.437500
617		-21.484375
618		-23.437500
619		-21.484375
620		-25.390625
621		-21.484375
622		-23.437500
623		-21.484375
624		-23.437500
625		-21.484375
626		-25.390625
627		-21.484375
628		-25.390625
629		-21.484375
630		-23.437500
631		-21.484375
632		-25.390625
633		-19.531250
634		-23.437500
635		-19.531250
636		-23.437500
637		-19.531250
638		-21.484375
639		-19.531250
640		-21.484375
641		-17.578125
642		-19.531250
643		-17.578125
644		-21.484375
645		-17.578125
646		-19.531250
647		-15.625000
648		-17.578125
649		-15.625000
650		-17.578125
651		-13.671875
652		-15.625000
653		-11.718750
654		-15.625000
655		-11.718750
656		-13.671875
657		-9.765625
658		-13.671875
659		-9.765625
660		-11.718750
661		-7.812500
662		-9.765625
663		-7.812500
664		-7.812500
665		-5.859375
666		-7.812500
667		-3.906250
668		-5.859375
669		-1.953125
670		-3.906250
671		-1.953125
672		-1.953125
673		0.000000
674		-1.953125
675		1.953125
676		0.000000
677		3.906250
678		1.953125
679		3.906250
680		3.906250
681		5.859375
682		3.906250
683		7.812500
684		5.859375
685		9.765625
686		7.812500
687		11.718750
688		9.765625
689		13.671875
690		11.718750
691		13.671875
692		11.718750
693		15.625000
694		13.671875
695		17.578125
696		15.625000
697		19.531250
698		17.578125
699		21.484375
700		17.578125
701		21.484375
702		19.531250
703		23.437500
704		21.484375
705		25.390625
706		21.484375
707		25.390625
708		23.437500
709		27.343750
710		25.390625
711		29.296875
712		27.343750
713		29.296875
714		27.343750
715		31.250000
716		29.296875
717		31.250000
718		29.296875
719		33.203125
720		31.250000
721		35.156250
722		33.203125
723		35.156250
724		33.203125
725		37.109375
726		33.203125
727		37.109375
728		33.203125
729		37.109375
730		35.156250
731		39.062500
732		35.156250
733		39.062500
734		37.109375
735		39.062500
736		37.109375
737		41.015625
738		37.109375
739		41.015625
740		37.109375
741		41.015625
742		39.062500
743		41.015625
744		39.062500
745		42.968750
746		39.062500
747		41.015625
748		39.062500
749		41.015625
750		39.062500
751		42.968750
752		39.062500
753		41.015625
754		39.062500
755		42.968750
756		39.062500
757		41.015625
758		39.062500
759		41.015625
760		37.109375
761		41.015625
762		37.109375
763		41.015625
764		37.109375
765		39.062500
766		35.156250
767		39.062500
768		35.156250
769		39.062500
770		35.156250
771		37.109375
772		35.156250
773		37.109375
774		33.203125
775		37.109375
776		33.203125
777		35.156250
778		31.250000
779		35.156250
780		31.250000
781		33.203125
782		29.296875
783		33.203125
784		29.296875
785		33.203125
786		27.343750
787		31.250000
788		25.390625
789		29.296875
790		25.390625
791		29.296875
792		23.437500
793		27.343750
794		21.484375
795		25.390625
796		21.484375
797		23.437500
798		19.531250
799		23.437500
800		17.578125
801		21.484375
802		15.625000
803		21.484375
804		15.625000
805		19.531250
806		13.671875
807		17.578125
808		11.718750
809		15.625000
810		9.765625
811		13.671875
812		9.765625
813		13.671875
814		7.812500
815		9.765625
816		3.906250
817		9.765625
818		3.906250
819		7.812500
820		1.953125
821		5.859375
822		1.953125
823		3.906250
824		0.000000
825		3.906250
826		-1.953125
827		1.953125
828		-3.906250
829		0.000000
830		-3.906250
831		-1.953125
832		-5.859375
833		-3.906250
834		-7.812500
835		-3.906250
836		-9.765625
837		-5.859375
838		-11.718750
839		-7.812500
840		-11.718750
841		-9.765625
842		-13.671875
843		-9.765625
844		-15.625000
845		-11.718750
846		-15.625000
847		-11.718750
848		-15.625000
849		-13.671875
850		-17.578125
851		-13.671875
852		-17.578125
853		-15.625000
854		-19.531250
855		-15.625000
856		-19.531250
857		-17.578125
858		-21.484375
859		-17.578125
860		-21.484375
861		-17.578125
862		-23.437500
863		-19.531250
864		-23.437500
865		-19.531250
866		-23.437500
867		-19.531250
868		-23.437500
869		-19.531250
870		-23.437500
871		-19.531250
872		-23.437500
873		-21.484375
874		-23.437500
875		-21.484375
876		-25.390625
877		-21.484375
878		-23.437500
879		-21.484375
880		-25.390625
881		-21.484375
882		-23.437500
883		-21.484375
884		-23.437500
885		-21.484375
886		-23.437500
887		-19.531250
888		-23.437500
889		-19.531250
890		-23.437500
891		-19.531250
892		-21.484375
893		-19.531250
894		-21.484375
895		-17.578125
896		-19.531250
897		-17.578125
898		-19.531250
899		-15.625000
900		-19.531250
901		-15.625000
902		-17.578125
903		-13.671875
904		-17.578125
905		-13.671875
906		-15.625000
907		-11.718750
908		-13.671875
909		-11.718750
910		-13.671875
911		-9.765625
912		-13.671875
913		-7.812500
914		-9.765625
915		-7.812500
916		-9.765625
917		-5.859375
918		-7.812500
919		-3.906250
920		-7.812500
921		-3.906250
922		-5.859375
923		-1.953125
924		-3.906250
925		0.000000
926		-3.906250
927		1.953125
928		0.000000
929		3.906250
930		0.000000
931		3.906250
932		1.953125
933		5.859375
934		3.906250
935		7.812500
936		5.859375
937		9.765625
938		7.812500
939		11.718750
940		7.812500
941		11.718750
942		9.765625
943		13.671875
944		11.718750
945		15.625000
946		13.671875
947		15.625000
948		15.625000
949		17.578125
950		15.625000
951		19.531250
952		15.625000
953		21.484375
954		19.531250
955		23.437500
956		19.531250
957		25.390625
958		21.484375
959		25.390625
960		23.437500
961		27.343750
962		23.437500
963		27.343750
964		25.390625
965		29.296875
966		27.343750
967		29.296875
968		27.343750
969		31.250000
970		29.296875
971		33.203125
972		31.250000
973		33.203125
974		31.250000
975		35.156250
976		33.203125
977		37.109375
978		33.203125
979		37.109375
980		33.203125
981		37.109375
982		35.156250
983		37.109375
984		35.156250
985		39.062500
986		37.109375
987		39.062500
988		37.109375
989		41.015625
990		37.109375
991		41.015625
992		37.109375
993		41.015625
994		39.062500
995		41.015625
996		39.062500
997		42.968750
998		39.062500
999		41.015625
1000		39.062500
1001		41.015625
1002		39.062500
1003		42.968750
1004		39.062500
1005		42.968750
1006		39.062500
1007		42.968750
1008		39.062500
1009		42.968750
1010		39.062500
1011		42.968750
1012		39.062500
1013		41.015625
1014		37.109375
1015		41.015625
1016		37.109375
1017		41.015625
1018		37.109375
1019		41.015625
1020		37.109375
1021		39.062500
1022		35.156250
1023		39.062500
1024		35.156250
1025		39.062500
1026		35.156250
1027		39.062500
1028		33.203125
1029		37.109375
1030		33.203125
1031		37.109375
1032		31.250000
1033		35.156250
1034		31.250000
1035		33.203125
1036		29.296875
1037		33.203125
1038		29.296875
1039		33.203125
1040		27.343750
1041		31.250000
1042		25.390625
1043		29.296875
1044		25.390625
1045		29.296875
1046		23.437500
1047		27.343750
1048		21.484375
1049		25.390625
1050		21.484375
1051		23.437500
1052		19.531250
1053		23.437500
1054		17.578125
1055		21.484375
1056		15.625000
1057		19.531250
1058		13.671875
1059		19.531250
1060		13.671875
1061		17.578125
1062		11.718750
1063		15.625000
1064		9.765625
1065		13.671875
1066		9.765625
1067		11.718750
1068		7.812500
1069		11.718750
1070		5.859375
1071		9.765625
1072		3.906250
1073		7.812500
1074		1.953125
1075		5.859375
1076		1.953125
1077		3.906250
1078		0.000000
1079		1.953125
1080		-3.906250
1081		1.953125
1082		-3.906250
1083		0.000000
1084		-3.906250
1085		-1.953125
1086		-5.859375
1087		-1.953125
1088		-7.812500
1089		-3.906250
1090		-9.765625
1091		-5.859375
1092		-11.718750
1093		-7.812500
1094		-11.718750
1095		-7.812500
1096		-13.671875
1097		-9.765625
1098		-13.671875
1099		-9.765625
1100		-15.625000
1101		-11.718750
1102		-17.578125
1103		-13.671875
1104		-17.578125
1105		-15.625000
1106		-19.531250
1107		-15.625000
1108		-19.531250
1109		-15.625000
1110		-19.531250
1111		-15.625000
1112		-19.531250
1113		-17.578125
1114		-21.484375
1115		-17.578125
1116		-21.484375
1117		-19.531250
1118		-21.484375
1119		-19.531250
1120		-23.437500
1121		-19.531250
1122		-23.437500
1123		-21.484375
1124		-23.437500
1125		-21.484375
1126		-23.437500
1127		-19.531250
1128		-23.437500
1129		-21.484375
1130		-23.437500
1131		-19.531250
1132		-25.390625
1133		-21.484375
1134		-23.437500
1135		-21.484375
1136		-23.437500
1137		-19.531250
1138		-23.437500
1139		-19.531250
1140		-23.437500
1141		-19.531250
1142		-23.437500
1143		-19.531250
1144		-21.484375
1145		-19.531250
1146		-21.484375
1147		-17.578125
1148		-21.484375
1149		-17.578125
1150		-19.531250
1151		-17.578125
1152		-19.531250
1153		-15.625000
1154		-17.578125
1155		-13.671875
1156		-17.578125
1157		-13.671875
1158		-15.625000
1159		-11.718750
1160		-15.625000
1161		-11.718750
1162		-13.671875
1163		-9.765625
1164		-11.718750
1165		-9.765625
1166		-11.718750
1167		-7.812500
1168		-9.765625
1169		-7.812500
1170		-9.765625
1171		-3.906250
1172		-7.812500
1173		-3.906250
1174		-5.859375
1175		-1.953125
1176		-3.906250
1177		0.000000
1178		-3.906250
1179		0.000000
1180		-1.953125
1181		1.953125
1182		0.000000
1183		3.906250
1184		1.953125
1185		3.906250
1186		3.906250
1187		7.812500
1188		3.906250
1189		7.812500
1190		5.859375
1191		9.765625
1192		7.812500
1193		11.718750
1194		9.765625
1195		13.671875
1196		11.718750
1197		13.671875
1198		11.718750
1199		17.578125
1200		13.671875
1201		17.578125
1202		15.625000
1203		19.531250
1204		17.578125
1205		21.484375
1206		17.578125
1207		21.484375
1208		19.531250
1209		23.437500
1210		21.484375
1211		25.390625
1212		23.437500
1213		25.390625
1214		23.437500
1215		27.343750
1216		25.390625
1217		29.296875
1218		27.343750
1219		29.296875
1220		27.343750
1221		31.250000
1222		29.296875
1223		33.203125
1224		31.250000
1225		33.203125
1226		31.250000
1227		35.156250
1228		31.250000
1229		35.156250
1230		33.203125
1231		37.109375
1232		33.203125
1233		37.109375
1234		35.156250
1235		37.109375
1236		35.156250
1237		39.062500
1238		35.156250
1239		39.062500
1240		37.109375
1241		39.062500
1242		37.109375
1243		41.015625
1244		39.062500
1245		41.015625
1246		39.062500
1247		41.015625
1248		39.062500
1249		42.968750
1250		39.062500
1251		41.015625
1252		39.062500
1253		41.015625
1254		39.062500
1255		42.968750
1256		39.062500
1257		42.968750
1258		39.062500
1259		42.968750
1260		39.062500
1261		42.968750
1262		39.062500
1263		42.968750
1264		39.062500
1265		41.015625
1266		37.109375
1267		42.968750
1268		39.062500
1269		41.015625
1270		37.109375
1271		41.015625
1272		37.109375
1273		41.015625
1274		35.156250
1275		39.062500
1276		35.156250
1277		39.062500
1278		35.156250
1279		39.062500
1280		33.203125
1281		37.109375
1282		33.203125
1283		37.109375
1284		33.203125
1285		35.156250
1286		31.250000
1287		35.156250
1288		31.250000
1289		35.156250
1290		29.296875
1291		33.203125
1292		29.296875
1293		31.250000
1294		27.343750
1295		29.296875
1296		25.390625
1297		29.296875
1298		25.390625
1299		27.343750
1300		23.437500
1301		27.343750
1302		21.484375
1303		25.390625
1304		19.531250
1305		23.437500
1306		19.531250
1307		21.484375
1308		17.578125
1309		21.484375
1310		15.625000
1311		19.531250
1312		13.671875
1313		17.578125
1314		11.718750
1315		15.625000
1316		11.718750
1317		15.625000
1318		9.765625
1319		13.671875
1320		7.812500
1321		11.718750
1322		7.812500
1323		9.765625
1324		3.906250
1325		7.812500
1326		3.906250
1327		7.812500
1328		1.953125
1329		5.859375
1330		0.000000
1331		3.906250
1332		-1.953125
1333		1.953125
1334		-1.953125
1335		0.000000
1336		-3.906250
1337		-1.953125
1338		-5.859375
1339		-1.953125
1340		-7.812500
1341		-3.906250
1342		-9.765625
1343		-3.906250
1344		-9.765625
1345		-5.859375
1346		-11.718750
1347		-7.812500
1348		-11.718750
1349		-7.812500
1350		-13.671875
1351		-9.765625
1352		-15.625000
1353		-11.718750
1354		-17.578125
1355		-13.671875
1356		-17.578125
1357		-13.671875
1358		-17.578125
1359		-15.625000
1360		-19.531250
1361		-15.625000
1362		-19.531250
1363		-15.625000
1364		-19.531250
1365		-17.578125
1366		-21.484375
1367		-17.578125
1368		-21.484375
1369		-19.531250
1370		-21.484375
1371		-19.531250
1372		-23.437500
1373		-19.531250
1374		-23.437500
1375		-19.531250
1376		-23.437500
1377		-19.531250
1378		-23.437500
1379		-21.484375
1380		-23.437500
1381		-19.531250
1382		-23.437500
1383		-21.484375
1384		-23.437500
1385		-21.484375
1386		-23.437500
1387		-21.484375
1388		-25.390625
1389		-19.531250
1390		-23.437500
1391		-21.484375
1392		-23.437500
1393		-19.531250
1394		-21.484375
1395		-19.531250
1396		-21.484375
1397		-19.531250
1398		-21.484375
1399		-17.578125
1400		-21.484375
1401		-17.578125
1402		-19.531250
1403		-17.578125
1404		-19.531250
1405		-15.625000
1406		-19.531250
1407		-15.625000
1408		-17.578125
1409		-13.671875
1410		-15.625000
1411		-13.671875
1412		-15.625000
1413		-11.718750
1414		-13.671875
1415		-11.718750
1416		-13.671875
1417		-7.812500
1418		-11.718750
1419		-9.765625
1420		-9.765625
1421		-7.812500
1422		-9.765625
1423		-5.859375
1424		-7.812500
1425		-3.906250
1426		-5.859375
1427		-1.953125
1428		-5.859375
1429		-1.953125
1430		-3.906250
1431		0.000000
1432		-1.953125
1433		1.953125
1434		0.000000
1435		3.906250
1436		0.000000
1437		3.906250
1438		1.953125
1439		5.859375
1440		3.906250
1441		7.812500
1442		5.859375
1443		9.765625
1444		5.859375
1445		11.718750
1446		7.812500
1447		11.718750
1448		9.765625
1449		13.671875
1450		11.718750
1451		15.625000
1452		13.671875
1453		15.625000
1454		15.625000
1455		17.578125
1456		15.625000
1457		19.531250
1458		17.578125
1459		21.484375
1460		19.531250
1461		23.437500
1462		21.484375
1463		25.390625
1464		21.484375
1465		25.390625
1466		23.437500
1467		27.343750
1468		23.437500
1469		27.343750
1470		25.390625
1471		29.296875
1472		27.343750
1473		31.250000
1474		27.343750
1475		31.250000
1476		29.296875
1477		33.203125
1478		31.250000
1479		33.203125
1480		31.250000
1481		35.156250
1482		33.203125
1483		35.156250
1484		33.203125
1485		37.109375
1486		35.156250
1487		37.109375
1488		35.156250
1489		39.062500
1490		37.109375
1491		39.062500
1492		37.109375
1493		41.015625
1494		37.109375
1495		41.015625
1496		37.109375
1497		41.015625
1498		39.062500
1499		41.015625
1500		39.062500
1501		42.968750
1502		39.062500
1503		41.015625
1504		39.062500
1505		41.015625
1506		39.062500
1507		42.968750
1508		39.062500
1509		42.968750
1510		39.062500
1511		42.968750
1512		39.062500
1513		42.968750
1514		39.062500
1515		42.968750
1516		39.062500
1517		42.968750
1518		39.062500
1519		42.968750
1520		39.062500
1521		41.015625
1522		37.109375
1523		41.015625
1524		37.109375
1525		41.015625
1526		37.109375
1527		41.015625
1528		37.109375
1529		39.062500
1530		37.109375
1531		39.062500
1532		35.156250
1533		39.062500
1534		33.203125
1535		37.109375
1536		33.203125
1537		37.109375
1538		33.203125
1539		35.156250
1540		31.250000
1541		35.156250
1542		31.250000
1543		33.203125
1544		29.296875
1545		33.203125
1546		27.343750
1547		31.250000
1548		25.390625
1549		29.296875
1550		25.390625
1551		29.296875
1552		23.437500
1553		27.343750
1554		23.437500
1555		25.390625
1556		21.484375
1557		25.390625
1558		19.531250
1559		23.437500
1560		17.578125
1561		21.484375
1562		17.578125
1563		21.484375
1564		15.625000
1565		19.531250
1566		13.671875
1567		17.578125
1568		11.718750
1569		17.578125
1570		9.765625
1571		13.671875
1572		9.765625
1573		11.718750
1574		7.812500
1575		11.718750
1576		5.859375
1577		9.765625
1578		3.906250
1579		7.812500
1580		1.953125
1581		5.859375
1582		1.953125
1583		5.859375
1584		0.000000
1585		3.906250
1586		-1.953125
1587		1.953125
1588		-3.906250
1589		0.000000
1590		-5.859375
1591		-1.953125
1592		-5.859375
1593		-1.953125
1594		-7.812500
1595		-3.906250
1596		-9.765625
1597		-5.859375
1598		-9.765625
1599		-5.859375
1600		-11.718750
1601		-7.812500
1602		-13.671875
1603		-9.765625
1604		-13.671875
1605		-11.718750
1606		-15.625000
1607		-11.718750
1608		-15.625000
1609		-13.671875
1610		-17.578125
1611		-13.671875
1612		-17.578125
1613		-15.625000
1614		-19.531250
1615		-15.625000
1616		-19.531250
1617		-17.578125
1618		-21.484375
1619		-17.578125
1620		-21.484375
1621		-17.578125
1622		-21.484375
1623		-19.531250
1624		-23.437500
1625		-19.531250
1626		-23.437500
1627		-19.531250
1628		-23.437500
1629		-19.531250
1630		-23.437500
1631		-19.531250
1632		-23.437500
1633		-19.531250
1634		-23.437500
1635		-21.484375
1636		-25.390625
1637		-21.484375
1638		-23.437500
1639		-21.484375
1640		-23.437500
1641		-19.531250
1642		-23.437500
1643		-19.531250
1644		-23.437500
1645		-19.531250
1646		-23.437500
1647		-19.531250
1648		-23.437500
1649		-19.531250
1650		-21.484375
1651		-17.578125
1652		-21.484375
1653		-17.578125
1654		-21.484375
1655		-17.578125
1656		-19.531250
1657		-17.578125
1658		-19.531250
1659		-15.625000
1660		-17.578125
1661		-15.625000
1662		-17.578125
1663		-13.671875
1664		-15.625000
1665		-13.671875
1666		-15.625000
1667		-11.718750
1668		-13.671875
1669		-9.765625
1670		-13.671875
1671		-9.765625
1672		-11.718750
1673		-7.812500
1674		-9.765625
1675		-5.859375
1676		-9.765625
1677		-5.859375
1678		-7.812500
1679		-3.906250
1680		-5.859375
1681		-1.953125
1682		-3.906250
1683		-1.953125
1684		-3.906250
1685		0.000000
1686		-1.953125
1687		1.953125
1688		0.000000
1689		3.906250
1690		0.000000
1691		7.812500
1692		1.953125
1693		7.812500
1694		3.906250
1695		7.812500
1696		5.859375
1697		9.765625
1698		5.859375
1699		13.671875
1700		9.765625
1701		11.718750
1702		7.812500
1703		15.625000
1704		11.718750
1705		15.625000
1706		13.671875
1707		17.578125
1708		13.671875
1709		21.484375
1710		15.625000
1711		21.484375
1712		17.578125
1713		21.484375
1714		19.531250
1715		23.437500
1716		19.531250
1717		25.390625
1718		21.484375
1719		27.343750
1720		23.437500
1721		27.343750
1722		25.390625
1723		27.343750
1724		25.390625
1725		31.250000
1726		25.390625
1727		33.203125
1728		27.343750
1729		33.203125
1730		29.296875
1731		35.156250
1732		29.296875
1733		37.109375
1734		29.296875
1735		37.109375
1736		31.250000
1737		37.109375
1738		35.156250
1739		37.109375
1740		35.156250
1741		37.109375
1742		33.203125
1743		41.015625
1744		35.156250
1745		41.015625
1746		35.156250
1747		41.015625
1748		35.156250
1749		42.968750
1750		37.109375
1751		42.968750
1752		37.109375
1753		42.968750
1754		37.109375
1755		41.015625
1756		39.062500
1757		41.015625
1758		37.109375
1759		42.968750
1760		37.109375
1761		44.921875
1762		37.109375
1763		44.921875
1764		37.109375
1765		44.921875
1766		37.109375
1767		44.921875
1768		37.109375
1769		44.921875
1770		37.109375
1771		44.921875
1772		39.062500
1773		41.015625
1774		37.109375
1775		41.015625
1776		37.109375
1777		42.968750
1778		35.156250
1779		42.968750
1780		35.156250
1781		41.015625
1782		33.203125
1783		41.015625
1784		33.203125
1785		41.015625
1786		33.203125
1787		39.062500
1788		35.156250
1789		37.109375
1790		33.203125
1791		37.109375
1792		29.296875
1793		37.109375
1794		29.296875
1795		35.156250
1796		27.343750
1797		35.156250
1798		27.343750
1799		33.203125
1800		25.390625
1801		33.203125
1802		23.437500
1803		31.250000
1804		23.437500
1805		31.250000
1806		23.437500
1807		27.343750
1808		19.531250
1809		25.390625
1810		19.531250
1811		27.343750
1812		17.578125
1813		25.390625
1814		17.578125
1815		23.437500
1816		13.671875
1817		21.484375
1818		11.718750
1819		19.531250
1820		11.718750
1821		19.531250
1822		11.718750
1823		15.625000
1824		9.765625
1825		13.671875
1826		7.812500
1827		13.671875
1828		5.859375
1829		13.671875
1830		3.906250
1831		11.718750
1832		1.953125
1833		9.765625
1834		0.000000
1835		7.812500
1836		-1.953125
1837		5.859375
1838		0.000000
1839		3.906250
1840		-1.953125
1841		1.953125
1842		-5.859375
1843		1.953125
1844		-5.859375
1845		0.000000
1846		-7.812500
1847		0.000000
1848		-9.765625
1849		-1.953125
1850		-11.718750
1851		-3.906250
1852		-13.671875
1853		-5.859375
1854		-13.671875
1855		-7.812500
1856		-11.718750
1857		-9.765625
1858		-15.625000
1859		-9.765625
1860		-17.578125
1861		-9.765625
1862		-19.531250
1863		-9.765625
1864		-19.531250
1865		-11.718750
1866		-19.531250
1867		-13.671875
1868		-21.484375
1869		-13.671875
1870		-21.484375
1871		-15.625000
1872		-19.531250
1873		-17.578125
1874		-21.484375
1875		-17.578125
1876		-23.437500
1877		-17.578125
1878		-23.437500
1879		-17.578125
1880		-25.390625
1881		-17.578125
1882		-25.390625
1883		-17.578125
1884		-25.390625
1885		-17.578125
1886		-25.390625
1887		-19.531250
1888		-25.390625
1889		-19.531250
1890		-23.437500
1891		-21.484375
1892		-23.437500
1893		-19.531250
1894		-25.390625
1895		-17.578125
1896		-25.390625
1897		-17.578125
1898		-25.390625
1899		-17.578125
1900		-25.390625
1901		-17.578125
1902		-23.437500
1903		-15.625000
1904		-23.437500
1905		-15.625000
1906		-19.531250
1907		-17.578125
1908		-19.531250
1909		-15.625000
1910		-21.484375
1911		-13.671875
1912		-21.484375
1913		-13.671875
1914		-19.531250
1915		-11.718750
1916		-19.531250
1917		-11.718750
1918		-17.578125
1919		-9.765625
1920		-15.625000
1921		-9.765625
1922		-13.671875
1923		-9.765625
1924		-11.718750
1925		-9.765625
1926		-13.671875
1927		-5.859375
1928		-11.718750
1929		-3.906250
1930		-9.765625
1931		-3.906250
1932		-7.812500
1933		-1.953125
1934		-7.812500
1935		0.000000
1936		-5.859375
1937		1.953125
1938		-3.906250
1939		1.953125
1940		0.000000
1941		1.953125
1942		0.000000
1943		5.859375
1944		0.000000
1945		7.812500
1946		1.953125
1947		7.812500
1948		1.953125
1949		9.765625
1950		3.906250
1951		11.718750
1952		5.859375
1953		13.671875
1954		7.812500
1955		15.625000
1956		11.718750
1957		13.671875
1958		13.671875
1959		15.625000
1960		13.671875
1961		19.531250
1962		13.671875
1963		21.484375
1964		15.625000
1965		23.437500
1966		17.578125
1967		23.437500
1968		17.578125
1969		25.390625
1970		19.531250
1971		27.343750
1972		21.484375
1973		27.343750
1974		25.390625
1975		27.343750
1976		25.390625
1977		31.250000
1978		25.390625
1979		33.203125
1980		25.390625
1981		33.203125
1982		27.343750
1983		35.156250
1984		29.296875
1985		35.156250
1986		29.296875
1987		37.109375
1988		31.250000
1989		37.109375
1990		33.203125
1991		37.109375
1992		35.156250
1993		37.109375
1994		33.203125
1995		41.015625
1996		33.203125
1997		41.015625
1998		35.156250
1999		41.015625
2000		35.156250
2001		42.968750
2002		35.156250
2003		42.968750
2004		35.156250
2005		42.968750
2006		37.109375
2007		42.968750
2008		39.062500
2009		41.015625
2010		37.109375
2011		44.921875
2012		37.109375
2013		44.921875
2014		37.109375
2015		44.921875
2016		37.109375
2017		44.921875
2018		37.109375
2019		44.921875
2020		37.109375
2021		44.921875
2022		37.109375
2023		44.921875
2024		39.062500
2025		41.015625
2026		39.062500
2027		41.015625
2028		37.109375
2029		42.968750
2030		37.109375
2031		42.968750
2032		35.156250
2033		42.968750
2034		35.156250
2035		42.968750
2036		35.156250
2037		41.015625
2038		33.203125
2039		41.015625
2040		33.203125
2041		39.062500
2042		33.203125
2043		37.109375
2044		31.250000
2045		37.109375
2046		29.296875
2047		37.109375
2048		29.296875
2049		35.156250
2050		27.343750
2051		35.156250
2052		25.390625
2053		33.203125
2054		25.390625
2055		33.203125
2056		25.390625
2057		31.250000
2058		25.390625
2059		27.343750
2060		21.484375
2061		27.343750
2062		19.531250
2063		27.343750
2064		19.531250
2065		25.390625
2066		17.578125
2067		25.390625
2068		15.625000
2069		23.437500
2070		13.671875
2071		21.484375
2072		13.671875
2073		19.531250
2074		13.671875
2075		17.578125
2076		11.718750
2077		15.625000
2078		7.812500
2079		15.625000
2080		5.859375
2081		13.671875
2082		5.859375
2083		11.718750
2084		3.906250
2085		9.765625
2086		1.953125
2087		9.765625
2088		0.000000
2089		7.812500
2090		0.000000
2091		5.859375
2092		0.000000
2093		1.953125
2094		-3.906250
2095		1.953125
2096		-5.859375
2097		1.953125
2098		-7.812500
2099		0.000000
2100		-9.765625
2101		-1.953125
2102		-9.765625
2103		-1.953125
2104		-11.718750
2105		-3.906250
2106		-11.718750
2107		-5.859375
2108		-11.718750
2109		-9.765625
2110		-13.671875
2111		-9.765625
2112		-15.625000
2113		-9.765625
2114		-17.578125
2115		-9.765625
2116		-19.531250
2117		-11.718750
2118		-19.531250
2119		-11.718750
2120		-19.531250
2121		-13.671875
2122		-23.437500
2123		-13.671875
2124		-19.531250
2125		-17.578125
2126		-19.531250
2127		-17.578125
2128		-23.437500
2129		-17.578125
2130		-23.437500
2131		-17.578125
2132		-23.437500
2133		-17.578125
2134		-25.390625
2135		-17.578125
2136		-25.390625
2137		-17.578125
2138		-25.390625
2139		-17.578125
2140		-25.390625
2141		-19.531250
2142		-23.437500
2143		-21.484375
2144		-25.390625
2145		-19.531250
2146		-25.390625
2147		-19.531250
2148		-25.390625
2149		-19.531250
2150		-25.390625
2151		-17.578125
2152		-25.390625
2153		-17.578125
2154		-23.437500
2155		-17.578125
2156		-23.437500
2157		-17.578125
2158		-21.484375
2159		-19.531250
2160		-19.531250
2161		-17.578125
2162		-21.484375
2163		-15.625000
2164		-21.484375
2165		-13.671875
2166		-19.531250
2167		-13.671875
2168		-19.531250
2169		-11.718750
2170		-17.578125
2171		-11.718750
2172		-17.578125
2173		-9.765625
2174		-15.625000
2175		-9.765625
2176		-11.718750
2177		-9.765625
2178		-11.718750
2179		-5.859375
2180		-11.718750
2181		-5.859375
2182		-11.718750
2183		-3.906250
2184		-9.765625
2185		-1.953125
2186		-7.812500
2187		0.000000
2188		-7.812500
2189		0.000000
2190		-5.859375
2191		1.953125
2192		-1.953125
2193		1.953125
2194		0.000000
2195		3.906250
2196		-1.953125
2197		5.859375
2198		0.000000
2199		7.812500
2200		1.953125
2201		9.765625
2202		3.906250
2203		11.718750
2204		5.859375
2205		13.671875
2206		7.812500
2207		13.671875
2208		9.765625
2209		15.625000
2210		11.718750
2211		15.625000
2212		11.718750
2213		19.531250
2214		13.671875
2215		21.484375
2216		13.671875
2217		21.484375
2218		15.625000
2219		23.437500
2220		17.578125
2221		25.390625
2222		19.531250
2223		25.390625
2224		19.531250
2225		27.343750
2226		23.437500
2227		27.343750
2228		25.390625
2229		29.296875
2230		23.437500
2231		31.250000
2232		25.390625
2233		33.203125
2234		25.390625
2235		35.156250
2236		27.343750
2237		35.156250
2238		29.296875
2239		35.156250
2240		29.296875
2241		37.109375
2242		33.203125
2243		35.156250
2244		33.203125
2245		37.109375
2246		33.203125
2247		39.062500
2248		33.203125
2249		41.015625
2250		33.203125
2251		41.015625
2252		35.156250
2253		42.968750
2254		35.156250
2255		42.968750
2256		35.156250
2257		42.968750
2258		37.109375
2259		42.968750
2260		39.062500
2261		41.015625
2262		37.109375
2263		42.968750
2264		37.109375
2265		44.921875
2266		37.109375
2267		44.921875
2268		37.109375
2269		44.921875
2270		37.109375
2271		44.921875
2272		37.109375
2273		44.921875
2274		37.109375
2275		44.921875
2276		39.062500
2277		42.968750
2278		39.062500
2279		41.015625
2280		37.109375
2281		42.968750
2282		37.109375
2283		42.968750
2284		35.156250
2285		42.968750
2286		35.156250
2287		41.015625
2288		35.156250
2289		41.015625
2290		33.203125
2291		41.015625
2292		35.156250
2293		39.062500
2294		35.156250
2295		37.109375
2296		31.250000
2297		37.109375
2298		29.296875
2299		37.109375
2300		29.296875
2301		37.109375
2302		27.343750
2303		35.156250
2304		27.343750
2305		35.156250
2306		25.390625
2307		33.203125
2308		25.390625
2309		33.203125
2310		25.390625
2311		29.296875
2312		23.437500
2313		29.296875
2314		21.484375
2315		29.296875
2316		19.531250
2317		27.343750
2318		17.578125
2319		25.390625
2320		15.625000
2321		23.437500
2322		15.625000
2323		21.484375
2324		13.671875
2325		21.484375
2326		13.671875
2327		17.578125
2328		11.718750
2329		15.625000
2330		9.765625
2331		15.625000
2332		7.812500
2333		15.625000
2334		5.859375
2335		13.671875
2336		3.906250
2337		11.718750
2338		3.906250
2339		9.765625
2340		1.953125
2341		7.812500
2342		0.000000
2343		7.812500
2344		0.000000
2345		3.906250
2346		-3.906250
2347		3.906250
2348		-3.906250
2349		1.953125
2350		-5.859375
2351		1.953125
2352		-7.812500
2353		0.000000
2354		-9.765625
2355		-1.953125
2356		-11.718750
2357		-3.906250
2358		-11.718750
2359		-3.906250
2360		-11.718750
2361		-7.812500
2362		-11.718750
2363		-9.765625
2364		-15.625000
2365		-7.812500
2366		-17.578125
2367		-9.765625
2368		-17.578125
2369		-11.718750
2370		-17.578125
2371		-11.718750
2372		-19.531250
2373		-11.718750
2374		-21.484375
2375		-13.671875
2376		-21.484375
2377		-15.625000
2378		-19.531250
2379		-17.578125
2380		-23.437500
2381		-15.625000
2382		-23.437500
2383		-17.578125
2384		-23.437500
2385		-17.578125
2386		-23.437500
2387		-17.578125
2388		-25.390625
2389		-17.578125
2390		-25.390625
2391		-17.578125
2392		-25.390625
2393		-17.578125
2394		-23.437500
2395		-21.484375
2396		-23.437500
2397		-19.531250
2398		-25.390625
2399		-17.578125
2400		-25.390625
2401		-17.578125
2402		-25.390625
2403		-17.578125
2404		-25.390625
2405		-17.578125
2406		-23.437500
2407		-17.578125
2408		-23.437500
2409		-17.578125
2410		-21.484375
2411		-17.578125
2412		-19.531250
2413		-17.578125
2414		-21.484375
2415		-15.625000
2416		-21.484375
2417		-13.671875
2418		-19.531250
2419		-13.671875
2420		-19.531250
2421		-11.718750
2422		-19.531250
2423		-11.718750
2424		-17.578125
2425		-11.718750
2426		-17.578125
2427		-9.765625
2428		-13.671875
2429		-9.765625
2430		-13.671875
2431		-5.859375
2432		-13.671875
2433		-5.859375
2434		-11.718750
2435		-3.906250
2436		-9.765625
2437		-3.906250
2438		-9.765625
2439		-1.953125
2440		-7.812500
2441		0.000000
2442		-5.859375
2443		0.000000
2444		-3.906250
2445		0.000000
2446		-1.953125
2447		1.953125
2448		-1.953125
2449		5.859375
2450		0.000000
2451		7.812500
2452		0.000000
2453		9.765625
2454		1.953125
2455		9.765625
2456		3.906250
2457		11.718750
2458		5.859375
2459		13.671875
2460		7.812500
2461		13.671875
2462		11.718750
2463		13.671875
2464		11.718750
2465		17.578125
2466		11.718750
2467		19.531250
2468		13.671875
2469		21.484375
2470		15.625000
2471		23.437500
2472		17.578125
2473		23.437500
2474		17.578125
2475		25.390625
2476		19.531250
2477		27.343750
2478		23.437500
2479		25.390625
2480		25.390625
2481		29.296875
2482		23.437500
2483		31.250000
2484		25.390625
2485		31.250000
2486		25.390625
2487		33.203125
2488		27.343750
2489		35.156250
2490		29.296875
2491		35.156250
2492		29.296875
2493		37.109375
2494		33.203125
2495		35.156250
2496		33.203125
2497		37.109375
2498		33.203125
2499		39.062500
2500		33.203125
2501		41.015625
2502		33.203125
2503		41.015625
2504		35.156250
2505		41.015625
2506		35.156250
2507		42.968750
2508		35.156250
2509		42.968750
2510		37.109375
2511		42.968750
2512		39.062500
2513		41.015625
2514		37.109375
2515		44.921875
2516		37.109375
2517		44.921875
2518		37.109375
2519		44.921875
2520		39.062500
2521		44.921875
2522		39.062500
2523		44.921875
2524		39.062500
2525		44.921875
2526		39.062500
2527		44.921875
2528		39.062500
2529		42.968750
2530		39.062500
2531		42.968750
2532		37.109375
2533		44.921875
2534		37.109375
2535		42.968750
2536		37.109375
2537		42.968750
2538		37.109375
2539		42.968750
2540		35.156250
2541		42.968750
2542		35.156250
2543		41.015625
2544		35.156250
2545		41.015625
2546		35.156250
2547		37.109375
2548		31.250000
2549		39.062500
2550		31.250000
2551		39.062500
2552		29.296875
2553		37.109375
2554		29.296875
2555		37.109375
2556		29.296875
2557		35.156250
2558		27.343750
2559		33.203125
2560		27.343750
2561		33.203125
2562		27.343750
2563		29.296875
2564		25.390625
2565		29.296875
2566		21.484375
2567		29.296875
2568		21.484375
2569		27.343750
2570		19.531250
2571		27.343750
2572		17.578125
2573		25.390625
2574		15.625000
2575		25.390625
2576		15.625000
2577		21.484375
2578		15.625000
2579		19.531250
2580		13.671875
2581		17.578125
2582		9.765625
2583		17.578125
2584		7.812500
2585		15.625000
2586		7.812500
2587		13.671875
2588		5.859375
2589		13.671875
2590		3.906250
2591		11.718750
2592		1.953125
2593		9.765625
2594		1.953125
2595		7.812500
2596		1.953125
2597		5.859375
2598		-1.953125
2599		3.906250
2600		-3.906250
2601		3.906250
2602		-5.859375
2603		1.953125
2604		-5.859375
2605		0.000000
2606		-7.812500
2607		0.000000
2608		-9.765625
2609		-1.953125
2610		-9.765625
2611		-3.906250
2612		-9.765625
2613		-7.812500
2614		-11.718750
2615		-7.812500
2616		-13.671875
2617		-7.812500
2618		-15.625000
2619		-7.812500
2620		-17.578125
2621		-9.765625
2622		-17.578125
2623		-11.718750
2624		-19.531250
2625		-11.718750
2626		-19.531250
2627		-11.718750
2628		-19.531250
2629		-13.671875
2630		-19.531250
2631		-17.578125
2632		-23.437500
2633		-15.625000
2634		-23.437500
2635		-15.625000
2636		-23.437500
2637		-17.578125
2638		-23.437500
2639		-17.578125
2640		-23.437500
2641		-17.578125
2642		-25.390625
2643		-17.578125
2644		-25.390625
2645		-17.578125
2646		-23.437500
2647		-19.531250
2648		-23.437500
2649		-19.531250
2650		-25.390625
2651		-17.578125
2652		-25.390625
2653		-17.578125
2654		-25.390625
2655		-17.578125
2656		-25.390625
2657		-17.578125
2658		-23.437500
2659		-17.578125
2660		-23.437500
2661		-17.578125
2662		-21.484375
2663		-19.531250
2664		-19.531250
2665		-17.578125
2666		-21.484375
2667		-15.625000
2668		-21.484375
2669		-13.671875
2670		-21.484375
2671		-13.671875
2672		-19.531250
2673		-13.671875
2674		-19.531250
2675		-11.718750
2676		-17.578125
2677		-11.718750
2678		-17.578125
2679		-9.765625
2680		-13.671875
2681		-11.718750
2682		-13.671875
2683		-7.812500
2684		-13.671875
2685		-5.859375
2686		-11.718750
2687		-5.859375
2688		-11.718750
2689		-3.906250
2690		-9.765625
2691		-1.953125
2692		-7.812500
2693		0.000000
2694		-5.859375
2695		0.000000
2696		-3.906250
2697		0.000000
2698		-1.953125
2699		1.953125
2700		-1.953125
2701		5.859375
2702		0.000000
2703		5.859375
2704		0.000000
2705		7.812500
2706		1.953125
2707		9.765625
2708		3.906250
2709		11.718750
2710		5.859375
2711		13.671875
2712		7.812500
2713		13.671875
2714		9.765625
2715		13.671875
2716		9.765625
2717		17.578125
2718		11.718750
2719		19.531250
2720		13.671875
2721		21.484375
2722		13.671875
2723		21.484375
2724		15.625000
2725		23.437500
2726		17.578125
2727		25.390625
2728		19.531250
2729		25.390625
2730		23.437500
2731		25.390625
2732		23.437500
2733		27.343750
2734		23.437500
2735		31.250000
2736		25.390625
2737		31.250000
2738		25.390625
2739		33.203125
2740		27.343750
2741		33.203125
2742		29.296875
2743		35.156250
2744		29.296875
2745		37.109375
2746		31.250000
2747		35.156250
2748		33.203125
2749		37.109375
2750		33.203125
2751		39.062500
2752		33.203125
2753		41.015625
2754		33.203125
2755		41.015625
2756		35.156250
2757		41.015625
2758		35.156250
2759		42.968750
2760		35.156250
2761		42.968750
2762		37.109375
2763		42.968750
2764		39.062500
2765		41.015625
2766		39.062500
2767		42.968750
2768		37.109375
2769		44.921875
2770		37.109375
2771		44.921875
2772		37.109375
2773		44.921875
2774		39.062500
2775		44.921875
2776		37.109375
2777		44.921875
2778		39.062500
2779		44.921875
2780		39.062500
2781		42.968750
2782		41.015625
2783		42.968750
2784		37.109375
2785		44.921875
2786		37.109375
2787		44.921875
2788		37.109375
2789		44.921875
2790		37.109375
2791		42.968750
2792		35.156250
2793		42.968750
2794		35.156250
2795		42.968750
2796		35.156250
2797		41.015625
2798		37.109375
2799		39.062500
2800		33.203125
2801		39.062500
2802		33.203125
2803		39.062500
2804		31.250000
2805		39.062500
2806		31.250000
2807		37.109375
2808		29.296875
2809		37.109375
2810		27.343750
2811		35.156250
2812		27.343750
2813		35.156250
2814		27.343750
2815		31.250000
2816		27.343750
2817		29.296875
2818		23.437500
2819		31.250000
2820		21.484375
2821		29.296875
2822		21.484375
2823		27.343750
2824		19.531250
2825		27.343750
2826		17.578125
2827		25.390625
2828		15.625000
2829		23.437500
2830		17.578125
2831		19.531250
2832		15.625000
2833		17.578125
2834		11.718750
2835		17.578125
2836		9.765625
2837		17.578125
2838		9.765625
2839		15.625000
2840		7.812500
2841		13.671875
2842		5.859375
2843		13.671875
2844		3.906250
2845		11.718750
2846		3.906250
2847		9.765625
2848		3.906250
2849		5.859375
2850		0.000000
2851		3.906250
2852		-1.953125
2853		3.906250
2854		-1.953125
2855		3.906250
2856		-5.859375
2857		1.953125
2858		-5.859375
2859		0.000000
2860		-7.812500
2861		-1.953125
2862		-9.765625
2863		-1.953125
2864		-9.765625
2865		-5.859375
2866		-9.765625
2867		-7.812500
2868		-11.718750
2869		-7.812500
2870		-13.671875
2871		-7.812500
2872		-15.625000
2873		-9.765625
2874		-15.625000
2875		-9.765625
2876		-17.578125
2877		-9.765625
2878		-17.578125
2879		-11.718750
2880		-17.578125
2881		-13.671875
2882		-17.578125
2883		-15.625000
2884		-19.531250
2885		-15.625000
2886		-19.531250
2887		-17.578125
2888		-21.484375
2889		-17.578125
2890		-21.484375
2891		-17.578125
2892		-23.437500
2893		-17.578125
2894		-21.484375
2895		-19.531250
2896		-21.484375
2897		-19.531250
2898		-21.484375
2899		-19.531250
2900		-21.484375
2901		-19.531250
2902		-23.437500
2903		-19.531250
2904		-23.437500
2905		-19.531250
2906		-23.437500
2907		-19.531250
2908		-21.484375
2909		-19.531250
2910		-23.437500
2911		-17.578125
2912		-21.484375
2913		-19.531250
2914		-21.484375
2915		-17.578125
2916		-21.484375
2917		-17.578125
2918		-21.484375
2919		-17.578125
2920		-19.531250
2921		-15.625000
2922		-19.531250
2923		-15.625000
2924		-17.578125
2925		-15.625000
2926		-17.578125
2927		-13.671875
2928		-17.578125
2929		-13.671875
2930		-15.625000
2931		-11.718750
2932		-13.671875
2933		-11.718750
2934		-13.671875
2935		-9.765625
2936		-11.718750
2937		-7.812500
2938		-9.765625
2939		-7.812500
2940		-9.765625
2941		-5.859375
2942		-7.812500
2943		-5.859375
2944		-7.812500
2945		-1.953125
2946		-5.859375
2947		-1.953125
2948		-3.906250
2949		0.000000
2950		-1.953125
2951		0.000000
2952		-1.953125
2953		3.906250
2954		0.000000
2955		3.906250
2956		1.953125
2957		5.859375
2958		3.906250
2959		7.812500
2960		3.906250
2961		9.765625
2962		5.859375
2963		9.765625
2964		7.812500
2965		11.718750
2966		9.765625
2967		13.671875
2968		9.765625
2969		15.625000
2970		13.671875
2971		15.625000
2972		13.671875
2973		17.578125
2974		15.625000
2975		19.531250
2976		17.578125
2977		21.484375
2978		19.531250
2979		23.437500
2980		19.531250
2981		23.437500
2982		21.484375
2983		25.390625
2984		23.437500
2985		27.343750
2986		23.437500
2987		29.296875
2988		25.390625
2989		29.296875
2990		27.343750
2991		31.250000
2992		29.296875
2993		31.250000
2994		29.296875
2995		33.203125
2996		31.250000
2997		33.203125
2998		29.296875
2999		35.156250
3000		33.203125
3001		35.156250
3002		33.203125
3003		37.109375
3004		35.156250
3005		39.062500
3006		35.156250
3007		39.062500
3008		37.109375
3009		39.062500
3010		37.109375
3011		41.015625
3012		37.109375
3013		41.015625
3014		37.109375
3015		42.968750
3016		39.062500
3017		41.015625
3018		39.062500
3019		44.921875
3020		39.062500
3021		42.968750
3022		41.015625
3023		42.968750
3024		41.015625
3025		42.968750
3026		41.015625
3027		42.968750
3028		41.015625
3029		42.968750
3030		41.015625
3031		42.968750
3032		41.015625
3033		42.968750
3034		41.015625
3035		42.968750
3036		39.062500
3037		44.921875
3038		39.062500
3039		42.968750
3040		39.062500
3041		42.968750
3042		39.062500
3043		41.015625
3044		37.109375
3045		41.015625
3046		37.109375
3047		41.015625
3048		37.109375
3049		41.015625
3050		37.109375
3051		39.062500
3052		33.203125
3053		41.015625
3054		35.156250
3055		39.062500
3056		33.203125
3057		37.109375
3058		33.203125
3059		37.109375
3060		31.250000
3061		35.156250
3062		31.250000
3063		35.156250
3064		29.296875
3065		33.203125
3066		29.296875
3067		31.250000
3068		27.343750
3069		31.250000
3070		25.390625
3071		31.250000
3072		25.390625
3073		29.296875
3074		23.437500
3075		27.343750
3076		21.484375
3077		25.390625
3078		21.484375
3079		23.437500
3080		19.531250
3081		23.437500
3082		17.578125
3083		21.484375
3084		17.578125
3085		19.531250
3086		13.671875
3087		19.531250
3088		13.671875
3089		17.578125
3090		11.718750
3091		15.625000
3092		9.765625
3093		13.671875
3094		7.812500
3095		11.718750
3096		5.859375
3097		9.765625
3098		5.859375
3099		9.765625
3100		3.906250
3101		7.812500
3102		0.000000
3103		5.859375
3104		0.000000
3105		3.906250
3106		-1.953125
3107		1.953125
3108		-1.953125
3109		1.953125
3110		-3.906250
3111		0.000000
3112		-5.859375
3113		-1.953125
3114		-7.812500
3115		-3.906250
3116		-7.812500
3117		-5.859375
3118		-9.765625
3119		-5.859375
3120		-9.765625
3121		-5.859375
3122		-11.718750
3123		-7.812500
3124		-13.671875
3125		-9.765625
3126		-15.625000
3127		-9.765625
3128		-15.625000
3129		-11.718750
3130		-15.625000
3131		-13.671875
3132		-17.578125
3133		-13.671875
3134		-17.578125
3135		-15.625000
3136		-19.531250
3137		-15.625000
3138		-19.531250
3139		-15.625000
3140		-19.531250
3141		-17.578125
3142		-19.531250
3143		-17.578125
3144		-21.484375
3145		-17.578125
3146		-21.484375
3147		-19.531250
3148		-23.437500
3149		-19.531250
3150		-21.484375
3151		-19.531250
3152		-21.484375
3153		-19.531250
3154		-23.437500
3155		-19.531250
3156		-23.437500
3157		-19.531250
3158		-23.437500
3159		-19.531250
3160		-23.437500
3161		-19.531250
3162		-23.437500
3163		-19.531250
3164		-21.484375
3165		-19.531250
3166		-21.484375
3167		-17.578125
3168		-21.484375
3169		-19.531250
3170		-21.484375
3171		-17.578125
3172		-19.531250
3173		-17.578125
3174		-19.531250
3175		-15.625000
3176		-19.531250
3177		-15.625000
3178		-17.578125
3179		-15.625000
3180		-17.578125
3181		-13.671875
3182		-15.625000
3183		-11.718750
3184		-15.625000
3185		-11.718750
3186		-13.671875
3187		-9.765625
3188		-13.671875
3189		-9.765625
3190		-11.718750
3191		-7.812500
3192		-9.765625
3193		-7.812500
3194		-7.812500
3195		-5.859375
3196		-7.812500
3197		-3.906250
3198		-5.859375
3199		-1.953125
3200		-3.906250
3201		-1.953125
3202		-3.906250
3203		0.000000
3204		-1.953125
3205		1.953125
3206		-1.953125
3207		3.906250
3208		0.000000
3209		3.906250
3210		1.953125
3211		5.859375
3212		3.906250
3213		7.812500
3214		5.859375
3215		7.812500
3216		5.859375
3217		9.765625
3218		9.765625
3219		11.718750
3220		9.765625
3221		13.671875
3222		11.718750
3223		15.625000
3224		13.671875
3225		17.578125
3226		13.671875
3227		17.578125
3228		15.625000
3229		19.531250
3230		17.578125
3231		21.484375
3232		19.531250
3233		23.437500
3234		21.484375
3235		23.437500
3236		23.437500
3237		25.390625
3238		23.437500
3239		27.343750
3240		25.390625
3241		27.343750
3242		25.390625
3243		29.296875
3244		27.343750
3245		31.250000
3246		29.296875
3247		31.250000
3248		29.296875
3249		33.203125
3250		31.250000
3251		33.203125
3252		33.203125
3253		35.156250
3254		33.203125
3255		37.109375
3256		35.156250
3257		37.109375
3258		35.156250
3259		39.062500
3260		35.156250
3261		39.062500
3262		37.109375
3263		39.062500
3264		37.109375
3265		41.015625
3266		37.109375
3267		41.015625
3268		39.062500
3269		41.015625
3270		39.062500
3271		41.015625
3272		39.062500
3273		42.968750
3274		39.062500
3275		42.968750
3276		41.015625
3277		42.968750
3278		41.015625
3279		42.968750
3280		41.015625
3281		42.968750
3282		39.062500
3283		42.968750
3284		41.015625
3285		42.968750
3286		41.015625
3287		42.968750
3288		41.015625
3289		44.921875
3290		41.015625
3291		42.968750
3292		39.062500
3293		42.968750
3294		39.062500
3295		41.015625
3296		39.062500
3297		41.015625
3298		39.062500
3299		41.015625
3300		37.109375
3301		41.015625
3302		37.109375
3303		39.062500
3304		35.156250
3305		39.062500
3306		35.156250
3307		39.062500
3308		35.156250
3309		37.109375
3310		33.203125
3311		37.109375
3312		33.203125
3313		37.109375
3314		31.250000
3315		35.156250
3316		29.296875
3317		33.203125
3318		29.296875
3319		33.203125
3320		29.296875
3321		31.250000
3322		27.343750
3323		31.250000
3324		25.390625
3325		29.296875
3326		25.390625
3327		27.343750
3328		23.437500
3329		25.390625
3330		21.484375
3331		25.390625
3332		19.531250
3333		23.437500
3334		19.531250
3335		21.484375
3336		17.578125
3337		21.484375
3338		15.625000
3339		19.531250
3340		13.671875
3341		17.578125
3342		11.718750
3343		15.625000
3344		11.718750
3345		13.671875
3346		9.765625
3347		13.671875
3348		7.812500
3349		11.718750
3350		5.859375
3351		9.765625
3352		3.906250
3353		7.812500
3354		3.906250
3355		5.859375
3356		1.953125
3357		5.859375
3358		0.000000
3359		3.906250
3360		-1.953125
3361		1.953125
3362		-3.906250
3363		0.000000
3364		-3.906250
3365		-1.953125
3366		-5.859375
3367		-1.953125
3368		-7.812500
3369		-1.953125
3370		-7.812500
3371		-5.859375
3372		-9.765625
3373		-5.859375
3374		-11.718750
3375		-7.812500
3376		-11.718750
3377		-9.765625
3378		-13.671875
3379		-9.765625
3380		-13.671875
3381		-11.718750
3382		-15.625000
3383		-11.718750
3384		-15.625000
3385		-13.671875
3386		-17.578125
3387		-15.625000
3388		-19.531250
3389		-15.625000
3390		-19.531250
3391		-15.625000
3392		-19.531250
3393		-17.578125
3394		-19.531250
3395		-17.578125
3396		-21.484375
3397		-17.578125
3398		-21.484375
3399		-17.578125
3400		-21.484375
3401		-17.578125
3402		-21.484375
3403		-19.531250
3404		-21.484375
3405		-19.531250
3406		-23.437500
3407		-19.531250
3408		-21.484375
3409		-19.531250
3410		-23.437500
3411		-19.531250
3412		-23.437500
3413		-19.531250
3414		-23.437500
3415		-17.578125
3416		-21.484375
3417		-19.531250
3418		-23.437500
3419		-17.578125
3420		-21.484375
3421		-19.531250
3422		-21.484375
3423		-17.578125
3424		-21.484375
3425		-17.578125
3426		-19.531250
3427		-15.625000
3428		-19.531250
3429		-15.625000
3430		-17.578125
3431		-15.625000
3432		-17.578125
3433		-13.671875
3434		-17.578125
3435		-11.718750
3436		-15.625000
3437		-11.718750
3438		-13.671875
3439		-11.718750
3440		-13.671875
3441		-9.765625
3442		-13.671875
3443		-7.812500
3444		-11.718750
3445		-7.812500
3446		-9.765625
3447		-5.859375
3448		-7.812500
3449		-5.859375
3450		-7.812500
3451		-3.906250
3452		-5.859375
3453		-1.953125
3454		-3.906250
3455		-1.953125
3456		-1.953125
3457		0.000000
3458		-1.953125
3459		1.953125
3460		0.000000
3461		3.906250
3462		1.953125
3463		5.859375
3464		3.906250
3465		5.859375
3466		3.906250
3467		7.812500
3468		5.859375
3469		9.765625
3470		7.812500
3471		11.718750
3472		9.765625
3473		13.671875
3474		11.718750
3475		13.671875
3476		11.718750
3477		15.625000
3478		13.671875
3479		17.578125
3480		15.625000
3481		19.531250
3482		17.578125
3483		21.484375
3484		17.578125
3485		23.437500
3486		21.484375
3487		23.437500
3488		21.484375
3489		25.390625
3490		23.437500
3491		27.343750
3492		23.437500
3493		27.343750
3494		25.390625
3495		29.296875
3496		27.343750
3497		29.296875
3498		27.343750
3499		31.250000
3500		29.296875
3501		33.203125
3502		29.296875
3503		33.203125
3504		31.250000
3505		35.156250
3506		33.203125
3507		35.156250
3508		33.203125
3509		37.109375
3510		35.156250
3511		39.062500
3512		35.156250
3513		39.062500
3514		37.109375
3515		39.062500
3516		37.109375
3517		39.062500
3518		37.109375
3519		41.015625
3520		39.062500
3521		41.015625
3522		39.062500
3523		41.015625
3524		39.062500
3525		42.968750
3526		39.062500
3527		42.968750
3528		41.015625
3529		42.968750
3530		41.015625
3531		42.968750
3532		41.015625
3533		42.968750
3534		41.015625
3535		42.968750
3536		41.015625
3537		42.968750
3538		41.015625
3539		42.968750
3540		39.062500
3541		44.921875
3542		41.015625
3543		42.968750
3544		39.062500
3545		42.968750
3546		39.062500
3547		42.968750
3548		39.062500
3549		42.968750
3550		39.062500
3551		41.015625
3552		37.109375
3553		42.968750
3554		37.109375
3555		41.015625
3556		37.109375
3557		39.062500
3558		35.156250
3559		39.062500
3560		35.156250
3561		39.062500
3562		35.156250
3563		37.109375
3564		33.203125
3565		37.109375
3566		31.250000
3567		35.156250
3568		31.250000
3569		35.156250
3570		31.250000
3571		33.203125
3572		29.296875
3573		31.250000
3574		27.343750
3575		31.250000
3576		27.343750
3577		29.296875
3578		25.390625
3579		29.296875
3580		23.437500
3581		27.343750
3582		23.437500
3583		25.390625
3584		21.484375
3585		25.390625
3586		19.531250
3587		23.437500
3588		17.578125
3589		21.484375
3590		15.625000
3591		19.531250
3592		15.625000
3593		17.578125
3594		13.671875
3595		17.578125
3596		11.718750
3597		15.625000
3598		9.765625
3599		15.625000
3600		9.765625
3601		13.671875
3602		5.859375
3603		11.718750
3604		5.859375
3605		9.765625
3606		3.906250
3607		7.812500
3608		1.953125
3609		5.859375
3610		0.000000
3611		3.906250
3612		0.000000
3613		3.906250
3614		-1.953125
3615		1.953125
3616		-3.906250
3617		0.000000
3618		-5.859375
3619		0.000000
3620		-5.859375
3621		-1.953125
3622		-7.812500
3623		-3.906250
3624		-9.765625
3625		-5.859375
3626		-9.765625
3627		-5.859375
3628		-11.718750
3629		-7.812500
3630		-13.671875
3631		-7.812500
3632		-13.671875
3633		-9.765625
3634		-15.625000
3635		-11.718750
3636		-17.578125
3637		-11.718750
3638		-17.578125
3639		-13.671875
3640		-17.578125
3641		-15.625000
3642		-17.578125
3643		-15.625000
3644		-19.531250
3645		-15.625000
3646		-19.531250
3647		-17.578125
3648		-21.484375
3649		-17.578125
3650		-21.484375
3651		-17.578125
3652		-21.484375
3653		-17.578125
3654		-21.484375
3655		-19.531250
3656		-21.484375
3657		-19.531250
3658		-23.437500
3659		-19.531250
3660		-23.437500
3661		-19.531250
3662		-23.437500
3663		-19.531250
3664		-21.484375
3665		-19.531250
3666		-23.437500
3667		-19.531250
3668		-23.437500
3669		-17.578125
3670		-23.437500
3671		-19.531250
3672		-21.484375
3673		-19.531250
3674		-21.484375
3675		-17.578125
3676		-21.484375
3677		-17.578125
3678		-21.484375
3679		-15.625000
3680		-19.531250
3681		-17.578125
3682		-19.531250
3683		-15.625000
3684		-17.578125
3685		-15.625000
3686		-17.578125
3687		-13.671875
3688		-15.625000
3689		-13.671875
3690		-15.625000
3691		-11.718750
3692		-13.671875
3693		-9.765625
3694		-13.671875
3695		-9.765625
3696		-11.718750
3697		-7.812500
3698		-9.765625
3699		-7.812500
3700		-9.765625
3701		-5.859375
3702		-7.812500
3703		-3.906250
3704		-7.812500
3705		-3.906250
3706		-5.859375
3707		-1.953125
3708		-3.906250
3709		0.000000
3710		-1.953125
3711		1.953125
3712		0.000000
3713		1.953125
3714		0.000000
3715		3.906250
3716		1.953125
3717		5.859375
3718		3.906250
3719		7.812500
3720		5.859375
3721		9.765625
3722		7.812500
3723		9.765625
3724		7.812500
3725		11.718750
3726		9.765625
3727		13.671875
3728		9.765625
3729		15.625000
3730		13.671875
3731		15.625000
3732		15.625000
3733		17.578125
3734		15.625000
3735		19.531250
3736		17.578125
3737		21.484375
3738		19.531250
3739		21.484375
3740		21.484375
3741		23.437500
3742		21.484375
3743		25.390625
3744		23.437500
3745		27.343750
3746		25.390625
3747		27.343750
3748		27.343750
3749		29.296875
3750		27.343750
3751		31.250000
3752		29.296875
3753		31.250000
3754		29.296875
3755		33.203125
3756		31.250000
3757		33.203125
3758		31.250000
3759		35.156250
3760		33.203125
3761		37.109375
3762		33.203125
3763		37.109375
3764		35.156250
3765		37.109375
3766		35.156250
3767		39.062500
3768		37.109375
3769		39.062500
3770		37.109375
3771		41.015625
3772		37.109375
3773		41.015625
3774		39.062500
3775		41.015625
3776		39.062500
3777		42.968750
3778		39.062500
3779		42.968750
3780		39.062500
3781		42.968750
3782		41.015625
3783		42.968750
3784		41.015625
3785		42.968750
3786		41.015625
3787		42.968750
3788		41.015625
3789		44.921875
3790		41.015625
3791		42.968750
3792		39.062500
3793		42.968750
3794		41.015625
3795		42.968750
3796		41.015625
3797		42.968750
3798		39.062500
3799		42.968750
3800		39.062500
3801		42.968750
3802		39.062500
3803		42.968750
3804		39.062500
3805		42.968750
3806		39.062500
3807		41.015625
3808		37.109375
3809		41.015625
3810		35.156250
3811		41.015625
3812		35.156250
3813		39.062500
3814		35.156250
3815		39.062500
3816		33.203125
3817		37.109375
3818		33.203125
3819		37.109375
3820		31.250000
3821		35.156250
3822		31.250000
3823		35.156250
3824		29.296875
3825		33.203125
3826		29.296875
3827		31.250000
3828		27.343750
3829		31.250000
3830		25.390625
3831		29.296875
3832		25.390625
3833		29.296875
3834		23.437500
3835		27.343750
3836		21.484375
3837		25.390625
3838		19.531250
3839		25.390625
3840		19.531250
3841		21.484375
3842		17.578125
3843		21.484375
3844		15.625000
3845		19.531250
3846		15.625000
3847		17.578125
3848		13.671875
3849		17.578125
3850		11.718750
3851		15.625000
3852		9.765625
3853		13.671875
3854		7.812500
3855		11.718750
3856		7.812500
3857		9.765625
3858		5.859375
3859		7.812500
3860		3.906250
3861		7.812500
3862		1.953125
3863		5.859375
3864		0.000000
3865		3.906250
3866		-1.953125
3867		1.953125
3868		-1.953125
3869		0.000000
3870		-3.906250
3871		0.000000
3872		-5.859375
3873		-1.953125
3874		-7.812500
3875		-3.906250
3876		-9.765625
3877		-3.906250
3878		-9.765625
3879		-5.859375
3880		-11.718750
3881		-5.859375
3882		-11.718750
3883		-7.812500
3884		-13.671875
3885		-9.765625
3886		-13.671875
3887		-9.765625
3888		-15.625000
3889		-11.718750
3890		-15.625000
3891		-13.671875
3892		-17.578125
3893		-13.671875
3894		-17.578125
3895		-13.671875
3896		-19.531250
3897		-15.625000
3898		-19.531250
3899		-15.625000
3900		-19.531250
3901		-17.578125
3902		-21.484375
3903		-17.578125
3904		-23.437500
3905		-17.578125
3906		-21.484375
3907		-17.578125
3908		-21.484375
3909		-19.531250
3910		-21.484375
3911		-19.531250
3912		-23.437500
3913		-19.531250
3914		-23.437500
3915		-19.531250
3916		-23.437500
3917		-19.531250
3918		-21.484375
3919		-19.531250
3920		-23.437500
3921		-19.531250
3922		-23.437500
3923		-19.531250
3924		-21.484375
3925		-19.531250
3926		-21.484375
3927		-17.578125
3928		-21.484375
3929		-17.578125
3930		-21.484375
3931		-17.578125
3932		-19.531250
3933		-17.578125
3934		-19.531250
3935		-15.625000
3936		-19.531250
3937		-15.625000
3938		-17.578125
3939		-13.671875
3940		-15.625000
3941		-13.671875
3942		-15.625000
3943		-13.671875
3944		-15.625000
3945		-11.718750
3946		-13.671875
3947		-9.765625
3948		-13.671875
3949		-9.765625
3950		-11.718750
3951		-7.812500
3952		-9.765625
3953		-5.859375
3954		-9.765625
3955		-3.906250
3956		-7.812500
3957		-3.906250
3958		-5.859375
3959		-3.906250
3960		-3.906250
3961		-1.953125
3962		-3.906250
3963		0.000000
3964		-1.953125
3965		1.953125
3966		0.000000
3967		3.906250
3968		0.000000
3969		5.859375
3970		1.953125
3971		5.859375
3972		3.906250
3973		7.812500
3974		5.859375
3975		9.765625
3976		7.812500
3977		9.765625
3978		9.765625
3979		11.718750
3980		9.765625
3981		13.671875
3982		11.718750
3983		15.625000
3984		13.671875
3985		17.578125
3986		15.625000
3987		19.531250
3988		15.625000
3989		21.484375
3990		17.578125
3991		21.484375
3992		19.531250
3993		23.437500
3994		21.484375
3995		25.390625
3996		21.484375
3997		25.390625
3998		23.437500
3999		27.343750
4000		23.437500
4001		27.343750
4002		25.390625
4003		29.296875
4004		27.343750
4005		31.250000
4006		29.296875
4007		33.203125
4008		31.250000
4009		33.203125
4010		31.250000
4011		35.156250
4012		31.250000
4013		35.156250
4014		33.203125
4015		37.109375
4016		35.156250
4017		37.109375
4018		35.156250
4019		39.062500
4020		35.156250
4021		39.062500
4022		35.156250
4023		41.015625
4024		37.109375
4025		41.015625
4026		37.109375
4027		41.015625
4028		39.062500
4029		42.968750
4030		39.062500
4031		42.968750
4032		39.062500
4033		42.968750
4034		39.062500
4035		42.968750
4036		39.062500
4037		42.968750
4038		41.015625
4039		42.968750
4040		39.062500
4041		42.968750
4042		41.015625
4043		42.968750
4044		41.015625
4045		42.968750
4046		41.015625
4047		42.968750
4048		39.062500
4049		42.968750
4050		41.015625
4051		42.968750
4052		39.062500
4053		42.968750
4054		39.062500
4055		42.968750
4056		37.109375
4057		42.968750
4058		39.062500
4059		41.015625
4060		37.109375
4061		41.015625
4062		37.109375
4063		41.015625
4064		35.156250
4065		39.062500
4066		35.156250
4067		39.062500
4068		35.156250
4069		37.109375
4070		33.203125
4071		37.109375
4072		33.203125
4073		37.109375
4074		31.250000
4075		35.156250
4076		31.250000
4077		33.203125
4078		29.296875
4079		33.203125
4080		27.343750
4081		31.250000
4082		27.343750
4083		29.296875
4084		25.390625
4085		29.296875
4086		25.390625
4087		27.343750
4088		23.437500
4089		27.343750
4090		21.484375
4091		25.390625
4092		19.531250
4093		23.437500
4094		17.578125
4095		21.484375
4096		17.578125
4097		21.484375
4098		15.625000
4099		17.578125
4100		13.671875
4101		17.578125
4102		11.718750
4103		15.625000
4104		9.765625
4105		13.671875
4106		7.812500
4107		13.671875
4108		7.812500
4109		11.718750
4110		5.859375
4111		9.765625
4112		3.906250
4113		7.812500
4114		1.953125
4115		5.859375
4116		1.953125
4117		5.859375
4118		0.000000
4119		3.906250
4120		-1.953125
4121		1.953125
4122		-3.906250
4123		0.000000
4124		-5.859375
4125		0.000000
4126		-5.859375
4127		-1.953125
4128		-7.812500
4129		-3.906250
4130		-7.812500
4131		-5.859375
4132		-9.765625
4133		-7.812500
4134		-11.718750
4135		-7.812500
4136		-11.718750
4137		-9.765625
4138		-13.671875
4139		-9.765625
4140		-15.625000
4141		-11.718750
4142		-15.625000
4143		-13.671875
4144		-17.578125
4145		-13.671875
4146		-17.578125
4147		-13.671875
4148		-19.531250
4149		-15.625000
4150		-19.531250
4151		-15.625000
4152		-19.531250
4153		-17.578125
4154		-21.484375
4155		-17.578125
4156		-21.484375
4157		-17.578125
4158		-21.484375
4159		-19.531250
4160		-21.484375
4161		-19.531250
4162		-23.437500
4163		-19.531250
4164		-23.437500
4165		-19.531250
4166		-23.437500
4167		-19.531250
4168		-23.437500
4169		-19.531250
4170		-23.437500
4171		-19.531250
4172		-23.437500
4173		-19.531250
4174		-23.437500
4175		-19.531250
4176		-21.484375
4177		-19.531250
4178		-21.484375
4179		-17.578125
4180		-21.484375
4181		-17.578125
4182		-21.484375
4183		-17.578125
4184		-19.531250
4185		-17.578125
4186		-19.531250
4187		-17.578125
4188		-19.531250
4189		-15.625000
4190		-19.531250
4191		-15.625000
4192		-17.578125
4193		-13.671875
4194		-15.625000
4195		-13.671875
4196		-15.625000
4197		-11.718750
4198		-15.625000
4199		-11.718750
4200		-13.671875
4201		-9.765625
4202		-11.718750
4203		-9.765625
4204		-11.718750
4205		-7.812500
4206		-9.765625
4207		-5.859375
4208		-7.812500
4209		-5.859375
4210		-7.812500
4211		-3.906250
4212		-5.859375
4213		-1.953125
4214		-3.906250
4215		0.000000
4216		-3.906250
4217		1.953125
4218		-1.953125
4219		1.953125
4220		0.000000
4221		3.906250
4222		1.953125
4223		5.859375
4224		1.953125
4225		5.859375
4226		5.859375
4227		7.812500
4228		5.859375
4229		9.765625
4230		7.812500
4231		11.718750
4232		9.765625
4233		13.671875
4234		11.718750
4235		13.671875
4236		13.671875
4237		17.578125
4238		13.671875
4239		17.578125
4240		15.625000
4241		19.531250
4242		15.625000
4243		19.531250
4244		19.531250
4245		21.484375
4246		19.531250
4247		23.437500
4248		21.484375
4249		25.390625
4250		23.437500
4251		25.390625
4252		25.390625
4253		27.343750
4254		25.390625
4255		29.296875
4256		27.343750
4257		29.296875
4258		27.343750
4259		31.250000
4260		29.296875
4261		33.203125
4262		31.250000
4263		33.203125
4264		31.250000
4265		35.156250
4266		33.203125
4267		35.156250
4268		33.203125
4269		37.109375
4270		35.156250
4271		37.109375
4272		35.156250
4273		39.062500
4274		37.109375
4275		41.015625
4276		37.109375
4277		39.062500
4278		37.109375
4279		41.015625
4280		37.109375
4281		41.015625
4282		39.062500
4283		41.015625
4284		39.062500
4285		42.968750
4286		39.062500
4287		42.968750
4288		39.062500
4289		42.968750
4290		41.015625
4291		42.968750
4292		41.015625
4293		42.968750
4294		41.015625
4295		42.968750
4296		39.062500
4297		44.921875
4298		41.015625
4299		42.968750
4300		41.015625
4301		42.968750
4302		39.062500
4303		42.968750
4304		39.062500
4305		42.968750
4306		39.062500
4307		42.968750
4308		39.062500
4309		42.968750
4310		39.062500
4311		41.015625
4312		39.062500
4313		41.015625
4314		37.109375
4315		41.015625
4316		37.109375
4317		39.062500
4318		35.156250
4319		39.062500
4320		35.156250
4321		39.062500
4322		33.203125
4323		37.109375
4324		33.203125
4325		37.109375
4326		33.203125
4327		35.156250
4328		31.250000
4329		35.156250
4330		29.296875
4331		33.203125
4332		29.296875
4333		31.250000
4334		27.343750
4335		31.250000
4336		25.390625
4337		29.296875
4338		25.390625
4339		29.296875
4340		23.437500
4341		27.343750
4342		21.484375
4343		25.390625
4344		21.484375
4345		23.437500
4346		19.531250
4347		23.437500
4348		17.578125
4349		21.484375
4350		15.625000
4351		19.531250
4352		15.625000
4353		19.531250
4354		13.671875
4355		17.578125
4356		11.718750
4357		15.625000
4358		9.765625
4359		13.671875
4360		7.812500
4361		11.718750
4362		7.812500
4363		9.765625
4364		5.859375
4365		9.765625
4366		3.906250
4367		7.812500
4368		1.953125
4369		5.859375
4370		1.953125
4371		3.906250
4372		0.000000
4373		3.906250
4374		-1.953125
4375		1.953125
4376		-3.906250
4377		0.000000
4378		-3.906250
4379		-1.953125
4380		-7.812500
4381		-3.906250
4382		-7.812500
4383		-3.906250
4384		-9.765625
4385		-5.859375
4386		-9.765625
4387		-5.859375
4388		-11.718750
4389		-7.812500
4390		-13.671875
4391		-9.765625
4392		-13.671875
4393		-9.765625
4394		-13.671875
4395		-11.718750
4396		-15.625000
4397		-13.671875
4398		-17.578125
4399		-13.671875
4400		-17.578125
4401		-13.671875
4402		-17.578125
4403		-15.625000
4404		-19.531250
4405		-15.625000
4406		-19.531250
4407		-15.625000
4408		-21.484375
4409		-17.578125
4410		-21.484375
4411		-17.578125
4412		-21.484375
4413		-19.531250
4414		-23.437500
4415		-19.531250
4416		-21.484375
4417		-19.531250
4418		-23.437500
4419		-19.531250
4420		-23.437500
4421		-19.531250
4422		-23.437500
4423		-19.531250
4424		-23.437500
4425		-19.531250
4426		-21.484375
4427		-19.531250
4428		-21.484375
4429		-19.531250
4430		-21.484375
4431		-19.531250
4432		-23.437500
4433		-17.578125
4434		-21.484375
4435		-17.578125
4436		-21.484375
4437		-17.578125
4438		-19.531250
4439		-17.578125
4440		-19.531250
4441		-15.625000
4442		-19.531250
4443		-15.625000
4444		-17.578125
4445		-15.625000
4446		-17.578125
4447		-13.671875
4448		-15.625000
4449		-13.671875
4450		-15.625000
4451		-11.718750
4452		-13.671875
4453		-9.765625
4454		-13.671875
4455		-9.765625
4456		-11.718750
4457		-7.812500
4458		-9.765625
4459		-5.859375
4460		-9.765625
4461		-5.859375
4462		-7.812500
4463		-3.906250
4464		-5.859375
4465		-1.953125
4466		-5.859375
4467		-1.953125
4468		-3.906250
4469		0.000000
4470		-1.953125
4471		1.953125
4472		-1.953125
4473		3.906250
4474		0.000000
4475		3.906250
4476		1.953125
4477		5.859375
4478		3.906250
4479		7.812500
4480		5.859375
4481		7.812500
4482		5.859375
4483		11.718750
4484		7.812500
4485		11.718750
4486		9.765625
4487		13.671875
4488		11.718750
4489		15.625000
4490		13.671875
4491		17.578125
4492		13.671875
4493		19.531250
4494		15.625000
4495		19.531250
4496		17.578125
4497		21.484375
4498		19.531250
4499		23.437500
4500		21.484375
4501		23.437500
4502		21.484375
4503		25.390625
4504		23.437500
4505		27.343750
4506		25.390625
4507		29.296875
4508		25.390625
4509		29.296875
4510		27.343750
4511		31.250000
4512		29.296875
4513		31.250000
4514		29.296875
4515		33.203125
4516		29.296875
4517		35.156250
4518		31.250000
4519		35.156250
4520		33.203125
4521		37.109375
4522		33.203125
4523		37.109375
4524		35.156250
4525		37.109375
4526		35.156250
4527		39.062500
4528		35.156250
4529		39.062500
4530		37.109375
4531		39.062500
4532		39.062500
4533		41.015625
4534		39.062500
4535		42.968750
4536		39.062500
4537		41.015625
4538		39.062500
4539		42.968750
4540		39.062500
4541		42.968750
4542		39.062500
4543		42.968750
4544		39.062500
4545		42.968750
4546		41.015625
4547		42.968750
4548		39.062500
4549		42.968750
4550		41.015625
4551		42.968750
4552		41.015625
4553		42.968750
4554		39.062500
4555		42.968750
4556		41.015625
4557		42.968750
4558		39.062500
4559		42.968750
4560		39.062500
4561		42.968750
4562		39.062500
4563		41.015625
4564		39.062500
4565		41.015625
4566		37.109375
4567		42.968750
4568		37.109375
4569		41.015625
4570		35.156250
4571		39.062500
4572		35.156250
4573		39.062500
4574		35.156250
4575		39.062500
4576		33.203125
4577		37.109375
4578		33.203125
4579		37.109375
4580		31.250000
4581		35.156250
4582		29.296875
4583		33.203125
4584		29.296875
4585		33.203125
4586		29.296875
4587		31.250000
4588		27.343750
4589		31.250000
4590		25.390625
4591		29.296875
4592		25.390625
4593		27.343750
4594		21.484375
4595		27.343750
4596		21.484375
4597		25.390625
4598		19.531250
4599		23.437500
4600		19.531250
4601		23.437500
4602		17.578125
4603		21.484375
4604		15.625000
4605		19.531250
4606		13.671875
4607		17.578125
4608		11.718750
4609		15.625000
4610		11.718750
4611		15.625000
4612		9.765625
4613		13.671875
4614		7.812500
4615		11.718750
4616		5.859375
4617		9.765625
4618		3.906250
4619		9.765625
4620		3.906250
4621		5.859375
4622		1.953125
4623		5.859375
4624		0.000000
4625		3.906250
4626		-1.953125
4627		1.953125
4628		-1.953125
4629		1.953125
4630		-3.906250
4631		-1.953125
4632		-5.859375
4633		-1.953125
4634		-7.812500
4635		-3.906250
4636		-7.812500
4637		-3.906250
4638		-9.765625
4639		-5.859375
4640		-11.718750
4641		-7.812500
4642		-11.718750
4643		-7.812500
4644		-13.671875
4645		-9.765625
4646		-13.671875
4647		-11.718750
4648		-15.625000
4649		-11.718750
4650		-17.578125
4651		-11.718750
4652		-17.578125
4653		-15.625000
4654		-17.578125
4655		-15.625000
4656		-19.531250
4657		-15.625000
4658		-19.531250
4659		-17.578125
4660		-19.531250
4661		-17.578125
4662		-21.484375
4663		-17.578125
4664		-21.484375
4665		-19.531250
4666		-21.484375
4667		-17.578125
4668		-21.484375
4669		-19.531250
4670		-23.437500
4671		-19.531250
4672		-21.484375
4673		-19.531250
4674		-23.437500
4675		-19.531250
4676		-23.437500
4677		-19.531250
4678		-23.437500
4679		-19.531250
4680		-23.437500
4681		-19.531250
4682		-21.484375
4683		-19.531250
4684		-23.437500
4685		-19.531250
4686		-21.484375
4687		-19.531250
4688		-21.484375
4689		-17.578125
4690		-21.484375
4691		-17.578125
4692		-19.531250
4693		-17.578125
4694		-19.531250
4695		-15.625000
4696		-17.578125
4697		-15.625000
4698		-17.578125
4699		-15.625000
4700		-17.578125
4701		-13.671875
4702		-15.625000
4703		-11.718750
4704		-15.625000
4705		-9.765625
4706		-13.671875
4707		-11.718750
4708		-13.671875
4709		-9.765625
4710		-11.718750
4711		-7.812500
4712		-9.765625
4713		-7.812500
4714		-9.765625
4715		-5.859375
4716		-7.812500
4717		-3.906250
4718		-5.859375
4719		-1.953125
4720		-3.906250
4721		-1.953125
4722		-3.906250
4723		0.000000
4724		-1.953125
4725		1.953125
4726		0.000000
4727		3.906250
4728		1.953125
4729		5.859375
4730		3.906250
4731		5.859375
4732		3.906250
4733		7.812500
4734		5.859375
4735		9.765625
4736		7.812500
4737		9.765625
4738		7.812500
4739		11.718750
4740		9.765625
4741		13.671875
4742		11.718750
4743		15.625000
4744		13.671875
4745		17.578125
4746		13.671875
4747		17.578125
4748		17.578125
4749		19.531250
4750		17.578125
4751		21.484375
4752		19.531250
4753		23.437500
4754		21.484375
4755		25.390625
4756		21.484375
4757		25.390625
4758		23.437500
4759		27.343750
4760		25.390625
4761		29.296875
4762		25.390625
4763		29.296875
4764		27.343750
4765		31.250000
4766		29.296875
4767		31.250000
4768		29.296875
4769		33.203125
4770		31.250000
4771		35.156250
4772		33.203125
4773		35.156250
4774		33.203125
4775		37.109375
4776		33.203125
4777		37.109375
4778		35.156250
4779		39.062500
4780		35.156250
4781		39.062500
4782		37.109375
4783		39.062500
4784		37.109375
4785		41.015625
4786		37.109375
4787		41.015625
4788		39.062500
4789		41.015625
4790		39.062500
4791		42.968750
4792		39.062500
4793		42.968750
4794		39.062500
4795		42.968750
4796		39.062500
4797		42.968750
4798		41.015625
4799		42.968750
4800		39.062500
4801		42.968750
4802		41.015625
4803		42.968750
4804		41.015625
4805		42.968750
4806		41.015625
4807		44.921875
4808		41.015625
4809		42.968750
4810		39.062500
4811		42.968750
4812		39.062500
4813		42.968750
4814		39.062500
4815		41.015625
4816		39.062500
4817		41.015625
4818		37.109375
4819		41.015625
4820		37.109375
4821		41.015625
4822		35.156250
4823		41.015625
4824		35.156250
4825		39.062500
4826		35.156250
4827		39.062500
4828		35.156250
4829		37.109375
4830		33.203125
4831		37.109375
4832		33.203125
4833		35.156250
4834		29.296875
4835		35.156250
4836		29.296875
4837		33.203125
4838		29.296875
4839		33.203125
4840		27.343750
4841		31.250000
4842		27.343750
4843		31.250000
4844		25.390625
4845		29.296875
4846		23.437500
4847		27.343750
4848		23.437500
4849		25.390625
4850		21.484375
4851		25.390625
4852		19.531250
4853		23.437500
4854		17.578125
4855		21.484375
4856		17.578125
4857		19.531250
4858		15.625000
4859		17.578125
4860		13.671875
4861		17.578125
4862		11.718750
4863		15.625000
4864		9.765625
4865		15.625000
4866		9.765625
4867		11.718750
4868		7.812500
4869		11.718750
4870		5.859375
4871		9.765625
4872		3.906250
4873		7.812500
4874		1.953125
4875		5.859375
4876		1.953125
4877		3.906250
4878		0.000000
4879		3.906250
4880		-3.906250
4881		1.953125
4882		-3.906250
4883		0.000000
4884		-5.859375
4885		-1.953125
4886		-7.812500
4887		-1.953125
4888		-7.812500
4889		-3.906250
4890		-7.812500
4891		-5.859375
4892		-9.765625
4893		-5.859375
4894		-11.718750
4895		-7.812500
4896		-13.671875
4897		-9.765625
4898		-13.671875
4899		-9.765625
4900		-13.671875
4901		-11.718750
4902		-17.578125
4903		-11.718750
4904		-17.578125
4905		-13.671875
4906		-17.578125
4907		-13.671875
4908		-17.578125
4909		-15.625000
4910		-19.531250
4911		-15.625000
4912		-19.531250
4913		-17.578125
4914		-21.484375
4915		-17.578125
4916		-21.484375
4917		-19.531250
4918		-23.437500
4919		-17.578125
4920		-21.484375
4921		-19.531250
4922		-21.484375
4923		-19.531250
4924		-23.437500
4925		-19.531250
4926		-23.437500
4927		-19.531250
4928		-23.437500
4929		-19.531250
4930		-23.437500
4931		-19.531250
4932		-23.437500
4933		-19.531250
4934		-21.484375
4935		-19.531250
4936		-23.437500
4937		-19.531250
4938		-21.484375
4939		-19.531250
4940		-21.484375
4941		-19.531250
4942		-21.484375
4943		-17.578125
4944		-21.484375
4945		-17.578125
4946		-19.531250
4947		-15.625000
4948		-19.531250
4949		-15.625000
4950		-17.578125
4951		-15.625000
4952		-17.578125
4953		-13.671875
4954		-15.625000
4955		-13.671875
4956		-15.625000
4957		-11.718750
4958		-15.625000
4959		-11.718750
4960		-13.671875
4961		-9.765625
4962		-11.718750
4963		-9.765625
4964		-11.718750
4965		-7.812500
4966		-9.765625
4967		-7.812500
4968		-7.812500
4969		-3.906250
4970		-7.812500
4971		-3.906250
4972		-5.859375
4973		-1.953125
4974		-3.906250
4975		-1.953125
4976		-1.953125
4977		0.000000
4978		-1.953125
4979		1.953125
4980		0.000000
4981		3.906250
4982		1.953125
4983		3.906250
4984		1.953125
4985		5.859375
4986		3.906250
4987		7.812500
4988		5.859375
4989		9.765625
4990		7.812500
4991		11.718750
4992		9.765625
4993		13.671875
4994		11.718750
4995		15.625000
4996		11.718750
4997		15.625000
4998		13.671875
4999		17.578125
5000		15.625000
5001		19.531250
5002		17.578125
5003		21.484375
5004		17.578125
5005		21.484375
5006		19.531250
5007		23.437500
5008		21.484375
5009		25.390625
5010		21.484375
5011		27.343750
5012		23.437500
5013		27.343750
5014		25.390625
5015		29.296875
5016		27.343750
5017		29.296875
5018		27.343750
5019		31.250000
5020		29.296875
5021		31.250000
5022		31.250000
5023		33.203125
5024		31.250000
5025		35.156250
5026		33.203125
5027		35.156250
5028		33.203125
5029		37.109375
5030		33.203125
5031		37.109375
5032		35.156250
5033		39.062500
5034		35.156250
5035		39.062500
5036		35.156250
5037		41.015625
5038		37.109375
5039		41.015625
5040		37.109375
5041		41.015625
5042		39.062500
5043		41.015625
5044		39.062500
5045		42.968750
5046		39.062500
5047		42.968750
5048		39.062500
5049		42.968750
5050		41.015625
5051		42.968750
5052		41.015625
5053		42.968750
5054		39.062500
5055		42.968750
5056		41.015625
5057		42.968750
5058		39.062500
5059		42.968750
5060		39.062500
5061		42.968750
5062		39.062500
5063		42.968750
5064		39.062500
5065		42.968750
5066		39.062500
5067		41.015625
5068		39.062500
5069		41.015625
5070		39.062500
5071		42.968750
5072		37.109375
5073		41.015625
5074		37.109375
5075		41.015625
5076		35.156250
5077		39.062500
5078		35.156250
5079		39.062500
5080		35.156250
5081		37.109375
5082		33.203125
5083		37.109375
5084		33.203125
5085		35.156250
5086		31.250000
5087		35.156250
5088		29.296875
5089		35.156250
5090		29.296875
5091		33.203125
5092		27.343750
5093		31.250000
5094		27.343750
5095		31.250000
5096		25.390625
5097		29.296875
5098		23.437500
5099		27.343750
5100		23.437500
5101		27.343750
5102		21.484375
5103		25.390625
5104		19.531250
5105		23.437500
5106		19.531250
5107		23.437500
5108		17.578125
5109		21.484375
5110		15.625000
5111		19.531250
5112		13.671875
5113		17.578125
5114		11.718750
5115		17.578125
5116		11.718750
5117		15.625000
5118		9.765625
5119		13.671875
5120		7.812500
5121		11.718750
5122		5.859375
5123		9.765625
5124		5.859375
5125		9.765625
5126		3.906250
5127		7.812500
5128		1.953125
5129		5.859375
5130		0.000000
5131		3.906250
5132		-1.953125
5133		1.953125
5134		-1.953125
5135		0.000000
5136		-3.906250
5137		-1.953125
5138		-5.859375
5139		-1.953125
5140		-7.812500
5141		-3.906250
5142		-7.812500
5143		-3.906250
5144		-9.765625
5145		-5.859375
5146		-11.718750
5147		-7.812500
5148		-11.718750
5149		-9.765625
5150		-13.671875
5151		-9.765625
5152		-13.671875
5153		-11.718750
5154		-15.625000
5155		-11.718750
5156		-17.578125
5157		-13.671875
5158		-17.578125
5159		-15.625000
5160		-19.531250
5161		-15.625000
5162		-19.531250
5163		-15.625000
5164		-19.531250
5165		-17.578125
5166		-21.484375
5167		-17.578125
5168		-21.484375
5169		-19.531250
5170		-23.437500
5171		-19.531250
5172		-23.437500
5173		-19.531250
5174		-23.437500
5175		-19.531250
5176		-23.437500
5177		-19.531250
5178		-23.437500
5179		-19.531250
5180		-23.437500
5181		-19.531250
5182		-23.437500
5183		-19.531250
5184		-23.437500
5185		-21.484375
5186		-23.437500
5187		-21.484375
5188		-23.437500
5189		-19.531250
5190		-23.437500
5191		-19.531250
5192		-23.437500
5193		-19.531250
5194		-21.484375
5195		-17.578125
5196		-21.484375
5197		-17.578125
5198		-21.484375
5199		-17.578125
5200		-19.531250
5201		-17.578125
5202		-19.531250
5203		-15.625000
5204		-19.531250
5205		-15.625000
5206		-17.578125
5207		-13.671875
5208		-17.578125
5209		-13.671875
5210		-15.625000
5211		-11.718750
5212		-15.625000
5213		-11.718750
5214		-13.671875
5215		-9.765625
5216		-13.671875
5217		-7.812500
5218		-11.718750
5219		-7.812500
5220		-9.765625
5221		-5.859375
5222		-9.765625
5223		-5.859375
5224		-7.812500
5225		-3.906250
5226		-5.859375
5227		-1.953125
5228		-3.906250
5229		0.000000
5230		-1.953125
5231		0.000000
5232		-1.953125
5233		1.953125
5234		-1.953125
5235		3.906250
5236		1.953125
5237		5.859375
5238		1.953125
5239		7.812500
5240		5.859375
5241		7.812500
5242		5.859375
5243		9.765625
5244		7.812500
5245		11.718750
5246		9.765625
5247		13.671875
5248		11.718750
5249		15.625000
5250		13.671875
5251		17.578125
5252		13.671875
5253		17.578125
5254		15.625000
5255		19.531250
5256		17.578125
5257		21.484375
5258		19.531250
5259		21.484375
5260		19.531250
5261		23.437500
5262		21.484375
5263		25.390625
5264		23.437500
5265		27.343750
5266		23.437500
5267		27.343750
5268		25.390625
5269		29.296875
5270		27.343750
5271		29.296875
5272		27.343750
5273		31.250000
5274		29.296875
5275		33.203125
5276		29.296875
5277		33.203125
5278		31.250000
5279		35.156250
5280		33.203125
5281		35.156250
5282		33.203125
5283		37.109375
5284		33.203125
5285		37.109375
5286		35.156250
5287		39.062500
5288		37.109375
5289		41.015625
5290		37.109375
5291		39.062500
5292		37.109375
5293		41.015625
5294		37.109375
5295		41.015625
5296		39.062500
5297		41.015625
5298		39.062500
5299		42.968750
5300		39.062500
5301		42.968750
5302		39.062500
5303		42.968750
5304		41.015625
5305		42.968750
5306		39.062500
5307		42.968750
5308		39.062500
5309		42.968750
5310		39.062500
5311		42.968750
5312		39.062500
5313		42.968750
5314		39.062500
5315		42.968750
5316		39.062500
5317		42.968750
5318		39.062500
5319		42.968750
5320		39.062500
5321		41.015625
5322		37.109375
5323		41.015625
5324		37.109375
5325		41.015625
5326		37.109375
5327		41.015625
5328		37.109375
5329		39.062500
5330		35.156250
5331		39.062500
5332		35.156250
5333		39.062500
5334		33.203125
5335		37.109375
5336		33.203125
5337		37.109375
5338		31.250000
5339		35.156250
5340		31.250000
5341		35.156250
5342		29.296875
5343		33.203125
5344		29.296875
5345		33.203125
5346		27.343750
5347		31.250000
5348		27.343750
5349		31.250000
5350		23.437500
5351		29.296875
5352		23.437500
5353		27.343750
5354		23.437500
5355		25.390625
5356		19.531250
5357		25.390625
5358		19.531250
5359		23.437500
5360		17.578125
5361		21.484375
5362		17.578125
5363		19.531250
5364		13.671875
5365		19.531250
5366		13.671875
5367		17.578125
5368		11.718750
5369		15.625000
5370		11.718750
5371		13.671875
5372		7.812500
5373		11.718750
5374		7.812500
5375		11.718750
5376		5.859375
5377		9.765625
5378		3.906250
5379		7.812500
5380		1.953125
5381		5.859375
5382		1.953125
5383		3.906250
5384		0.000000
5385		3.906250
5386		-1.953125
5387		1.953125
5388		-3.906250
5389		0.000000
5390		-3.906250
5391		0.000000
5392		-5.859375
5393		-1.953125
5394		-7.812500
5395		-3.906250
5396		-9.765625
5397		-5.859375
5398		-9.765625
5399		-7.812500
5400		-11.718750
5401		-7.812500
5402		-13.671875
5403		-9.765625
5404		-13.671875
5405		-9.765625
5406		-15.625000
5407		-11.718750
5408		-15.625000
5409		-13.671875
5410		-17.578125
5411		-13.671875
5412		-17.578125
5413		-15.625000
5414		-19.531250
5415		-15.625000
5416		-19.531250
5417		-17.578125
5418		-21.484375
5419		-17.578125
5420		-21.484375
5421		-17.578125
5422		-21.484375
5423		-17.578125
5424		-21.484375
5425		-19.531250
5426		-21.484375
5427		-19.531250
5428		-23.437500
5429		-19.531250
5430		-23.437500
5431		-19.531250
5432		-23.437500
5433		-19.531250
5434		-25.390625
5435		-19.531250
5436		-23.437500
5437		-21.484375
5438		-23.437500
5439		-21.484375
5440		-23.437500
5441		-19.531250
5442		-23.437500
5443		-19.531250
5444		-23.437500
5445		-19.531250
5446		-21.484375
5447		-19.531250
5448		-21.484375
5449		-17.578125
5450		-21.484375
5451		-17.578125
5452		-21.484375
5453		-17.578125
5454		-19.531250
5455		-17.578125
5456		-19.531250
5457		-15.625000
5458		-19.531250
5459		-15.625000
5460		-17.578125
5461		-13.671875
5462		-15.625000
5463		-13.671875
5464		-15.625000
5465		-11.718750
5466		-13.671875
5467		-9.765625
5468		-13.671875
5469		-9.765625
5470		-11.718750
5471		-7.812500
5472		-9.765625
5473		-7.812500
5474		-9.765625
5475		-5.859375
5476		-7.812500
5477		-3.906250
5478		-5.859375
5479		-3.906250
5480		-5.859375
5481		-1.953125
5482		-3.906250
5483		0.000000
5484		-1.953125
5485		1.953125
5486		-1.953125
5487		1.953125
5488		0.000000
5489		3.906250
5490		1.953125
5491		5.859375
5492		3.906250
5493		7.812500
5494		5.859375
5495		9.765625
5496		7.812500
5497		9.765625
5498		7.812500
5499		11.718750
5500		9.765625
5501		13.671875
5502		11.718750
5503		15.625000
5504		13.671875
5505		15.625000
5506		13.671875
5507		17.578125
5508		15.625000
5509		19.531250
5510		17.578125
5511		21.484375
5512		19.531250
5513		21.484375
5514		21.484375
5515		23.437500
5516		21.484375
5517		25.390625
5518		23.437500
5519		27.343750
5520		25.390625
5521		27.343750
5522		27.343750
5523		29.296875
5524		27.343750
5525		31.250000
5526		29.296875
5527		31.250000
5528		29.296875
5529		33.203125
5530		31.250000
5531		35.156250
5532		31.250000
5533		35.156250
5534		33.203125
5535		37.109375
5536		33.203125
5537		37.109375
5538		35.156250
5539		37.109375
5540		35.156250
5541		39.062500
5542		35.156250
5543		39.062500
5544		37.109375
5545		41.015625
5546		37.109375
5547		41.015625
5548		37.109375
5549		41.015625
5550		39.062500
5551		41.015625
5552		39.062500
5553		42.968750
5554		39.062500
5555		41.015625
5556		39.062500
5557		42.968750
5558		39.062500
5559		42.968750
5560		39.062500
5561		42.968750
5562		39.062500
5563		42.968750
5564		39.062500
5565		42.968750
5566		39.062500
5567		42.968750
5568		39.062500
5569		42.968750
5570		39.062500
5571		42.968750
5572		39.062500
5573		41.015625
5574		39.062500
5575		41.015625
5576		37.109375
5577		41.015625
5578		37.109375
5579		41.015625
5580		37.109375
5581		41.015625
5582		35.156250
5583		39.062500
5584		35.156250
5585		39.062500
5586		35.156250
5587		37.109375
5588		33.203125
5589		37.109375
5590		33.203125
5591		35.156250
5592		31.250000
5593		35.156250
5594		29.296875
5595		35.156250
5596		29.296875
5597		33.203125
5598		27.343750
5599		31.250000
5600		27.343750
5601		31.250000
5602		25.390625
5603		29.296875
5604		25.390625
5605		27.343750
5606		23.437500
5607		27.343750
5608		21.484375
5609		25.390625
5610		19.531250
5611		23.437500
5612		19.531250
5613		23.437500
5614		17.578125
5615		21.484375
5616		15.625000
5617		19.531250
5618		13.671875
5619		17.578125
5620		11.718750
5621		17.578125
5622		11.718750
5623		15.625000
5624		9.765625
5625		13.671875
5626		7.812500
5627		11.718750
5628		5.859375
5629		9.765625
5630		5.859375
5631		9.765625
5632		3.906250
5633		7.812500
5634		1.953125
5635		5.859375
5636		0.000000
5637		3.906250
5638		-1.953125
5639		1.953125
5640		-1.953125
5641		0.000000
5642		-3.906250
5643		0.000000
5644		-5.859375
5645		-1.953125
5646		-5.859375
5647		-3.906250
5648		-7.812500
5649		-3.906250
5650		-9.765625
5651		-5.859375
5652		-11.718750
5653		-7.812500
5654		-11.718750
5655		-9.765625
5656		-13.671875
5657		-9.765625
5658		-15.625000
5659		-11.718750
5660		-15.625000
5661		-11.718750
5662		-17.578125
5663		-13.671875
5664		-17.578125
5665		-13.671875
5666		-19.531250
5667		-13.671875
5668		-19.531250
5669		-15.625000
5670		-19.531250
5671		-17.578125
5672		-19.531250
5673		-17.578125
5674		-21.484375
5675		-19.531250
5676		-23.437500
5677		-17.578125
5678		-21.484375
5679		-19.531250
5680		-23.437500
5681		-19.531250
5682		-23.437500
5683		-19.531250
5684		-23.437500
5685		-19.531250
5686		-23.437500
5687		-19.531250
5688		-23.437500
5689		-21.484375
5690		-23.437500
5691		-21.484375
5692		-23.437500
5693		-19.531250
5694		-23.437500
5695		-19.531250
5696		-23.437500
5697		-19.531250
5698		-23.437500
5699		-19.531250
5700		-21.484375
5701		-17.578125
5702		-21.484375
5703		-17.578125
5704		-21.484375
5705		-17.578125
5706		-19.531250
5707		-17.578125
5708		-19.531250
5709		-15.625000
5710		-19.531250
5711		-15.625000
5712		-17.578125
5713		-13.671875
5714		-17.578125
5715		-13.671875
5716		-17.578125
5717		-11.718750
5718		-15.625000
5719		-11.718750
5720		-13.671875
5721		-9.765625
5722		-11.718750
5723		-9.765625
5724		-11.718750
5725		-7.812500
5726		-11.718750
5727		-5.859375
5728		-9.765625
5729		-5.859375
5730		-7.812500
5731		-3.906250
5732		-5.859375
5733		-1.953125
5734		-5.859375
5735		0.000000
5736		-3.906250
5737		1.953125
5738		-1.953125
5739		1.953125
5740		0.000000
5741		3.906250
5742		0.000000
5743		5.859375
5744		1.953125
5745		7.812500
5746		3.906250
5747		7.812500
5748		5.859375
5749		9.765625
5750		5.859375
5751		13.671875
5752		7.812500
5753		13.671875
5754		9.765625
5755		13.671875
5756		11.718750
5757		15.625000
5758		13.671875
5759		17.578125
5760		13.671875
5761		19.531250
5762		15.625000
5763		21.484375
5764		17.578125
5765		23.437500
5766		17.578125
5767		23.437500
5768		19.531250
5769		25.390625
5770		21.484375
5771		27.343750
5772		23.437500
5773		27.343750
5774		25.390625
5775		29.296875
5776		27.343750
5777		31.250000
5778		27.343750
5779		31.250000
5780		27.343750
5781		33.203125
5782		29.296875
5783		35.156250
5784		29.296875
5785		35.156250
5786		31.250000
5787		37.109375
5788		33.203125
5789		37.109375
5790		35.156250
5791		37.109375
5792		35.156250
5793		39.062500
5794		35.156250
5795		41.015625
5796		35.156250
5797		41.015625
5798		35.156250
5799		41.015625
5800		37.109375
5801		41.015625
5802		37.109375
5803		42.968750
5804		37.109375
5805		42.968750
5806		39.062500
5807		41.015625
5808		39.062500
5809		42.968750
5810		39.062500
5811		42.968750
5812		41.015625
5813		42.968750
5814		41.015625
5815		42.968750
5816		41.015625
5817		42.968750
5818		39.062500
5819		42.968750
5820		41.015625
5821		42.968750
5822		39.062500
5823		42.968750
5824		39.062500
5825		41.015625
5826		39.062500
5827		41.015625
5828		39.062500
5829		41.015625
5830		37.109375
5831		41.015625
5832		37.109375
5833		39.062500
5834		37.109375
5835		39.062500
5836		37.109375
5837		39.062500
5838		35.156250
5839		39.062500
5840		35.156250
5841		37.109375
5842		33.203125
5843		37.109375
5844		33.203125
5845		35.156250
5846		31.250000
5847		35.156250
5848		31.250000
5849		33.203125
5850		29.296875
5851		31.250000
5852		27.343750
5853		31.250000
5854		27.343750
5855		29.296875
5856		25.390625
5857		29.296875
5858		23.437500
5859		27.343750
5860		23.437500
5861		25.390625
5862		21.484375
5863		25.390625
5864		19.531250
5865		23.437500
5866		17.578125
5867		21.484375
5868		17.578125
5869		19.531250
5870		15.625000
5871		19.531250
5872		13.671875
5873		17.578125
5874		11.718750
5875		15.625000
5876		11.718750
5877		13.671875
5878		9.765625
5879		11.718750
5880		7.812500
5881		11.718750
5882		5.859375
5883		9.765625
5884		3.906250
5885		7.812500
5886		1.953125
5887		5.859375
5888		1.953125
5889		5.859375
5890		0.000000
5891		3.906250
5892		-1.953125
5893		1.953125
5894		-3.906250
5895		0.000000
5896		-3.906250
5897		-1.953125
5898		-5.859375
5899		-3.906250
5900		-7.812500
5901		-3.906250
5902		-9.765625
5903		-5.859375
5904		-9.765625
5905		-7.812500
5906		-11.718750
5907		-7.812500
5908		-11.718750
5909		-9.765625
5910		-17.578125
5911		-7.812500
5912		-17.578125
5913		-9.765625
5914		-17.578125
5915		-9.765625
5916		-19.531250
5917		-9.765625
5918		-17.578125
5919		-15.625000
5920		-19.531250
5921		-15.625000
5922		-19.531250
5923		-17.578125
5924		-19.531250
5925		-17.578125
5926		-21.484375
5927		-17.578125
5928		-25.390625
5929		-15.625000
5930		-25.390625
5931		-15.625000
5932		-25.390625
5933		-17.578125
5934		-23.437500
5935		-21.484375
5936		-23.437500
5937		-21.484375
5938		-23.437500
5939		-21.484375
5940		-23.437500
5941		-21.484375
5942		-23.437500
5943		-21.484375
5944		-27.343750
5945		-17.578125
5946		-25.390625
5947		-17.578125
5948		-25.390625
5949		-17.578125
5950		-23.437500
5951		-19.531250
5952		-21.484375
5953		-19.531250
5954		-21.484375
5955		-19.531250
5956		-21.484375
5957		-19.531250
5958		-21.484375
5959		-17.578125
5960		-21.484375
5961		-13.671875
5962		-23.437500
5963		-13.671875
5964		-21.484375
5965		-11.718750
5966		-21.484375
5967		-11.718750
5968		-15.625000
5969		-13.671875
5970		-15.625000
5971		-13.671875
5972		-13.671875
5973		-11.718750
5974		-13.671875
5975		-9.765625
5976		-11.718750
5977		-9.765625
5978		-13.671875
5979		-3.906250
5980		-13.671875
5981		-3.906250
5982		-11.718750
5983		-1.953125
5984		-7.812500
5985		-3.906250
5986		-5.859375
5987		-1.953125
5988		-3.906250
5989		-1.953125
5990		-3.906250
5991		0.000000
5992		-1.953125
5993		1.953125
5994		-1.953125
5995		5.859375
5996		-1.953125
5997		7.812500
5998		0.000000
5999		9.765625
6000		0.000000
6001		11.718750
6002		5.859375
6003		9.765625
6004		7.812500
6005		11.718750
6006		9.765625
6007		11.718750
6008		11.718750
6009		13.671875
6010		11.718750
6011		15.625000
6012		11.718750
6013		19.531250
6014		11.718750
6015		21.484375
6016		13.671875
6017		23.437500
6018		17.578125
6019		21.484375
6020		19.531250
6021		23.437500
6022		21.484375
6023		23.437500
6024		23.437500
6025		25.390625
6026		23.437500
6027		27.343750
6028		21.484375
6029		31.250000
6030		23.437500
6031		33.203125
6032		25.390625
6033		35.156250
6034		29.296875
6035		31.250000
6036		31.250000
6037		33.203125
6038		31.250000
6039		35.156250
6040		33.203125
6041		35.156250
6042		33.203125
6043		37.109375
6044		31.250000
6045		41.015625
6046		31.250000
6047		41.015625
6048		31.250000
6049		42.968750
6050		33.203125
6051		41.015625
6052		37.109375
6053		39.062500
6054		37.109375
6055		41.015625
6056		39.062500
6057		41.015625
6058		39.062500
6059		41.015625
6060		39.062500
6061		41.015625
6062		37.109375
6063		44.921875
6064		35.156250
6065		44.921875
6066		37.109375
6067		44.921875
6068		39.062500
6069		42.968750
6070		39.062500
6071		42.968750
6072		39.062500
6073		41.015625
6074		39.062500
6075		41.015625
6076		39.062500
6077		41.015625
6078		35.156250
6079		44.921875
6080		35.156250
6081		44.921875
6082		35.156250
6083		42.968750
6084		35.156250
6085		42.968750
6086		37.109375
6087		39.062500
6088		37.109375
6089		39.062500
6090		35.156250
6091		37.109375
6092		35.156250
6093		37.109375
6094		33.203125
6095		37.109375
6096		33.203125
6097		35.156250
6098		29.296875
6099		37.109375
6100		31.250000
6101		35.156250
6102		29.296875
6103		33.203125
6104		29.296875
6105		31.250000
6106		27.343750
6107		31.250000
6108		25.390625
6109		29.296875
6110		25.390625
6111		27.343750
6112		23.437500
6113		27.343750
6114		19.531250
6115		27.343750
6116		19.531250
6117		25.390625
6118		19.531250
6119		23.437500
6120		17.578125
6121		21.484375
6122		15.625000
6123		19.531250
6124		15.625000
6125		17.578125
6126		13.671875
6127		15.625000
6128		9.765625
6129		15.625000
6130		7.812500
6131		13.671875
6132		7.812500
6133		13.671875
6134		5.859375
6135		11.718750
6136		5.859375
6137		7.812500
6138		3.906250
6139		7.812500
6140		1.953125
6141		5.859375
6142		0.000000
6143		3.906250
6144		0.000000
6145		1.953125
6146		-1.953125
6147		0.000000
6148		-3.906250
6149		0.000000
6150		-5.859375
6151		-1.953125
6152		-7.812500
6153		-3.906250
6154		-7.812500
6155		-5.859375
6156		-9.765625
6157		-5.859375
6158		-11.718750
6159		-7.812500
6160		-11.718750
6161		-9.765625
6162		-13.671875
6163		-9.765625
6164		-13.671875
6165		-11.718750
6166		-15.625000
6167		-13.671875
6168		-17.578125
6169		-13.671875
6170		-17.578125
6171		-15.625000
6172		-17.578125
6173		-15.625000
6174		-19.531250
6175		-17.578125
6176		-19.531250
6177		-17.578125
6178		-21.484375
6179		-17.578125
6180		-21.484375
6181		-19.531250
6182		-21.484375
6183		-19.531250
6184		-23.437500
6185		-19.531250
6186		-23.437500
6187		-19.531250
6188		-23.437500
6189		-21.484375
6190		-23.437500
6191		-21.484375
6192		-23.437500
6193		-21.484375
6194		-23.437500
6195		-21.484375
6196		-23.437500
6197		-21.484375
6198		-23.437500
6199		-19.531250
6200		-23.437500
6201		-19.531250
6202		-23.437500
6203		-19.531250
6204		-23.437500
6205		-19.531250
6206		-21.484375
6207		-19.531250
6208		-21.484375
6209		-19.531250
6210		-21.484375
6211		-19.531250
6212		-21.484375
6213		-15.625000
6214		-19.531250
6215		-17.578125
6216		-19.531250
6217		-17.578125
6218		-17.578125
6219		-15.625000
6220		-17.578125
6221		-13.671875
6222		-17.578125
6223		-13.671875
6224		-15.625000
6225		-13.671875
6226		-13.671875
6227		-11.718750
6228		-13.671875
6229		-9.765625
6230		-11.718750
6231		-7.812500
6232		-11.718750
6233		-7.812500
6234		-9.765625
6235		-5.859375
6236		-7.812500
6237		-3.906250
6238		-7.812500
6239		-3.906250
6240		-5.859375
6241		-1.953125
6242		-3.906250
6243		0.000000
6244		-1.953125
6245		0.000000
6246		-1.953125
6247		3.906250
6248		0.000000
6249		5.859375
6250		1.953125
6251		5.859375
6252		3.906250
6253		7.812500
6254		3.906250
6255		9.765625
6256		5.859375
6257		9.765625
6258		7.812500
6259		11.718750
6260		9.765625
6261		13.671875
6262		11.718750
6263		13.671875
6264		11.718750
6265		15.625000
6266		13.671875
6267		17.578125
6268		15.625000
6269		19.531250
6270		17.578125
6271		21.484375
6272		17.578125
6273		21.484375
6274		21.484375
6275		23.437500
6276		21.484375
6277		25.390625
6278		23.437500
6279		25.390625
6280		23.437500
6281		29.296875
6282		25.390625
6283		29.296875
6284		27.343750
6285		29.296875
6286		27.343750
6287		31.250000
6288		29.296875
6289		33.203125
6290		31.250000
6291		33.203125
6292		31.250000
6293		35.156250
6294		33.203125
6295		35.156250
6296		31.250000
6297		39.062500
6298		33.203125
6299		37.109375
6300		35.156250
6301		37.109375
6302		37.109375
6303		39.062500
6304		35.156250
6305		41.015625
6306		37.109375
6307		41.015625
6308		37.109375
6309		41.015625
6310		39.062500
6311		41.015625
6312		39.062500
6313		41.015625
6314		37.109375
6315		42.968750
6316		39.062500
6317		42.968750
6318		39.062500
6319		41.015625
6320		39.062500
6321		42.968750
6322		39.062500
6323		42.968750
6324		39.062500
6325		41.015625
6326		39.062500
6327		42.968750
6328		39.062500
6329		41.015625
6330		37.109375
6331		41.015625
6332		39.062500
6333		41.015625
6334		39.062500
6335		41.015625
6336		37.109375
6337		41.015625
6338		37.109375
6339		41.015625
6340		37.109375
6341		41.015625
6342		37.109375
6343		39.062500
6344		35.156250
6345		37.109375
6346		35.156250
6347		37.109375
6348		33.203125
6349		39.062500
6350		33.203125
6351		35.156250
6352		31.250000
6353		33.203125
6354		29.296875
6355		33.203125
6356		29.296875
6357		33.203125
6358		27.343750
6359		31.250000
6360		27.343750
6361		29.296875
6362		25.390625
6363		29.296875
6364		23.437500
6365		27.343750
6366		21.484375
6367		25.390625
6368		21.484375
6369		25.390625
6370		19.531250
6371		23.437500
6372		17.578125
6373		21.484375
6374		17.578125
6375		19.531250
6376		15.625000
6377		19.531250
6378		13.671875
6379		17.578125
6380		11.718750
6381		15.625000
6382		11.718750
6383		15.625000
6384		9.765625
6385		13.671875
6386		7.812500
6387		11.718750
6388		5.859375
6389		9.765625
6390		3.906250
6391		7.812500
6392		1.953125
6393		5.859375
6394		1.953125
6395		3.906250
6396		0.000000
6397		3.906250
6398		-1.953125
6399		1.953125
6400		-3.906250
6401		0.000000
6402		-3.906250
6403		-1.953125
6404		-5.859375
6405		-1.953125
6406		-7.812500
6407		-3.906250
6408		-7.812500
6409		-5.859375
6410		-9.765625
6411		-7.812500
6412		-11.718750
6413		-7.812500
6414		-13.671875
6415		-9.765625
6416		-13.671875
6417		-11.718750
6418		-15.625000
6419		-11.718750
6420		-15.625000
6421		-13.671875
6422		-17.578125
6423		-13.671875
6424		-17.578125
6425		-15.625000
6426		-19.531250
6427		-15.625000
6428		-19.531250
6429		-17.578125
6430		-21.484375
6431		-17.578125
6432		-21.484375
6433		-19.531250
6434		-21.484375
6435		-19.531250
6436		-23.437500
6437		-19.531250
6438		-23.437500
6439		-19.531250
6440		-23.437500
6441		-21.484375
6442		-23.437500
6443		-21.484375
6444		-23.437500
6445		-21.484375
6446		-23.437500
6447		-21.484375
6448		-23.437500
6449		-21.484375
6450		-23.437500
6451		-21.484375
6452		-23.437500
6453		-21.484375
6454		-23.437500
6455		-21.484375
6456		-23.437500
6457		-21.484375
6458		-23.437500
6459		-19.531250
6460		-21.484375
6461		-19.531250
6462		-21.484375
6463		-19.531250
6464		-21.484375
6465		-19.531250
6466		-19.531250
6467		-17.578125
6468		-19.531250
6469		-17.578125
6470		-19.531250
6471		-15.625000
6472		-17.578125
6473		-15.625000
6474		-17.578125
6475		-15.625000
6476		-15.625000
6477		-13.671875
6478		-15.625000
6479		-11.718750
6480		-13.671875
6481		-11.718750
6482		-13.671875
6483		-9.765625
6484		-11.718750
6485		-7.812500
6486		-9.765625
6487		-7.812500
6488		-9.765625
6489		-5.859375
6490		-7.812500
6491		-3.906250
6492		-5.859375
6493		-3.906250
6494		-3.906250
6495		-1.953125
6496		-3.906250
6497		0.000000
6498		-1.953125
6499		1.953125
6500		0.000000
6501		1.953125
6502		0.000000
6503		3.906250
6504		1.953125
6505		5.859375
6506		3.906250
6507		7.812500
6508		5.859375
6509		9.765625
6510		7.812500
6511		9.765625
6512		9.765625
6513		11.718750
6514		9.765625
6515		13.671875
6516		11.718750
6517		15.625000
6518		13.671875
6519		17.578125
6520		15.625000
6521		17.578125
6522		15.625000
6523		19.531250
6524		17.578125
6525		21.484375
6526		19.531250
6527		23.437500
6528		21.484375
6529		23.437500
6530		21.484375
6531		25.390625
6532		23.437500
6533		27.343750
6534		23.437500
6535		29.296875
6536		25.390625
6537		29.296875
6538		27.343750
6539		31.250000
6540		29.296875
6541		31.250000
6542		29.296875
6543		33.203125
6544		31.250000
6545		33.203125
6546		31.250000
6547		35.156250
6548		33.203125
6549		37.109375
6550		31.250000
6551		37.109375
6552		33.203125
6553		39.062500
6554		35.156250
6555		37.109375
6556		37.109375
6557		39.062500
6558		37.109375
6559		39.062500
6560		37.109375
6561		41.015625
6562		37.109375
6563		41.015625
6564		39.062500
6565		41.015625
6566		37.109375
6567		42.968750
6568		37.109375
6569		42.968750
6570		39.062500
6571		41.015625
6572		39.062500
6573		42.968750
6574		39.062500
6575		41.015625
6576		39.062500
6577		41.015625
6578		39.062500
6579		41.015625
6580		39.062500
6581		41.015625
6582		37.109375
6583		42.968750
6584		37.109375
6585		42.968750
6586		39.062500
6587		41.015625
6588		37.109375
6589		41.015625
6590		37.109375
6591		39.062500
6592		37.109375
6593		39.062500
6594		37.109375
6595		39.062500
6596		35.156250
6597		37.109375
6598		35.156250
6599		37.109375
6600		31.250000
6601		39.062500
6602		31.250000
6603		37.109375
6604		31.250000
6605		35.156250
6606		31.250000
6607		33.203125
6608		29.296875
6609		33.203125
6610		27.343750
6611		31.250000
6612		27.343750
6613		29.296875
6614		25.390625
6615		29.296875
6616		23.437500
6617		29.296875
6618		21.484375
6619		27.343750
6620		21.484375
6621		25.390625
6622		21.484375
6623		23.437500
6624		19.531250
6625		21.484375
6626		17.578125
6627		21.484375
6628		15.625000
6629		19.531250
6630		13.671875
6631		17.578125
6632		11.718750
6633		15.625000
6634		9.765625
6635		17.578125
6636		9.765625
6637		15.625000
6638		7.812500
6639		11.718750
6640		5.859375
6641		9.765625
6642		5.859375
6643		7.812500
6644		3.906250
6645		7.812500
6646		1.953125
6647		5.859375
6648		0.000000
6649		3.906250
6650		-1.953125
6651		3.906250
6652		-3.906250
6653		1.953125
6654		-3.906250
6655		0.000000
6656		-5.859375
6657		-1.953125
6658		-5.859375
6659		-3.906250
6660		-7.812500
6661		-3.906250
6662		-9.765625
6663		-5.859375
6664		-11.718750
6665		-7.812500
6666		-15.625000
6667		-7.812500
6668		-15.625000
6669		-7.812500
6670		-13.671875
6671		-9.765625
6672		-15.625000
6673		-11.718750
6674		-15.625000
6675		-13.671875
6676		-17.578125
6677		-15.625000
6678		-17.578125
6679		-15.625000
6680		-19.531250
6681		-15.625000
6682		-19.531250
6683		-17.578125
6684		-21.484375
6685		-17.578125
6686		-23.437500
6687		-17.578125
6688		-21.484375
6689		-19.531250
6690		-23.437500
6691		-19.531250
6692		-23.437500
6693		-19.531250
6694		-23.437500
6695		-21.484375
6696		-23.437500
6697		-21.484375
6698		-23.437500
6699		-21.484375
6700		-25.390625
6701		-19.531250
6702		-25.390625
6703		-19.531250
6704		-23.437500
6705		-21.484375
6706		-23.437500
6707		-21.484375
6708		-23.437500
6709		-21.484375
6710		-23.437500
6711		-21.484375
6712		-23.437500
6713		-19.531250
6714		-21.484375
6715		-19.531250
6716		-21.484375
6717		-19.531250
6718		-21.484375
6719		-17.578125
6720		-19.531250
6721		-17.578125
6722		-19.531250
6723		-17.578125
6724		-19.531250
6725		-15.625000
6726		-17.578125
6727		-15.625000
6728		-17.578125
6729		-13.671875
6730		-15.625000
6731		-13.671875
6732		-15.625000
6733		-11.718750
6734		-13.671875
6735		-9.765625
6736		-11.718750
6737		-9.765625
6738		-11.718750
6739		-7.812500
6740		-9.765625
6741		-7.812500
6742		-7.812500
6743		-5.859375
6744		-7.812500
6745		-3.906250
6746		-5.859375
6747		-3.906250
6748		-3.906250
6749		-1.953125
6750		-3.906250
6751		0.000000
6752		-1.953125
6753		1.953125
6754		0.000000
6755		3.906250
6756		1.953125
6757		3.906250
6758		3.906250
6759		5.859375
6760		3.906250
6761		7.812500
6762		5.859375
6763		9.765625
6764		7.812500
6765		11.718750
6766		9.765625
6767		11.718750
6768		11.718750
6769		13.671875
6770		11.718750
6771		15.625000
6772		13.671875
6773		17.578125
6774		15.625000
6775		17.578125
6776		17.578125
6777		19.531250
6778		17.578125
6779		21.484375
6780		19.531250
6781		23.437500
6782		21.484375
6783		23.437500
6784		23.437500
6785		25.390625
6786		23.437500
6787		27.343750
6788		25.390625
6789		27.343750
6790		27.343750
6791		29.296875
6792		27.343750
6793		31.250000
6794		29.296875
6795		31.250000
6796		29.296875
6797		33.203125
6798		31.250000
6799		33.203125
6800		33.203125
6801		35.156250
6802		33.203125
6803		37.109375
6804		33.203125
6805		37.109375
6806		35.156250
6807		37.109375
6808		35.156250
6809		39.062500
6810		37.109375
6811		39.062500
6812		37.109375
6813		39.062500
6814		37.109375
6815		41.015625
6816		39.062500
6817		41.015625
6818		39.062500
6819		41.015625
6820		39.062500
6821		41.015625
6822		39.062500
6823		41.015625
6824		39.062500
6825		41.015625
6826		39.062500
6827		41.015625
6828		39.062500
6829		42.968750
6830		39.062500
6831		41.015625
6832		39.062500
6833		41.015625
6834		39.062500
6835		41.015625
6836		39.062500
6837		41.015625
6838		39.062500
6839		41.015625
6840		37.109375
6841		41.015625
6842		37.109375
6843		41.015625
6844		37.109375
6845		39.062500
6846		37.109375
6847		39.062500
6848		35.156250
6849		39.062500
6850		35.156250
6851		37.109375
6852		35.156250
6853		37.109375
6854		33.203125
6855		35.156250
6856		33.203125
6857		35.156250
6858		31.250000
6859		33.203125
6860		31.250000
6861		33.203125
6862		29.296875
6863		31.250000
6864		27.343750
6865		31.250000
6866		27.343750
6867		29.296875
6868		25.390625
6869		29.296875
6870		25.390625
6871		27.343750
6872		23.437500
6873		27.343750
6874		21.484375
6875		25.390625
6876		19.531250
6877		23.437500
6878		19.531250
6879		21.484375
6880		17.578125
6881		19.531250
6882		15.625000
6883		19.531250
6884		13.671875
6885		17.578125
6886		11.718750
6887		15.625000
6888		11.718750
6889		13.671875
6890		9.765625
6891		11.718750
6892		7.812500
6893		11.718750
6894		5.859375
6895		9.765625
6896		3.906250
6897		7.812500
6898		3.906250
6899		5.859375
6900		1.953125
6901		5.859375
6902		0.000000
6903		3.906250
6904		-1.953125
6905		1.953125
6906		-3.906250
6907		0.000000
6908		-3.906250
6909		-1.953125
6910		-5.859375
6911		-1.953125
6912		-7.812500
6913		-3.906250
6914		-9.765625
6915		-5.859375
6916		-9.765625
6917		-7.812500
6918		-11.718750
6919		-7.812500
6920		-11.718750
6921		-9.765625
6922		-13.671875
6923		-11.718750
6924		-15.625000
6925		-11.718750
6926		-15.625000
6927		-13.671875
6928		-17.578125
6929		-13.671875
6930		-17.578125
6931		-15.625000
6932		-19.531250
6933		-15.625000
6934		-19.531250
6935		-17.578125
6936		-19.531250
6937		-17.578125
6938		-21.484375
6939		-19.531250
6940		-21.484375
6941		-19.531250
6942		-21.484375
6943		-19.531250
6944		-23.437500
6945		-19.531250
6946		-23.437500
6947		-19.531250
6948		-23.437500
6949		-21.484375
6950		-23.437500
6951		-21.484375
6952		-23.437500
6953		-21.484375
6954		-23.437500
6955		-21.484375
6956		-23.437500
6957		-21.484375
6958		-23.437500
6959		-21.484375
6960		-23.437500
6961		-21.484375
6962		-23.437500
6963		-21.484375
6964		-23.437500
6965		-21.484375
6966		-23.437500
6967		-19.531250
6968		-21.484375
6969		-19.531250
6970		-21.484375
6971		-19.531250
6972		-21.484375
6973		-17.578125
6974		-19.531250
6975		-17.578125
6976		-19.531250
6977		-17.578125
6978		-19.531250
6979		-15.625000
6980		-17.578125
6981		-15.625000
6982		-15.625000
6983		-13.671875
6984		-15.625000
6985		-13.671875
6986		-15.625000
6987		-11.718750
6988		-13.671875
6989		-9.765625
6990		-11.718750
6991		-9.765625
6992		-11.718750
6993		-7.812500
6994		-9.765625
6995		-5.859375
6996		-7.812500
6997		-5.859375
6998		-7.812500
6999		-3.906250
7000		-5.859375
7001		-1.953125
7002		-3.906250
7003		-1.953125
7004		-1.953125
7005		0.000000
7006		-1.953125
7007		1.953125
7008		0.000000
7009		3.906250
7010		1.953125
7011		5.859375
7012		3.906250
7013		7.812500
7014		5.859375
7015		7.812500
7016		5.859375
7017		9.765625
7018		7.812500
7019		11.718750
7020		9.765625
7021		11.718750
7022		9.765625
7023		13.671875
7024		11.718750
7025		15.625000
7026		13.671875
7027		17.578125
7028		15.625000
7029		19.531250
7030		17.578125
7031		19.531250
7032		19.531250
7033		21.484375
7034		19.531250
7035		23.437500
7036		21.484375
7037		25.390625
7038		23.437500
7039		25.390625
7040		25.390625
7041		27.343750
7042		25.390625
7043		29.296875
7044		27.343750
7045		29.296875
7046		27.343750
7047		31.250000
7048		29.296875
7049		31.250000
7050		29.296875
7051		33.203125
7052		31.250000
7053		33.203125
7054		31.250000
7055		35.156250
7056		33.203125
7057		37.109375
7058		35.156250
7059		37.109375
7060		35.156250
7061		37.109375
7062		35.156250
7063		39.062500
7064		37.109375
7065		39.062500
7066		37.109375
7067		39.062500
7068		37.109375
7069		41.015625
7070		37.109375
7071		41.015625
7072		39.062500
7073		41.015625
7074		39.062500
7075		41.015625
7076		39.062500
7077		41.015625
7078		39.062500
7079		41.015625
7080		39.062500
7081		41.015625
7082		39.062500
7083		41.015625
7084		39.062500
7085		41.015625
7086		39.062500
7087		41.015625
7088		39.062500
7089		41.015625
7090		39.062500
7091		41.015625
7092		37.109375
7093		41.015625
7094		37.109375
7095		41.015625
7096		37.109375
7097		39.062500
7098		37.109375
7099		39.062500
7100		35.156250
7101		39.062500
7102		35.156250
7103		37.109375
7104		35.156250
7105		37.109375
7106		33.203125
7107		37.109375
7108		33.203125
7109		35.156250
7110		31.250000
7111		35.156250
7112		31.250000
7113		33.203125
7114		29.296875
7115		33.203125
7116		29.296875
7117		31.250000
7118		27.343750
7119		31.250000
7120		25.390625
7121		29.296875
7122		25.390625
7123		27.343750
7124		23.437500
7125		27.343750
7126		21.484375
7127		25.390625
7128		21.484375
7129		23.437500
7130		19.531250
7131		23.437500
7132		17.578125
7133		21.484375
7134		15.625000
7135		19.531250
7136		15.625000
7137		17.578125
7138		13.671875
7139		15.625000
7140		11.718750
7141		15.625000
7142		9.765625
7143		13.671875
7144		7.812500
7145		11.718750
7146		7.812500
7147		9.765625
7148		5.859375
7149		7.812500
7150		3.906250
7151		7.812500
7152		1.953125
7153		5.859375
7154		0.000000
7155		3.906250
7156		0.000000
7157		1.953125
7158		-1.953125
7159		1.953125
7160		-3.906250
7161		0.000000
7162		-5.859375
7163		-1.953125
7164		-7.812500
7165		-3.906250
7166		-7.812500
7167		-3.906250
7168		-9.765625
7169		-5.859375
7170		-9.765625
7171		-7.812500
7172		-11.718750
7173		-9.765625
7174		-13.671875
7175		-9.765625
7176		-13.671875
7177		-11.718750
7178		-15.625000
7179		-11.718750
7180		-17.578125
7181		-13.671875
7182		-17.578125
7183		-13.671875
7184		-19.531250
7185		-15.625000
7186		-19.531250
7187		-17.578125
7188		-19.531250
7189		-17.578125
7190		-21.484375
7191		-19.531250
7192		-21.484375
7193		-19.531250
7194		-21.484375
7195		-19.531250
7196		-23.437500
7197		-19.531250
7198		-23.437500
7199		-21.484375
7200		-23.437500
7201		-21.484375
7202		-23.437500
7203		-21.484375
7204		-23.437500
7205		-21.484375
7206		-23.437500
7207		-21.484375
7208		-25.390625
7209		-21.484375
7210		-23.437500
7211		-21.484375
7212		-23.437500
7213		-21.484375
7214		-25.390625
7215		-21.484375
7216		-23.437500
7217		-21.484375
7218		-23.437500
7219		-21.484375
7220		-23.437500
7221		-19.531250
7222		-21.484375
7223		-19.531250
7224		-21.484375
7225		-19.531250
7226		-21.484375
7227		-17.578125
7228		-19.531250
7229		-17.578125
7230		-19.531250
7231		-17.578125
7232		-19.531250
7233		-15.625000
7234		-17.578125
7235		-13.671875
7236		-15.625000
7237		-13.671875
7238		-15.625000
7239		-13.671875
7240		-13.671875
7241		-11.718750
7242		-13.671875
7243		-9.765625
7244		-13.671875
7245		-7.812500
7246		-9.765625
7247		-7.812500
7248		-9.765625
7249		-5.859375
7250		-7.812500
7251		-3.906250
7252		-5.859375
7253		-3.906250
7254		-5.859375
7255		-1.953125
7256		-3.906250
7257		0.000000
7258		-1.953125
7259		1.953125
7260		0.000000
7261		1.953125
7262		0.000000
7263		3.906250
7264		1.953125
7265		5.859375
7266		3.906250
7267		7.812500
7268		5.859375
7269		9.765625
7270		7.812500
7271		9.765625
7272		7.812500
7273		11.718750
7274		9.765625
7275		13.671875
7276		11.718750
7277		15.625000
7278		13.671875
7279		17.578125
7280		13.671875
7281		17.578125
7282		15.625000
7283		19.531250
7284		17.578125
7285		21.484375
7286		19.531250
7287		21.484375
7288		21.484375
7289		23.437500
7290		21.484375
7291		25.390625
7292		23.437500
7293		27.343750
7294		25.390625
7295		27.343750
7296		25.390625
7297		29.296875
7298		27.343750
7299		31.250000
7300		29.296875
7301		31.250000
7302		29.296875
7303		33.203125
7304		29.296875
7305		33.203125
7306		31.250000
7307		35.156250
7308		33.203125
7309		35.156250
7310		33.203125
7311		37.109375
7312		35.156250
7313		37.109375
7314		35.156250
7315		37.109375
7316		35.156250
7317		39.062500
7318		37.109375
7319		39.062500
7320		37.109375
7321		39.062500
7322		37.109375
7323		41.015625
7324		39.062500
7325		41.015625
7326		39.062500
7327		41.015625
7328		37.109375
7329		41.015625
7330		39.062500
7331		41.015625
7332		39.062500
7333		41.015625
7334		39.062500
7335		41.015625
7336		39.062500
7337		41.015625
7338		39.062500
7339		41.015625
7340		37.109375
7341		42.968750
7342		39.062500
7343		41.015625
7344		39.062500
7345		41.015625
7346		39.062500
7347		41.015625
7348		37.109375
7349		39.062500
7350		37.109375
7351		39.062500
7352		37.109375
7353		41.015625
7354		35.156250
7355		39.062500
7356		35.156250
7357		37.109375
7358		35.156250
7359		37.109375
7360		33.203125
7361		37.109375
7362		31.250000
7363		35.156250
7364		31.250000
7365		35.156250
7366		31.250000
7367		33.203125
7368		29.296875
7369		33.203125
7370		27.343750
7371		31.250000
7372		27.343750
7373		29.296875
7374		25.390625
7375		29.296875
7376		25.390625
7377		27.343750
7378		23.437500
7379		25.390625
7380		21.484375
7381		25.390625
7382		19.531250
7383		23.437500
7384		19.531250
7385		21.484375
7386		15.625000
7387		21.484375
7388		15.625000
7389		19.531250
7390		13.671875
7391		17.578125
7392		13.671875
7393		15.625000
7394		11.718750
7395		13.671875
7396		9.765625
7397		13.671875
7398		7.812500
7399		11.718750
7400		5.859375
7401		9.765625
7402		5.859375
7403		7.812500
7404		3.906250
7405		7.812500
7406		1.953125
7407		5.859375
7408		0.000000
7409		3.906250
7410		-1.953125
7411		1.953125
7412		-3.906250
7413		0.000000
7414		-3.906250
7415		0.000000
7416		-5.859375
7417		-1.953125
7418		-7.812500
7419		-3.906250
7420		-7.812500
7421		-5.859375
7422		-9.765625
7423		-5.859375
7424		-11.718750
7425		-7.812500
7426		-11.718750
7427		-9.765625
7428		-13.671875
7429		-11.718750
7430		-15.625000
7431		-11.718750
7432		-15.625000
7433		-13.671875
7434		-17.578125
7435		-13.671875
7436		-17.578125
7437		-15.625000
7438		-19.531250
7439		-15.625000
7440		-19.531250
7441		-17.578125
7442		-19.531250
7443		-17.578125
7444		-21.484375
7445		-19.531250
7446		-21.484375
7447		-17.578125
7448		-21.484375
7449		-19.531250
7450		-23.437500
7451		-21.484375
7452		-23.437500
7453		-21.484375
7454		-23.437500
7455		-21.484375
7456		-25.390625
7457		-21.484375
7458		-23.437500
7459		-21.484375
7460		-23.437500
7461		-21.484375
7462		-23.437500
7463		-21.484375
7464		-23.437500
7465		-21.484375
7466		-25.390625
7467		-21.484375
7468		-23.437500
7469		-21.484375
7470		-23.437500
7471		-21.484375
7472		-23.437500
7473		-21.484375
7474		-23.437500
7475		-19.531250
7476		-21.484375
7477		-19.531250
7478		-21.484375
7479		-19.531250
7480		-21.484375
7481		-17.578125
7482		-19.531250
7483		-17.578125
7484		-19.531250
7485		-17.578125
7486		-17.578125
7487		-15.625000
7488		-17.578125
7489		-15.625000
7490		-15.625000
7491		-13.671875
7492		-15.625000
7493		-11.718750
7494		-13.671875
7495		-11.718750
7496		-11.718750
7497		-9.765625
7498		-11.718750
7499		-9.765625
7500		-9.765625
7501		-7.812500
7502		-9.765625
7503		-5.859375
7504		-7.812500
7505		-3.906250
7506		-5.859375
7507		-3.906250
7508		-3.906250
7509		-1.953125
7510		-3.906250
7511		0.000000
7512		-1.953125
7513		1.953125
7514		0.000000
7515		1.953125
7516		0.000000
7517		3.906250
7518		1.953125
7519		5.859375
7520		3.906250
7521		7.812500
7522		5.859375
7523		9.765625
7524		7.812500
7525		9.765625
7526		9.765625
7527		11.718750
7528		9.765625
7529		13.671875
7530		11.718750
7531		15.625000
7532		13.671875
7533		17.578125
7534		15.625000
7535		17.578125
7536		17.578125
7537		19.531250
7538		17.578125
7539		21.484375
7540		19.531250
7541		23.437500
7542		21.484375
7543		23.437500
7544		21.484375
7545		25.390625
7546		23.437500
7547		27.343750
7548		25.390625
7549		27.343750
7550		25.390625
7551		29.296875
7552		27.343750
7553		31.250000
7554		29.296875
7555		31.250000
7556		29.296875
7557		33.203125
7558		29.296875
7559		33.203125
7560		31.250000
7561		35.156250
7562		31.250000
7563		37.109375
7564		33.203125
7565		37.109375
7566		33.203125
7567		39.062500
7568		35.156250
7569		37.109375
7570		35.156250
7571		39.062500
7572		37.109375
7573		39.062500
7574		37.109375
7575		41.015625
7576		37.109375
7577		41.015625
7578		37.109375
7579		42.968750
7580		39.062500
7581		41.015625
7582		37.109375
7583		42.968750
7584		39.062500
7585		41.015625
7586		37.109375
7587		42.968750
7588		39.062500
7589		41.015625
7590		39.062500
7591		41.015625
7592		37.109375
7593		41.015625
7594		39.062500
7595		41.015625
7596		37.109375
7597		42.968750
7598		37.109375
7599		41.015625
7600		37.109375
7601		41.015625
7602		37.109375
7603		39.062500
7604		35.156250
7605		42.968750
7606		35.156250
7607		39.062500
7608		33.203125
7609		39.062500
7610		33.203125
7611		39.062500
7612		31.250000
7613		37.109375
7614		31.250000
7615		35.156250
7616		29.296875
7617		35.156250
7618		31.250000
7619		33.203125
7620		27.343750
7621		35.156250
7622		27.343750
7623		31.250000
7624		27.343750
7625		29.296875
7626		25.390625
7627		29.296875
7628		23.437500
7629		31.250000
7630		23.437500
7631		27.343750
7632		21.484375
7633		25.390625
7634		19.531250
7635		25.390625
7636		15.625000
7637		25.390625
7638		17.578125
7639		21.484375
7640		17.578125
7641		19.531250
7642		13.671875
7643		17.578125
7644		11.718750
7645		17.578125
7646		9.765625
7647		17.578125
7648		9.765625
7649		13.671875
7650		5.859375
7651		13.671875
7652		5.859375
7653		13.671875
7654		3.906250
7655		11.718750
7656		3.906250
7657		7.812500
7658		1.953125
7659		5.859375
7660		-1.953125
7661		5.859375
7662		-1.953125
7663		3.906250
7664		-1.953125
7665		1.953125
7666		-3.906250
7667		0.000000
7668		-7.812500
7669		0.000000
7670		-9.765625
7671		-1.953125
7672		-7.812500
7673		-5.859375
7674		-9.765625
7675		-5.859375
7676		-11.718750
7677		-7.812500
7678		-15.625000
7679		-5.859375
7680		-15.625000
7681		-9.765625
7682		-15.625000
7683		-11.718750
7684		-19.531250
7685		-9.765625
7686		-17.578125
7687		-13.671875
7688		-21.484375
7689		-11.718750
7690		-19.531250
7691		-15.625000
7692		-21.484375
7693		-15.625000
7694		-23.437500
7695		-15.625000
7696		-23.437500
7697		-17.578125
7698		-21.484375
7699		-19.531250
7700		-25.390625
7701		-17.578125
7702		-27.343750
7703		-17.578125
7704		-27.343750
7705		-17.578125
7706		-23.437500
7707		-21.484375
7708		-23.437500
7709		-21.484375
7710		-25.390625
7711		-21.484375
7712		-27.343750
7713		-17.578125
7714		-25.390625
7715		-21.484375
7716		-25.390625
7717		-21.484375
7718		-27.343750
7719		-17.578125
7720		-27.343750
7721		-19.531250
7722		-23.437500
7723		-21.484375
7724		-23.437500
7725		-21.484375
7726		-25.390625
7727		-19.531250
7728		-25.390625
7729		-17.578125
7730		-23.437500
7731		-17.578125
7732		-21.484375
7733		-19.531250
7734		-23.437500
7735		-15.625000
7736		-23.437500
7737		-13.671875
7738		-21.484375
7739		-13.671875
7740		-17.578125
7741		-15.625000
7742		-17.578125
7743		-13.671875
7744		-17.578125
7745		-11.718750
7746		-17.578125
7747		-9.765625
7748		-15.625000
7749		-9.765625
7750		-13.671875
7751		-9.765625
7752		-13.671875
7753		-5.859375
7754		-11.718750
7755		-3.906250
7756		-7.812500
7757		-5.859375
7758		-7.812500
7759		-3.906250
7760		-7.812500
7761		-1.953125
7762		-5.859375
7763		1.953125
7764		-5.859375
7765		0.000000
7766		-1.953125
7767		1.953125
7768		-1.953125
7769		7.812500
7770		-1.953125
7771		5.859375
7772		0.000000
7773		7.812500
7774		3.906250
7775		7.812500
7776		5.859375
7777		9.765625
7778		5.859375
7779		13.671875
7780		7.812500
7781		13.671875
7782		9.765625
7783		13.671875
7784		11.718750
7785		17.578125
7786		9.765625
7787		19.531250
7788		13.671875
7789		21.484375
7790		17.578125
7791		19.531250
7792		17.578125
7793		21.484375
7794		19.531250
7795		23.437500
7796		19.531250
7797		27.343750
7798		21.484375
7799		25.390625
7800		23.437500
7801		27.343750
7802		21.484375
7803		31.250000
7804		25.390625
7805		33.203125
7806		27.343750
7807		31.250000
7808		29.296875
7809		31.250000
7810		29.296875
7811		33.203125
7812		29.296875
7813		37.109375
7814		31.250000
7815		35.156250
7816		33.203125
7817		35.156250
7818		31.250000
7819		41.015625
7820		31.250000
7821		39.062500
7822		33.203125
7823		39.062500
7824		35.156250
7825		39.062500
7826		37.109375
7827		39.062500
7828		37.109375
7829		41.015625
7830		35.156250
7831		42.968750
7832		37.109375
7833		41.015625
7834		37.109375
7835		41.015625
7836		35.156250
7837		42.968750
7838		37.109375
7839		42.968750
7840		39.062500
7841		41.015625
7842		39.062500
7843		41.015625
7844		39.062500
7845		41.015625
7846		35.156250
7847		42.968750
7848		37.109375
7849		42.968750
7850		39.062500
7851		41.015625
7852		37.109375
7853		41.015625
7854		37.109375
7855		39.062500
7856		37.109375
7857		39.062500
7858		35.156250
7859		39.062500
7860		35.156250
7861		37.109375
7862		35.156250
7863		37.109375
7864		33.203125
7865		39.062500
7866		33.203125
7867		35.156250
7868		31.250000
7869		35.156250
7870		31.250000
7871		33.203125
7872		29.296875
7873		33.203125
7874		29.296875
7875		31.250000
7876		27.343750
7877		31.250000
7878		27.343750
7879		29.296875
7880		25.390625
7881		27.343750
7882		23.437500
7883		27.343750
7884		23.437500
7885		25.390625
7886		21.484375
7887		23.437500
7888		19.531250
7889		23.437500
7890		19.531250
7891		21.484375
7892		17.578125
7893		19.531250
7894		15.625000
7895		19.531250
7896		13.671875
7897		17.578125
7898		11.718750
7899		15.625000
7900		11.718750
7901		13.671875
7902		9.765625
7903		11.718750
7904		7.812500
7905		11.718750
7906		5.859375
7907		9.765625
7908		3.906250
7909		7.812500
7910		1.953125
7911		5.859375
7912		0.000000
7913		5.859375
7914		-1.953125
7915		3.906250
7916		-3.906250
7917		1.953125
7918		-3.906250
7919		1.953125
7920		-5.859375
7921		0.000000
7922		-7.812500
7923		-1.953125
7924		-7.812500
7925		-3.906250
7926		-7.812500
7927		-5.859375
7928		-11.718750
7929		-5.859375
7930		-11.718750
7931		-7.812500
7932		-13.671875
7933		-7.812500
7934		-15.625000
7935		-9.765625
7936		-15.625000
7937		-11.718750
7938		-17.578125
7939		-11.718750
7940		-17.578125
7941		-13.671875
7942		-17.578125
7943		-15.625000
7944		-21.484375
7945		-15.625000
7946		-21.484375
7947		-15.625000
7948		-21.484375
7949		-17.578125
7950		-23.437500
7951		-17.578125
7952		-23.437500
7953		-19.531250
7954		-23.437500
7955		-19.531250
7956		-23.437500
7957		-19.531250
7958		-23.437500
7959		-21.484375
7960		-25.390625
7961		-21.484375
7962		-25.390625
7963		-21.484375
7964		-25.390625
7965		-21.484375
7966		-25.390625
7967		-21.484375
7968		-27.343750
7969		-21.484375
7970		-25.390625
7971		-21.484375
7972		-27.343750
7973		-21.484375
7974		-25.390625
7975		-21.484375
7976		-23.437500
7977		-21.484375
7978		-25.390625
7979		-21.484375
7980		-23.437500
7981		-19.531250
7982		-23.437500
7983		-19.531250
7984		-25.390625
7985		-17.578125
7986		-21.484375
7987		-17.578125
7988		-21.484375
7989		-17.578125
7990		-21.484375
7991		-17.578125
7992		-19.531250
7993		-15.625000
7994		-17.578125
7995		-13.671875
7996		-17.578125
7997		-13.671875
7998		-17.578125
7999		-11.718750
8000		-15.625000
8001		-9.765625
8002		-15.625000
8003		-9.765625
8004		-13.671875
8005		-7.812500
8006		-11.718750
8007		-7.812500
8008		-9.765625
8009		-7.812500
8010		-7.812500
8011		-5.859375
8012		-7.812500
8013		-3.906250
8014		-5.859375
8015		-1.953125
8016		-3.906250
8017		0.000000
8018		-3.906250
8019		1.953125
8020		-1.953125
8021		1.953125
8022		0.000000
8023		3.906250
8024		1.953125
8025		5.859375
8026		3.906250
8027		5.859375
8028		3.906250
8029		9.765625
8030		5.859375
8031		9.765625
8032		7.812500
8033		11.718750
8034		7.812500
8035		15.625000
8036		11.718750
8037		15.625000
8038		13.671875
8039		15.625000
8040		13.671875
8041		17.578125
8042		15.625000
8043		19.531250
8044		17.578125
8045		19.531250
8046		19.531250
8047		21.484375
8048		19.531250
8049		23.437500
8050		21.484375
8051		25.390625
8052		21.484375
8053		27.343750
8054		23.437500
8055		27.343750
8056		25.390625
8057		29.296875
8058		25.390625
8059		29.296875
8060		27.343750
8061		31.250000
8062		29.296875
8063		33.203125
8064		29.296875
8065		33.203125
8066		31.250000
8067		33.203125
8068		31.250000
8069		37.109375
8070		33.203125
8071		37.109375
8072		33.203125
8073		37.109375
8074		33.203125
8075		39.062500
8076		35.156250
8077		37.109375
8078		35.156250
8079		39.062500
8080		35.156250
8081		39.062500
8082		37.109375
8083		39.062500
8084		35.156250
8085		42.968750
8086		35.156250
8087		41.015625
8088		39.062500
8089		41.015625
8090		37.109375
8091		41.015625
8092		39.062500
8093		41.015625
8094		37.109375
8095		41.015625
8096		37.109375
8097		41.015625
8098		39.062500
8099		41.015625
8100		37.109375
8101		41.015625
8102		37.109375
8103		41.015625
8104		37.109375
8105		41.015625
8106		37.109375
8107		41.015625
8108		37.109375
8109		41.015625
8110		37.109375
8111		39.062500
8112		35.156250
8113		39.062500
8114		35.156250
8115		39.062500
8116		35.156250
8117		37.109375
8118		31.250000
8119		37.109375
8120		31.250000
8121		35.156250
8122		31.250000
8123		35.156250
8124		29.296875
8125		35.156250
8126		29.296875
8127		33.203125
8128		29.296875
8129		31.250000
8130		27.343750
8131		31.250000
8132		25.390625
8133		29.296875
8134		25.390625
8135		27.343750
8136		23.437500
8137		27.343750
8138		21.484375
8139		25.390625
8140		21.484375
8141		25.390625
8142		19.531250
8143		23.437500
8144		17.578125
8145		21.484375
8146		15.625000
8147		19.531250
8148		15.625000
8149		19.531250
8150		13.671875
8151		17.578125
8152		11.718750
8153		15.625000
8154		9.765625
8155		15.625000
8156		7.812500
8157		11.718750
8158		7.812500
8159		9.765625
8160		5.859375
8161		9.765625
8162		3.906250
8163		7.812500
8164		1.953125
8165		5.859375
8166		0.000000
8167		5.859375
8168		0.000000
8169		3.906250
8170		-1.953125
8171		1.953125
8172		-3.906250
8173		0.000000
8174		-5.859375
8175		-1.953125
8176		-5.859375
8177		-1.953125
8178		-7.812500
8179		-5.859375
8180		-9.765625
8181		-5.859375
8182		-11.718750
8183		-7.812500
8184		-11.718750
8185		-7.812500
8186		-13.671875
8187		-9.765625
8188		-15.625000
8189		-11.718750
8190		-15.625000
8191		-11.718750
8192		-17.578125
8193		-13.671875
8194		-17.578125
8195		-15.625000
8196		-19.531250
8197		-15.625000
8198		-19.531250
8199		-15.625000
8200		-19.531250
8201		-17.578125
8202		-21.484375
8203		-17.578125
8204		-21.484375
8205		-19.531250
8206		-23.437500
8207		-19.531250
8208		-23.437500
8209		-19.531250
8210		-23.437500
8211		-21.484375
8212		-23.437500
8213		-21.484375
8214		-25.390625
8215		-21.484375
8216		-25.390625
8217		-21.484375
8218		-25.390625
8219		-21.484375
8220		-25.390625
8221		-21.484375
8222		-25.390625
8223		-21.484375
8224		-25.390625
8225		-21.484375
8226		-25.390625
8227		-21.484375
8228		-23.437500
8229		-21.484375
8230		-25.390625
8231		-21.484375
8232		-23.437500
8233		-21.484375
8234		-23.437500
8235		-19.531250
8236		-23.437500
8237		-19.531250
8238		-21.484375
8239		-19.531250
8240		-21.484375
8241		-17.578125
8242		-21.484375
8243		-17.578125
8244		-19.531250
8245		-17.578125
8246		-17.578125
8247		-15.625000
8248		-17.578125
8249		-13.671875
8250		-17.578125
8251		-13.671875
8252		-15.625000
8253		-11.718750
8254		-15.625000
8255		-11.718750
8256		-13.671875
8257		-9.765625
8258		-11.718750
8259		-7.812500
8260		-11.718750
8261		-7.812500
8262		-9.765625
8263		-5.859375
8264		-7.812500
8265		-3.906250
8266		-7.812500
8267		-3.906250
8268		-5.859375
8269		-1.953125
8270		-3.906250
8271		0.000000
8272		-1.953125
8273		1.953125
8274		0.000000
8275		1.953125
8276		0.000000
8277		3.906250
8278		1.953125
8279		5.859375
8280		3.906250
8281		7.812500
8282		5.859375
8283		9.765625
8284		7.812500
8285		9.765625
8286		7.812500
8287		11.718750
8288		9.765625
8289		13.671875
8290		11.718750
8291		15.625000
8292		13.671875
8293		17.578125
8294		15.625000
8295		17.578125
8296		17.578125
8297		19.531250
8298		17.578125
8299		21.484375
8300		19.531250
8301		23.437500
8302		19.531250
8303		25.390625
8304		21.484375
8305		25.390625
8306		23.437500
8307		27.343750
8308		25.390625
8309		27.343750
8310		25.390625
8311		29.296875
8312		27.343750
8313		31.250000
8314		27.343750
8315		31.250000
8316		29.296875
8317		33.203125
8318		29.296875
8319		33.203125
8320		31.250000
8321		35.156250
8322		33.203125
8323		35.156250
8324		33.203125
8325		35.156250
8326		33.203125
8327		37.109375
8328		35.156250
8329		37.109375
8330		35.156250
8331		39.062500
8332		37.109375
8333		39.062500
8334		37.109375
8335		39.062500
8336		37.109375
8337		39.062500
8338		37.109375
8339		41.015625
8340		37.109375
8341		41.015625
8342		37.109375
8343		41.015625
8344		37.109375
8345		42.968750
8346		39.062500
8347		41.015625
8348		39.062500
8349		41.015625
8350		39.062500
8351		41.015625
8352		39.062500
8353		41.015625
8354		39.062500
8355		41.015625
8356		37.109375
8357		41.015625
8358		37.109375
8359		41.015625
8360		37.109375
8361		41.015625
8362		37.109375
8363		39.062500
8364		35.156250
8365		39.062500
8366		35.156250
8367		39.062500
8368		35.156250
8369		39.062500
8370		35.156250
8371		37.109375
8372		33.203125
8373		37.109375
8374		31.250000
8375		35.156250
8376		31.250000
8377		35.156250
8378		31.250000
8379		33.203125
8380		29.296875
8381		33.203125
8382		27.343750
8383		31.250000
8384		27.343750
8385		29.296875
8386		25.390625
8387		29.296875
8388		23.437500
8389		27.343750
8390		23.437500
8391		27.343750
8392		21.484375
8393		25.390625
8394		19.531250
8395		23.437500
8396		19.531250
8397		21.484375
8398		17.578125
8399		21.484375
8400		15.625000
8401		19.531250
8402		13.671875
8403		17.578125
8404		13.671875
8405		15.625000
8406		11.718750
8407		15.625000
8408		9.765625
8409		13.671875
8410		7.812500
8411		11.718750
8412		7.812500
8413		9.765625
8414		5.859375
8415		7.812500
8416		3.906250
8417		7.812500
8418		1.953125
8419		5.859375
8420		0.000000
8421		3.906250
8422		-1.953125
8423		3.906250
8424		-1.953125
8425		0.000000
8426		-3.906250
8427		0.000000
8428		-5.859375
8429		-1.953125
8430		-5.859375
8431		-3.906250
8432		-9.765625
8433		-3.906250
8434		-9.765625
8435		-5.859375
8436		-11.718750
8437		-7.812500
8438		-11.718750
8439		-7.812500
8440		-13.671875
8441		-9.765625
8442		-15.625000
8443		-11.718750
8444		-15.625000
8445		-11.718750
8446		-17.578125
8447		-13.671875
8448		-19.531250
8449		-15.625000
8450		-19.531250
8451		-15.625000
8452		-19.531250
8453		-17.578125
8454		-21.484375
8455		-17.578125
8456		-21.484375
8457		-17.578125
8458		-21.484375
8459		-19.531250
8460		-23.437500
8461		-19.531250
8462		-23.437500
8463		-21.484375
8464		-23.437500
8465		-21.484375
8466		-25.390625
8467		-19.531250
8468		-23.437500
8469		-21.484375
8470		-25.390625
8471		-21.484375
8472		-25.390625
8473		-21.484375
8474		-25.390625
8475		-21.484375
8476		-25.390625
8477		-21.484375
8478		-25.390625
8479		-21.484375
8480		-23.437500
8481		-21.484375
8482		-23.437500
8483		-21.484375
8484		-23.437500
8485		-21.484375
8486		-23.437500
8487		-21.484375
8488		-23.437500
8489		-19.531250
8490		-23.437500
8491		-19.531250
8492		-21.484375
8493		-17.578125
8494		-21.484375
8495		-17.578125
8496		-19.531250
8497		-17.578125
8498		-19.531250
8499		-15.625000
8500		-19.531250
8501		-15.625000
8502		-17.578125
8503		-13.671875
8504		-15.625000
8505		-13.671875
8506		-15.625000
8507		-11.718750
8508		-13.671875
8509		-9.765625
8510		-13.671875
8511		-9.765625
8512		-11.718750
8513		-7.812500
8514		-9.765625
8515		-7.812500
8516		-9.765625
8517		-3.906250
8518		-7.812500
8519		-3.906250
8520		-5.859375
8521		-1.953125
8522		-3.906250
8523		0.000000
8524		-3.906250
8525		0.000000
8526		-1.953125
8527		1.953125
8528		-1.953125
8529		3.906250
8530		1.953125
8531		3.906250
8532		1.953125
8533		7.812500
8534		3.906250
8535		7.812500
8536		5.859375
8537		9.765625
8538		7.812500
8539		11.718750
8540		9.765625
8541		13.671875
8542		9.765625
8543		15.625000
8544		11.718750
8545		17.578125
8546		13.671875
8547		17.578125
8548		15.625000
8549		17.578125
8550		17.578125
8551		21.484375
8552		17.578125
8553		21.484375
8554		19.531250
8555		23.437500
8556		21.484375
8557		23.437500
8558		21.484375
8559		27.343750
8560		23.437500
8561		27.343750
8562		25.390625
8563		29.296875
8564		27.343750
8565		29.296875
8566		27.343750
8567		31.250000
8568		29.296875
8569		33.203125
8570		29.296875
8571		33.203125
8572		31.250000
8573		35.156250
8574		31.250000
8575		35.156250
8576		33.203125
8577		35.156250
8578		33.203125
8579		37.109375
8580		35.156250
8581		37.109375
8582		35.156250
8583		37.109375
8584		35.156250
8585		39.062500
8586		35.156250
8587		39.062500
8588		37.109375
8589		39.062500
8590		37.109375
8591		41.015625
8592		37.109375
8593		41.015625
8594		37.109375
8595		41.015625
8596		37.109375
8597		41.015625
8598		39.062500
8599		41.015625
8600		37.109375
8601		41.015625
8602		39.062500
8603		41.015625
8604		37.109375
8605		41.015625
8606		39.062500
8607		41.015625
8608		39.062500
8609		41.015625
8610		37.109375
8611		41.015625
8612		37.109375
8613		41.015625
8614		37.109375
8615		39.062500
8616		37.109375
8617		39.062500
8618		35.156250
8619		39.062500
8620		35.156250
8621		39.062500
8622		35.156250
8623		37.109375
8624		33.203125
8625		37.109375
8626		33.203125
8627		35.156250
8628		31.250000
8629		35.156250
8630		31.250000
8631		33.203125
8632		29.296875
8633		33.203125
8634		27.343750
8635		31.250000
8636		27.343750
8637		31.250000
8638		25.390625
8639		29.296875
8640		25.390625
8641		27.343750
8642		23.437500
8643		27.343750
8644		23.437500
8645		25.390625
8646		21.484375
8647		25.390625
8648		19.531250
8649		23.437500
8650		17.578125
8651		21.484375
8652		17.578125
8653		21.484375
8654		15.625000
8655		19.531250
8656		13.671875
8657		17.578125
8658		11.718750
8659		15.625000
8660		11.718750
8661		13.671875
8662		7.812500
8663		13.671875
8664		7.812500
8665		11.718750
8666		5.859375
8667		9.765625
8668		3.906250
8669		7.812500
8670		3.906250
8671		5.859375
8672		1.953125
8673		5.859375
8674		0.000000
8675		3.906250
8676		-1.953125
8677		1.953125
8678		-3.906250
8679		0.000000
8680		-3.906250
8681		0.000000
8682		-5.859375
8683		-1.953125
8684		-7.812500
8685		-3.906250
8686		-9.765625
8687		-5.859375
8688		-9.765625
8689		-5.859375
8690		-11.718750
8691		-7.812500
8692		-13.671875
8693		-9.765625
8694		-13.671875
8695		-9.765625
8696		-15.625000
8697		-11.718750
8698		-15.625000
8699		-13.671875
8700		-17.578125
8701		-13.671875
8702		-17.578125
8703		-15.625000
8704		-19.531250
8705		-15.625000
8706		-21.484375
8707		-17.578125
8708		-21.484375
8709		-17.578125
8710		-23.437500
8711		-19.531250
8712		-23.437500
8713		-19.531250
8714		-23.437500
8715		-19.531250
8716		-23.437500
8717		-21.484375
8718		-25.390625
8719		-21.484375
8720		-25.390625
8721		-21.484375
8722		-25.390625
8723		-21.484375
8724		-25.390625
8725		-21.484375
8726		-25.390625
8727		-21.484375
8728		-25.390625
8729		-21.484375
8730		-25.390625
8731		-21.484375
8732		-25.390625
8733		-21.484375
8734		-25.390625
8735		-21.484375
8736		-25.390625
8737		-21.484375
8738		-23.437500
8739		-19.531250
8740		-23.437500
8741		-21.484375
8742		-23.437500
8743		-19.531250
8744		-21.484375
8745		-19.531250
8746		-21.484375
8747		-17.578125
8748		-19.531250
8749		-17.578125
8750		-19.531250
8751		-17.578125
8752		-19.531250
8753		-15.625000
8754		-17.578125
8755		-15.625000
8756		-17.578125
8757		-13.671875
8758		-15.625000
8759		-13.671875
8760		-13.671875
8761		-11.718750
8762		-13.671875
8763		-9.765625
8764		-13.671875
8765		-9.765625
8766		-11.718750
8767		-7.812500
8768		-9.765625
8769		-5.859375
8770		-7.812500
8771		-3.906250
8772		-7.812500
8773		-3.906250
8774		-5.859375
8775		-1.953125
8776		-3.906250
8777		0.000000
8778		-1.953125
8779		1.953125
8780		0.000000
8781		1.953125
8782		0.000000
8783		3.906250
8784		1.953125
8785		5.859375
8786		1.953125
8787		7.812500
8788		5.859375
8789		7.812500
8790		5.859375
8791		9.765625
8792		7.812500
8793		11.718750
8794		9.765625
8795		13.671875
8796		11.718750
8797		15.625000
8798		11.718750
8799		15.625000
8800		13.671875
8801		17.578125
8802		15.625000
8803		19.531250
8804		17.578125
8805		21.484375
8806		19.531250
8807		21.484375
8808		19.531250
8809		23.437500
8810		21.484375
8811		25.390625
8812		23.437500
8813		27.343750
8814		23.437500
8815		27.343750
8816		25.390625
8817		29.296875
8818		27.343750
8819		31.250000
8820		27.343750
8821		31.250000
8822		29.296875
8823		33.203125
8824		29.296875
8825		33.203125
8826		31.250000
8827		35.156250
8828		31.250000
8829		35.156250
8830		33.203125
8831		37.109375
8832		33.203125
8833		37.109375
8834		35.156250
8835		37.109375
8836		35.156250
8837		39.062500
8838		35.156250
8839		39.062500
8840		37.109375
8841		39.062500
8842		37.109375
8843		41.015625
8844		37.109375
8845		41.015625
8846		37.109375
8847		41.015625
8848		39.062500
8849		41.015625
8850		39.062500
8851		41.015625
8852		37.109375
8853		41.015625
8854		39.062500
8855		42.968750
8856		37.109375
8857		42.968750
8858		39.062500
8859		41.015625
8860		37.109375
8861		41.015625
8862		37.109375
8863		41.015625
8864		37.109375
8865		41.015625
8866		37.109375
8867		41.015625
8868		37.109375
8869		39.062500
8870		35.156250
8871		41.015625
8872		35.156250
8873		39.062500
8874		35.156250
8875		39.062500
8876		35.156250
8877		37.109375
8878		33.203125
8879		37.109375
8880		31.250000
8881		35.156250
8882		31.250000
8883		35.156250
8884		31.250000
8885		33.203125
8886		29.296875
8887		33.203125
8888		29.296875
8889		31.250000
8890		27.343750
8891		31.250000
8892		25.390625
8893		29.296875
8894		25.390625
8895		27.343750
8896		23.437500
8897		27.343750
8898		21.484375
8899		25.390625
8900		21.484375
8901		23.437500
8902		17.578125
8903		23.437500
8904		17.578125
8905		21.484375
8906		17.578125
8907		19.531250
8908		15.625000
8909		17.578125
8910		13.671875
8911		17.578125
8912		11.718750
8913		15.625000
8914		9.765625
8915		13.671875
8916		9.765625
8917		11.718750
8918		7.812500
8919		9.765625
8920		5.859375
8921		9.765625
8922		3.906250
8923		7.812500
8924		1.953125
8925		7.812500
8926		1.953125
8927		3.906250
8928		-1.953125
8929		3.906250
8930		-1.953125
8931		1.953125
8932		-3.906250
8933		0.000000
8934		-5.859375
8935		-1.953125
8936		-7.812500
8937		-1.953125
8938		-7.812500
8939		-3.906250
8940		-9.765625
8941		-5.859375
8942		-9.765625
8943		-7.812500
8944		-11.718750
8945		-7.812500
8946		-13.671875
8947		-9.765625
8948		-15.625000
8949		-11.718750
8950		-15.625000
8951		-13.671875
8952		-15.625000
8953		-13.671875
8954		-17.578125
8955		-13.671875
8956		-19.531250
8957		-15.625000
8958		-19.531250
8959		-15.625000
8960		-21.484375
8961		-17.578125
8962		-21.484375
8963		-17.578125
8964		-21.484375
8965		-19.531250
8966		-23.437500
8967		-19.531250
8968		-23.437500
8969		-19.531250
8970		-23.437500
8971		-19.531250
8972		-23.437500
8973		-21.484375
8974		-25.390625
8975		-21.484375
8976		-25.390625
8977		-21.484375
8978		-25.390625
8979		-21.484375
8980		-25.390625
8981		-21.484375
8982		-25.390625
8983		-21.484375
8984		-25.390625
8985		-21.484375
8986		-25.390625
8987		-21.484375
8988		-25.390625
8989		-21.484375
8990		-25.390625
8991		-19.531250
8992		-23.437500
8993		-21.484375
8994		-23.437500
8995		-19.531250
8996		-23.437500
8997		-19.531250
8998		-21.484375
8999		-19.531250
9000		-21.484375
9001		-17.578125
9002		-19.531250
9003		-17.578125
9004		-21.484375
9005		-15.625000
9006		-19.531250
9007		-15.625000
9008		-19.531250
9009		-13.671875
9010		-15.625000
9011		-13.671875
9012		-15.625000
9013		-11.718750
9014		-13.671875
9015		-11.718750
9016		-13.671875
9017		-9.765625
9018		-11.718750
9019		-9.765625
9020		-11.718750
9021		-7.812500
9022		-9.765625
9023		-5.859375
9024		-7.812500
9025		-3.906250
9026		-5.859375
9027		-3.906250
9028		-5.859375
9029		0.000000
9030		-3.906250
9031		0.000000
9032		-1.953125
9033		1.953125
9034		0.000000
9035		1.953125
9036		1.953125
9037		3.906250
9038		1.953125
9039		5.859375
9040		3.906250
9041		7.812500
9042		5.859375
9043		9.765625
9044		7.812500
9045		11.718750
9046		9.765625
9047		11.718750
9048		9.765625
9049		13.671875
9050		11.718750
9051		15.625000
9052		13.671875
9053		17.578125
9054		13.671875
9055		19.531250
9056		15.625000
9057		21.484375
9058		17.578125
9059		21.484375
9060		19.531250
9061		23.437500
9062		21.484375
9063		23.437500
9064		21.484375
9065		25.390625
9066		23.437500
9067		27.343750
9068		25.390625
9069		27.343750
9070		25.390625
9071		31.250000
9072		27.343750
9073		31.250000
9074		29.296875
9075		31.250000
9076		29.296875
9077		33.203125
9078		31.250000
9079		33.203125
9080		31.250000
9081		35.156250
9082		31.250000
9083		37.109375
9084		33.203125
9085		37.109375
9086		35.156250
9087		37.109375
9088		35.156250
9089		39.062500
9090		35.156250
9091		39.062500
9092		37.109375
9093		39.062500
9094		35.156250
9095		41.015625
9096		37.109375
9097		41.015625
9098		37.109375
9099		41.015625
9100		37.109375
9101		41.015625
9102		39.062500
9103		41.015625
9104		39.062500
9105		41.015625
9106		39.062500
9107		42.968750
9108		39.062500
9109		41.015625
9110		39.062500
9111		41.015625
9112		39.062500
9113		41.015625
9114		37.109375
9115		41.015625
9116		37.109375
9117		41.015625
9118		37.109375
9119		41.015625
9120		37.109375
9121		39.062500
9122		35.156250
9123		41.015625
9124		35.156250
9125		39.062500
9126		35.156250
9127		39.062500
9128		35.156250
9129		37.109375
9130		33.203125
9131		37.109375
9132		33.203125
9133		37.109375
9134		33.203125
9135		37.109375
9136		31.250000
9137		33.203125
9138		29.296875
9139		35.156250
9140		29.296875
9141		33.203125
9142		27.343750
9143		31.250000
9144		27.343750
9145		31.250000
9146		25.390625
9147		29.296875
9148		23.437500
9149		27.343750
9150		23.437500
9151		27.343750
9152		21.484375
9153		25.390625
9154		19.531250
9155		23.437500
9156		17.578125
9157		23.437500
9158		17.578125
9159		21.484375
9160		15.625000
9161		19.531250
9162		13.671875
9163		17.578125
9164		13.671875
9165		15.625000
9166		9.765625
9167		15.625000
9168		9.765625
9169		13.671875
9170		7.812500
9171		11.718750
9172		7.812500
9173		9.765625
9174		5.859375
9175		9.765625
9176		3.906250
9177		7.812500
9178		1.953125
9179		5.859375
9180		0.000000
9181		3.906250
9182		0.000000
9183		1.953125
9184		-1.953125
9185		1.953125
9186		-3.906250
9187		0.000000
9188		-5.859375
9189		-1.953125
9190		-7.812500
9191		-3.906250
9192		-9.765625
9193		-3.906250
9194		-9.765625
9195		-5.859375
9196		-11.718750
9197		-7.812500
9198		-11.718750
9199		-9.765625
9200		-13.671875
9201		-9.765625
9202		-13.671875
9203		-11.718750
9204		-15.625000
9205		-13.671875
9206		-17.578125
9207		-13.671875
9208		-17.578125
9209		-15.625000
9210		-19.531250
9211		-15.625000
9212		-19.531250
9213		-17.578125
9214		-21.484375
9215		-17.578125
9216		-21.484375
9217		-19.531250
9218		-21.484375
9219		-17.578125
9220		-23.437500
9221		-19.531250
9222		-23.437500
9223		-19.531250
9224		-23.437500
9225		-19.531250
9226		-23.437500
9227		-21.484375
9228		-23.437500
9229		-21.484375
9230		-25.390625
9231		-21.484375
9232		-25.390625
9233		-21.484375
9234		-25.390625
9235		-21.484375
9236		-23.437500
9237		-21.484375
9238		-23.437500
9239		-21.484375
9240		-25.390625
9241		-21.484375
9242		-23.437500
9243		-21.484375
9244		-23.437500
9245		-21.484375
9246		-23.437500
9247		-19.531250
9248		-23.437500
9249		-19.531250
9250		-23.437500
9251		-17.578125
9252		-21.484375
9253		-19.531250
9254		-19.531250
9255		-17.578125
9256		-21.484375
9257		-15.625000
9258		-19.531250
9259		-15.625000
9260		-17.578125
9261		-15.625000
9262		-17.578125
9263		-13.671875
9264		-15.625000
9265		-11.718750
9266		-15.625000
9267		-11.718750
9268		-13.671875
9269		-11.718750
9270		-11.718750
9271		-9.765625
9272		-11.718750
9273		-7.812500
9274		-9.765625
9275		-5.859375
9276		-9.765625
9277		-5.859375
9278		-7.812500
9279		-3.906250
9280		-5.859375
9281		-1.953125
9282		-3.906250
9283		0.000000
9284		-3.906250
9285		0.000000
9286		-1.953125
9287		1.953125
9288		0.000000
9289		3.906250
9290		1.953125
9291		5.859375
9292		3.906250
9293		7.812500
9294		3.906250
9295		7.812500
9296		5.859375
9297		9.765625
9298		7.812500
9299		11.718750
9300		9.765625
9301		13.671875
9302		9.765625
9303		13.671875
9304		13.671875
9305		15.625000
9306		13.671875
9307		17.578125
9308		15.625000
9309		19.531250
9310		17.578125
9311		21.484375
9312		19.531250
9313		21.484375
9314		19.531250
9315		23.437500
9316		21.484375
9317		25.390625
9318		21.484375
9319		27.343750
9320		23.437500
9321		27.343750
9322		25.390625
9323		27.343750
9324		27.343750
9325		29.296875
9326		27.343750
9327		31.250000
9328		29.296875
9329		31.250000
9330		29.296875
9331		33.203125
9332		31.250000
9333		35.156250
9334		31.250000
9335		35.156250
9336		33.203125
9337		35.156250
9338		33.203125
9339		37.109375
9340		33.203125
9341		37.109375
9342		35.156250
9343		39.062500
9344		35.156250
9345		39.062500
9346		37.109375
9347		39.062500
9348		37.109375
9349		39.062500
9350		37.109375
9351		41.015625
9352		37.109375
9353		41.015625
9354		39.062500
9355		41.015625
9356		37.109375
9357		42.968750
9358		39.062500
9359		41.015625
9360		39.062500
9361		41.015625
9362		39.062500
9363		41.015625
9364		39.062500
9365		41.015625
9366		37.109375
9367		41.015625
9368		37.109375
9369		41.015625
9370		39.062500
9371		41.015625
9372		37.109375
9373		39.062500
9374		37.109375
9375		41.015625
9376		37.109375
9377		39.062500
9378		35.156250
9379		39.062500
9380		35.156250
9381		39.062500
9382		33.203125
9383		37.109375
9384		33.203125
9385		37.109375
9386		31.250000
9387		37.109375
9388		33.203125
9389		35.156250
9390		29.296875
9391		33.203125
9392		29.296875
9393		33.203125
9394		27.343750
9395		31.250000
9396		27.343750
9397		31.250000
9398		27.343750
9399		29.296875
9400		25.390625
9401		29.296875
9402		23.437500
9403		27.343750
9404		23.437500
9405		25.390625
9406		21.484375
9407		23.437500
9408		19.531250
9409		23.437500
9410		17.578125
9411		23.437500
9412		17.578125
9413		21.484375
9414		15.625000
9415		19.531250
9416		13.671875
9417		17.578125
9418		11.718750
9419		15.625000
9420		11.718750
9421		15.625000
9422		9.765625
9423		11.718750
9424		7.812500
9425		11.718750
9426		5.859375
9427		9.765625
9428		3.906250
9429		7.812500
9430		1.953125
9431		5.859375
9432		0.000000
9433		5.859375
9434		0.000000
9435		3.906250
9436		-1.953125
9437		1.953125
9438		-3.906250
9439		0.000000
9440		-5.859375
9441		-1.953125
9442		-5.859375
9443		-1.953125
9444		-7.812500
9445		-3.906250
9446		-9.765625
9447		-5.859375
9448		-9.765625
9449		-7.812500
9450		-11.718750
9451		-7.812500
9452		-13.671875
9453		-9.765625
9454		-13.671875
9455		-11.718750
9456		-15.625000
9457		-11.718750
9458		-17.578125
9459		-13.671875
9460		-17.578125
9461		-13.671875
9462		-19.531250
9463		-15.625000
9464		-19.531250
9465		-15.625000
9466		-19.531250
9467		-17.578125
9468		-21.484375
9469		-17.578125
9470		-21.484375
9471		-17.578125
9472		-21.484375
9473		-19.531250
9474		-23.437500
9475		-19.531250
9476		-23.437500
9477		-21.484375
9478		-23.437500
9479		-21.484375
9480		-23.437500
9481		-21.484375
9482		-25.390625
9483		-21.484375
9484		-25.390625
9485		-21.484375
9486		-25.390625
9487		-21.484375
9488		-25.390625
9489		-21.484375
9490		-23.437500
9491		-23.437500
9492		-25.390625
9493		-21.484375
9494		-25.390625
9495		-21.484375
9496		-23.437500
9497		-21.484375
9498		-23.437500
9499		-21.484375
9500		-23.437500
9501		-19.531250
9502		-23.437500
9503		-19.531250
9504		-23.437500
9505		-19.531250
9506		-21.484375
9507		-17.578125
9508		-21.484375
9509		-17.578125
9510		-19.531250
9511		-15.625000
9512		-19.531250
9513		-15.625000
9514		-17.578125
9515		-15.625000
9516		-17.578125
9517		-13.671875
9518		-15.625000
9519		-13.671875
9520		-15.625000
9521		-11.718750
9522		-13.671875
9523		-9.765625
9524		-11.718750
9525		-7.812500
9526		-11.718750
9527		-7.812500
9528		-9.765625
9529		-5.859375
9530		-7.812500
9531		-3.906250
9532		-7.812500
9533		-3.906250
9534		-5.859375
9535		-1.953125
9536		-3.906250
9537		0.000000
9538		-1.953125
9539		0.000000
9540		0.000000
9541		1.953125
9542		0.000000
9543		3.906250
9544		1.953125
9545		5.859375
9546		3.906250
9547		7.812500
9548		5.859375
9549		9.765625
9550		5.859375
9551		11.718750
9552		7.812500
9553		11.718750
9554		9.765625
9555		13.671875
9556		11.718750
9557		15.625000
9558		11.718750
9559		17.578125
9560		15.625000
9561		17.578125
9562		15.625000
9563		19.531250
9564		17.578125
9565		21.484375
9566		19.531250
9567		23.437500
9568		19.531250
9569		23.437500
9570		21.484375
9571		25.390625
9572		23.437500
9573		25.390625
9574		25.390625
9575		27.343750
9576		25.390625
9577		29.296875
9578		27.343750
9579		31.250000
9580		29.296875
9581		31.250000
9582		29.296875
9583		33.203125
9584		31.250000
9585		33.203125
9586		31.250000
9587		35.156250
9588		31.250000
9589		35.156250
9590		33.203125
9591		35.156250
9592		35.156250
9593		37.109375
9594		35.156250
9595		37.109375
9596		35.156250
9597		39.062500
9598		37.109375
9599		39.062500
9600		37.109375
9601		39.062500
9602		37.109375
9603		39.062500
9604		37.109375
9605		41.015625
9606		39.062500
9607		41.015625
9608		37.109375
9609		41.015625
9610		37.109375
9611		41.015625
9612		39.062500
9613		41.015625
9614		39.062500
9615		41.015625
9616		39.062500
9617		41.015625
9618		39.062500
9619		41.015625
9620		39.062500
9621		41.015625
9622		39.062500
9623		41.015625
9624		39.062500
9625		41.015625
9626		37.109375
9627		41.015625
9628		37.109375
9629		39.062500
9630		37.109375
9631		39.062500
9632		35.156250
9633		39.062500
9634		35.156250
9635		39.062500
9636		35.156250
9637		37.109375
9638		33.203125
9639		37.109375
9640		33.203125
9641		35.156250
9642		31.250000
9643		35.156250
9644		31.250000
9645		33.203125
9646		29.296875
9647		33.203125
9648		29.296875
9649		31.250000
9650		27.343750
9651		31.250000
9652		27.343750
9653		29.296875
9654		23.437500
9655		29.296875
9656		23.437500
9657		27.343750
9658		21.484375
9659		25.390625
9660		19.531250
9661		25.390625
9662		19.531250
9663		23.437500
9664		17.578125
9665		21.484375
9666		15.625000
9667		19.531250
9668		15.625000
9669		19.531250
9670		13.671875
9671		17.578125
9672		11.718750
9673		15.625000
9674		9.765625
9675		13.671875
9676		7.812500
9677		11.718750
9678		5.859375
9679		9.765625
9680		5.859375
9681		9.765625
9682		3.906250
9683		7.812500
9684		1.953125
9685		5.859375
9686		0.000000
9687		5.859375
9688		0.000000
9689		3.906250
9690		-1.953125
9691		1.953125
9692		-3.906250
9693		0.000000
9694		-5.859375
9695		-1.953125
9696		-5.859375
9697		-3.906250
9698		-7.812500
9699		-3.906250
9700		-9.765625
9701		-5.859375
9702		-11.718750
9703		-7.812500
9704		-13.671875
9705		-7.812500
9706		-13.671875
9707		-9.765625
9708		-13.671875
9709		-11.718750
9710		-15.625000
9711		-11.718750
9712		-17.578125
9713		-13.671875
9714		-17.578125
9715		-13.671875
9716		-19.531250
9717		-15.625000
9718		-19.531250
9719		-15.625000
9720		-19.531250
9721		-17.578125
9722		-21.484375
9723		-17.578125
9724		-21.484375
9725		-19.531250
9726		-21.484375
9727		-19.531250
9728		-23.437500
9729		-19.531250
9730		-23.437500
9731		-21.484375
9732		-23.437500
9733		-19.531250
9734		-23.437500
9735		-19.531250
9736		-25.390625
9737		-21.484375
9738		-25.390625
9739		-21.484375
9740		-25.390625
9741		-21.484375
9742		-23.437500
9743		-21.484375
9744		-25.390625
9745		-21.484375
9746		-23.437500
9747		-21.484375
9748		-23.437500
9749		-21.484375
9750		-23.437500
9751		-19.531250
9752		-23.437500
9753		-21.484375
9754		-23.437500
9755		-19.531250
9756		-21.484375
9757		-19.531250
9758		-21.484375
9759		-19.531250
9760		-21.484375
9761		-17.578125
9762		-19.531250
9763		-17.578125
9764		-19.531250
9765		-15.625000
9766		-19.531250
9767		-15.625000
9768		-17.578125
9769		-13.671875
9770		-15.625000
9771		-11.718750
9772		-15.625000
9773		-11.718750
9774		-13.671875
9775		-11.718750
9776		-11.718750
9777		-7.812500
9778		-11.718750
9779		-7.812500
9780		-9.765625
9781		-5.859375
9782		-9.765625
9783		-5.859375
9784		-7.812500
9785		-3.906250
9786		-5.859375
9787		-1.953125
9788		-3.906250
9789		0.000000
9790		-3.906250
9791		0.000000
9792		-1.953125
9793		1.953125
9794		0.000000
9795		3.906250
9796		1.953125
9797		5.859375
9798		1.953125
9799		7.812500
9800		3.906250
9801		7.812500
9802		5.859375
9803		9.765625
9804		7.812500
9805		11.718750
9806		9.765625
9807		11.718750
9808		11.718750
9809		13.671875
9810		11.718750
9811		15.625000
9812		13.671875
9813		17.578125
9814		15.625000
9815		19.531250
9816		15.625000
9817		19.531250
9818		17.578125
9819		21.484375
9820		19.531250
9821		23.437500
9822		21.484375
9823		25.390625
9824		23.437500
9825		25.390625
9826		23.437500
9827		27.343750
9828		23.437500
9829		27.343750
9830		25.390625
9831		31.250000
9832		27.343750
9833		31.250000
9834		29.296875
9835		33.203125
9836		29.296875
9837		33.203125
9838		29.296875
9839		35.156250
9840		31.250000
9841		35.156250
9842		33.203125
9843		35.156250
9844		33.203125
9845		37.109375
9846		35.156250
9847		37.109375
9848		35.156250
9849		39.062500
9850		35.156250
9851		39.062500
9852		37.109375
9853		39.062500
9854		37.109375
9855		41.015625
9856		37.109375
9857		41.015625
9858		39.062500
9859		41.015625
9860		39.062500
9861		42.968750
9862		39.062500
9863		41.015625
9864		39.062500
9865		41.015625
9866		39.062500
9867		41.015625
9868		39.062500
9869		42.968750
9870		39.062500
9871		41.015625
9872		37.109375
9873		41.015625
9874		39.062500
9875		41.015625
9876		39.062500
9877		41.015625
9878		37.109375
9879		41.015625
9880		37.109375
9881		41.015625
9882		37.109375
9883		39.062500
9884		37.109375
9885		39.062500
9886		35.156250
9887		39.062500
9888		35.156250
9889		37.109375
9890		35.156250
9891		37.109375
9892		33.203125
9893		37.109375
9894		31.250000
9895		35.156250
9896		31.250000
9897		35.156250
9898		31.250000
9899		35.156250
9900		29.296875
9901		33.203125
9902		27.343750
9903		31.250000
9904		27.343750
9905		29.296875
9906		25.390625
9907		29.296875
9908		25.390625
9909		27.343750
9910		23.437500
9911		25.390625
9912		21.484375
9913		25.390625
9914		21.484375
9915		23.437500
9916		19.531250
9917		23.437500
9918		17.578125
9919		21.484375
9920		15.625000
9921		19.531250
9922		13.671875
9923		19.531250
9924		13.671875
9925		17.578125
9926		11.718750
9927		15.625000
9928		9.765625
9929		13.671875
9930		7.812500
9931		11.718750
9932		5.859375
9933		9.765625
9934		3.906250
9935		7.812500
9936		3.906250
9937		7.812500
9938		1.953125
9939		5.859375
9940		0.000000
9941		3.906250
9942		0.000000
9943		1.953125
9944		-1.953125
9945		0.000000
9946		-3.906250
9947		0.000000
9948		-5.859375
9949		-1.953125
9950		-5.859375
9951		-3.906250
9952		-7.812500
9953		-5.859375
9954		-9.765625
9955		-5.859375
9956		-11.718750
9957		-7.812500
9958		-11.718750
9959		-9.765625
9960		-13.671875
9961		-9.765625
9962		-15.625000
9963		-11.718750
9964		-15.625000
9965		-11.718750
9966		-15.625000
9967		-13.671875
9968		-17.578125
9969		-13.671875
9970		-19.531250
9971		-15.625000
9972		-19.531250
9973		-15.625000
9974		-21.484375
9975		-17.578125
9976		-21.484375
9977		-19.531250
9978		-23.437500
9979		-17.578125
9980		-23.437500
9981		-19.531250
9982		-23.437500
9983		-19.531250
9984		-23.437500
9985		-21.484375
9986		-23.437500
9987		-21.484375
9988		-23.437500
9989		-21.484375
9990		-25.390625
9991		-21.484375
9992		-23.437500
9993		-21.484375
9994		-23.437500
9995		-21.484375
9996		-25.390625
9997		-21.484375
9998		-25.390625
9999		-21.484375
10000		-25.390625
