Channel              :		CH1
Frequency            :		1.986kHz
Period               :		0.503ms
PK-PK                :		58.59mV
Probe attenuation    :		1X
Voltage per ADC value:		0.122070mV
Time interval        :		2.00000us

index		CH1_Voltage(mV)
1		35.156250
2		35.156250
3		37.109375
4		35.156250
5		39.062500
6		35.156250
7		39.062500
8		35.156250
9		37.109375
10		35.156250
11		39.062500
12		35.156250
13		39.062500
14		35.156250
15		37.109375
16		35.156250
17		37.109375
18		35.156250
19		39.062500
20		35.156250
21		37.109375
22		33.203125
23		37.109375
24		33.203125
25		37.109375
26		33.203125
27		35.156250
28		33.203125
29		37.109375
30		31.250000
31		35.156250
32		31.250000
33		35.156250
34		31.250000
35		33.203125
36		29.296875
37		33.203125
38		29.296875
39		33.203125
40		27.343750
41		33.203125
42		27.343750
43		31.250000
44		27.343750
45		31.250000
46		25.390625
47		29.296875
48		25.390625
49		29.296875
50		23.437500
51		27.343750
52		23.437500
53		27.343750
54		21.484375
55		25.390625
56		19.531250
57		25.390625
58		19.531250
59		23.437500
60		19.531250
61		21.484375
62		17.578125
63		21.484375
64		15.625000
65		19.531250
66		13.671875
67		17.578125
68		13.671875
69		17.578125
70		11.718750
71		15.625000
72		11.718750
73		15.625000
74		9.765625
75		13.671875
76		9.765625
77		11.718750
78		5.859375
79		11.718750
80		5.859375
81		9.765625
82		5.859375
83		7.812500
84		3.906250
85		7.812500
86		3.906250
87		5.859375
88		1.953125
89		5.859375
90		0.000000
91		3.906250
92		0.000000
93		1.953125
94		-1.953125
95		1.953125
96		-1.953125
97		0.000000
98		-3.906250
99		0.000000
100		-3.906250
101		-1.953125
102		-5.859375
103		-1.953125
104		-5.859375
105		-3.906250
106		-7.812500
107		-3.906250
108		-7.812500
109		-5.859375
110		-9.765625
111		-5.859375
112		-9.765625
113		-5.859375
114		-9.765625
115		-7.812500
116		-11.718750
117		-7.812500
118		-11.718750
119		-9.765625
120		-11.718750
121		-9.765625
122		-13.671875
123		-9.765625
124		-13.671875
125		-9.765625
126		-13.671875
127		-11.718750
128		-13.671875
129		-9.765625
130		-13.671875
131		-11.718750
132		-13.671875
133		-9.765625
134		-13.671875
135		-11.718750
136		-15.625000
137		-11.718750
138		-13.671875
139		-11.718750
140		-13.671875
141		-11.718750
142		-13.671875
143		-11.718750
144		-13.671875
145		-11.718750
146		-13.671875
147		-11.718750
148		-13.671875
149		-9.765625
150		-11.718750
151		-9.765625
152		-11.718750
153		-9.765625
154		-11.718750
155		-9.765625
156		-11.718750
157		-7.812500
158		-11.718750
159		-7.812500
160		-9.765625
161		-7.812500
162		-9.765625
163		-5.859375
164		-7.812500
165		-5.859375
166		-7.812500
167		-3.906250
168		-5.859375
169		-3.906250
170		-5.859375
171		-1.953125
172		-5.859375
173		-1.953125
174		-3.906250
175		0.000000
176		-1.953125
177		0.000000
178		-1.953125
179		1.953125
180		0.000000
181		1.953125
182		0.000000
183		3.906250
184		1.953125
185		3.906250
186		1.953125
187		5.859375
188		3.906250
189		7.812500
190		5.859375
191		9.765625
192		5.859375
193		9.765625
194		7.812500
195		11.718750
196		9.765625
197		13.671875
198		9.765625
199		13.671875
200		11.718750
201		15.625000
202		13.671875
203		15.625000
204		13.671875
205		17.578125
206		13.671875
207		17.578125
208		15.625000
209		19.531250
210		17.578125
211		21.484375
212		17.578125
213		21.484375
214		19.531250
215		23.437500
216		19.531250
217		23.437500
218		21.484375
219		25.390625
220		23.437500
221		27.343750
222		23.437500
223		27.343750
224		25.390625
225		27.343750
226		25.390625
227		29.296875
228		27.343750
229		29.296875
230		27.343750
231		31.250000
232		29.296875
233		31.250000
234		29.296875
235		33.203125
236		29.296875
237		33.203125
238		31.250000
239		35.156250
240		31.250000
241		35.156250
242		31.250000
243		35.156250
244		33.203125
245		35.156250
246		33.203125
247		37.109375
248		33.203125
249		37.109375
250		33.203125
251		37.109375
252		35.156250
253		37.109375
254		35.156250
255		37.109375
256		35.156250
257		39.062500
258		35.156250
259		39.062500
260		35.156250
261		37.109375
262		35.156250
263		39.062500
264		35.156250
265		39.062500
266		35.156250
267		37.109375
268		35.156250
269		37.109375
270		35.156250
271		39.062500
272		33.203125
273		37.109375
274		33.203125
275		37.109375
276		33.203125
277		37.109375
278		33.203125
279		35.156250
280		31.250000
281		37.109375
282		31.250000
283		35.156250
284		31.250000
285		35.156250
286		31.250000
287		33.203125
288		29.296875
289		33.203125
290		29.296875
291		33.203125
292		29.296875
293		33.203125
294		27.343750
295		31.250000
296		25.390625
297		31.250000
298		25.390625
299		29.296875
300		25.390625
301		29.296875
302		23.437500
303		27.343750
304		23.437500
305		27.343750
306		21.484375
307		25.390625
308		19.531250
309		23.437500
310		19.531250
311		23.437500
312		17.578125
313		21.484375
314		17.578125
315		21.484375
316		15.625000
317		19.531250
318		15.625000
319		17.578125
320		13.671875
321		17.578125
322		11.718750
323		15.625000
324		11.718750
325		15.625000
326		9.765625
327		13.671875
328		9.765625
329		11.718750
330		7.812500
331		11.718750
332		5.859375
333		9.765625
334		3.906250
335		7.812500
336		3.906250
337		7.812500
338		1.953125
339		5.859375
340		1.953125
341		5.859375
342		0.000000
343		3.906250
344		0.000000
345		1.953125
346		-3.906250
347		1.953125
348		-3.906250
349		0.000000
350		-3.906250
351		0.000000
352		-5.859375
353		-1.953125
354		-5.859375
355		-1.953125
356		-7.812500
357		-1.953125
358		-9.765625
359		-3.906250
360		-7.812500
361		-5.859375
362		-9.765625
363		-5.859375
364		-9.765625
365		-5.859375
366		-11.718750
367		-7.812500
368		-11.718750
369		-7.812500
370		-11.718750
371		-9.765625
372		-13.671875
373		-9.765625
374		-13.671875
375		-9.765625
376		-13.671875
377		-9.765625
378		-13.671875
379		-11.718750
380		-15.625000
381		-9.765625
382		-15.625000
383		-11.718750
384		-15.625000
385		-11.718750
386		-13.671875
387		-11.718750
388		-15.625000
389		-11.718750
390		-15.625000
391		-11.718750
392		-15.625000
393		-11.718750
394		-13.671875
395		-11.718750
396		-13.671875
397		-11.718750
398		-13.671875
399		-9.765625
400		-13.671875
401		-9.765625
402		-13.671875
403		-9.765625
404		-13.671875
405		-9.765625
406		-11.718750
407		-9.765625
408		-11.718750
409		-7.812500
410		-11.718750
411		-7.812500
412		-9.765625
413		-7.812500
414		-9.765625
415		-5.859375
416		-7.812500
417		-5.859375
418		-7.812500
419		-3.906250
420		-7.812500
421		-3.906250
422		-5.859375
423		-1.953125
424		-5.859375
425		-1.953125
426		-3.906250
427		-1.953125
428		-1.953125
429		0.000000
430		-1.953125
431		1.953125
432		0.000000
433		1.953125
434		0.000000
435		3.906250
436		1.953125
437		5.859375
438		1.953125
439		5.859375
440		3.906250
441		7.812500
442		5.859375
443		9.765625
444		5.859375
445		9.765625
446		7.812500
447		9.765625
448		7.812500
449		13.671875
450		9.765625
451		13.671875
452		9.765625
453		13.671875
454		11.718750
455		15.625000
456		13.671875
457		17.578125
458		13.671875
459		19.531250
460		15.625000
461		19.531250
462		17.578125
463		21.484375
464		19.531250
465		21.484375
466		19.531250
467		23.437500
468		21.484375
469		23.437500
470		21.484375
471		25.390625
472		23.437500
473		25.390625
474		23.437500
475		27.343750
476		25.390625
477		29.296875
478		25.390625
479		29.296875
480		27.343750
481		29.296875
482		27.343750
483		31.250000
484		29.296875
485		31.250000
486		29.296875
487		33.203125
488		29.296875
489		33.203125
490		31.250000
491		33.203125
492		31.250000
493		35.156250
494		31.250000
495		35.156250
496		33.203125
497		35.156250
498		31.250000
499		37.109375
500		33.203125
501		37.109375
502		33.203125
503		37.109375
504		33.203125
505		37.109375
506		33.203125
507		37.109375
508		33.203125
509		37.109375
510		33.203125
511		37.109375
512		35.156250
513		37.109375
514		35.156250
515		37.109375
516		35.156250
517		39.062500
518		35.156250
519		39.062500
520		35.156250
521		37.109375
522		35.156250
523		37.109375
524		33.203125
525		37.109375
526		33.203125
527		37.109375
528		33.203125
529		37.109375
530		33.203125
531		35.156250
532		33.203125
533		35.156250
534		31.250000
535		35.156250
536		31.250000
537		35.156250
538		31.250000
539		33.203125
540		29.296875
541		33.203125
542		29.296875
543		33.203125
544		27.343750
545		31.250000
546		27.343750
547		31.250000
548		25.390625
549		29.296875
550		25.390625
551		29.296875
552		25.390625
553		27.343750
554		23.437500
555		27.343750
556		21.484375
557		27.343750
558		21.484375
559		25.390625
560		19.531250
561		23.437500
562		19.531250
563		23.437500
564		19.531250
565		21.484375
566		15.625000
567		21.484375
568		15.625000
569		19.531250
570		13.671875
571		19.531250
572		13.671875
573		17.578125
574		11.718750
575		15.625000
576		11.718750
577		15.625000
578		9.765625
579		13.671875
580		9.765625
581		11.718750
582		7.812500
583		11.718750
584		5.859375
585		9.765625
586		3.906250
587		9.765625
588		3.906250
589		7.812500
590		1.953125
591		5.859375
592		1.953125
593		5.859375
594		0.000000
595		3.906250
596		0.000000
597		1.953125
598		-1.953125
599		1.953125
600		-3.906250
601		1.953125
602		-3.906250
603		0.000000
604		-5.859375
605		-1.953125
606		-5.859375
607		-1.953125
608		-7.812500
609		-3.906250
610		-7.812500
611		-3.906250
612		-7.812500
613		-5.859375
614		-9.765625
615		-5.859375
616		-11.718750
617		-5.859375
618		-11.718750
619		-7.812500
620		-11.718750
621		-7.812500
622		-11.718750
623		-9.765625
624		-11.718750
625		-9.765625
626		-13.671875
627		-9.765625
628		-13.671875
629		-9.765625
630		-13.671875
631		-11.718750
632		-15.625000
633		-9.765625
634		-13.671875
635		-11.718750
636		-15.625000
637		-11.718750
638		-13.671875
639		-11.718750
640		-15.625000
641		-11.718750
642		-13.671875
643		-11.718750
644		-15.625000
645		-11.718750
646		-13.671875
647		-11.718750
648		-13.671875
649		-11.718750
650		-13.671875
651		-9.765625
652		-13.671875
653		-9.765625
654		-13.671875
655		-9.765625
656		-13.671875
657		-9.765625
658		-11.718750
659		-9.765625
660		-11.718750
661		-7.812500
662		-11.718750
663		-7.812500
664		-9.765625
665		-7.812500
666		-9.765625
667		-5.859375
668		-7.812500
669		-5.859375
670		-7.812500
671		-3.906250
672		-5.859375
673		-3.906250
674		-5.859375
675		-1.953125
676		-5.859375
677		-1.953125
678		-3.906250
679		0.000000
680		-1.953125
681		0.000000
682		-1.953125
683		1.953125
684		-1.953125
685		1.953125
686		0.000000
687		3.906250
688		1.953125
689		3.906250
690		1.953125
691		5.859375
692		3.906250
693		7.812500
694		5.859375
695		7.812500
696		5.859375
697		9.765625
698		7.812500
699		11.718750
700		7.812500
701		11.718750
702		9.765625
703		13.671875
704		11.718750
705		13.671875
706		11.718750
707		17.578125
708		13.671875
709		17.578125
710		15.625000
711		17.578125
712		15.625000
713		19.531250
714		17.578125
715		19.531250
716		17.578125
717		21.484375
718		19.531250
719		23.437500
720		21.484375
721		23.437500
722		21.484375
723		25.390625
724		23.437500
725		25.390625
726		23.437500
727		27.343750
728		25.390625
729		29.296875
730		25.390625
731		29.296875
732		27.343750
733		29.296875
734		27.343750
735		31.250000
736		27.343750
737		31.250000
738		29.296875
739		33.203125
740		29.296875
741		33.203125
742		31.250000
743		33.203125
744		31.250000
745		35.156250
746		31.250000
747		35.156250
748		33.203125
749		35.156250
750		33.203125
751		35.156250
752		33.203125
753		37.109375
754		33.203125
755		37.109375
756		35.156250
757		37.109375
758		35.156250
759		37.109375
760		35.156250
761		37.109375
762		35.156250
763		39.062500
764		35.156250
765		37.109375
766		35.156250
767		37.109375
768		33.203125
769		37.109375
770		35.156250
771		37.109375
772		35.156250
773		37.109375
774		35.156250
775		37.109375
776		33.203125
777		37.109375
778		33.203125
779		37.109375
780		33.203125
781		37.109375
782		33.203125
783		35.156250
784		31.250000
785		35.156250
786		31.250000
787		35.156250
788		31.250000
789		35.156250
790		31.250000
791		33.203125
792		29.296875
793		33.203125
794		29.296875
795		33.203125
796		27.343750
797		31.250000
798		27.343750
799		31.250000
800		25.390625
801		29.296875
802		25.390625
803		29.296875
804		25.390625
805		27.343750
806		23.437500
807		27.343750
808		23.437500
809		25.390625
810		21.484375
811		25.390625
812		19.531250
813		23.437500
814		19.531250
815		21.484375
816		19.531250
817		21.484375
818		15.625000
819		21.484375
820		15.625000
821		19.531250
822		13.671875
823		17.578125
824		13.671875
825		17.578125
826		11.718750
827		15.625000
828		9.765625
829		13.671875
830		9.765625
831		13.671875
832		7.812500
833		11.718750
834		5.859375
835		11.718750
836		5.859375
837		9.765625
838		3.906250
839		7.812500
840		3.906250
841		5.859375
842		1.953125
843		5.859375
844		1.953125
845		3.906250
846		0.000000
847		3.906250
848		0.000000
849		1.953125
850		-1.953125
851		0.000000
852		-3.906250
853		0.000000
854		-5.859375
855		0.000000
856		-5.859375
857		-1.953125
858		-5.859375
859		-3.906250
860		-7.812500
861		-3.906250
862		-7.812500
863		-3.906250
864		-9.765625
865		-5.859375
866		-9.765625
867		-5.859375
868		-9.765625
869		-5.859375
870		-11.718750
871		-7.812500
872		-11.718750
873		-7.812500
874		-11.718750
875		-9.765625
876		-11.718750
877		-9.765625
878		-13.671875
879		-9.765625
880		-15.625000
881		-9.765625
882		-13.671875
883		-11.718750
884		-13.671875
885		-11.718750
886		-15.625000
887		-11.718750
888		-13.671875
889		-11.718750
890		-15.625000
891		-11.718750
892		-15.625000
893		-11.718750
894		-15.625000
895		-11.718750
896		-15.625000
897		-11.718750
898		-13.671875
899		-11.718750
900		-13.671875
901		-11.718750
902		-15.625000
903		-9.765625
904		-13.671875
905		-9.765625
906		-13.671875
907		-9.765625
908		-11.718750
909		-9.765625
910		-11.718750
911		-7.812500
912		-11.718750
913		-7.812500
914		-11.718750
915		-7.812500
916		-9.765625
917		-7.812500
918		-9.765625
919		-5.859375
920		-7.812500
921		-5.859375
922		-7.812500
923		-3.906250
924		-7.812500
925		-3.906250
926		-5.859375
927		-1.953125
928		-5.859375
929		-1.953125
930		-3.906250
931		0.000000
932		-1.953125
933		0.000000
934		-1.953125
935		1.953125
936		0.000000
937		1.953125
938		0.000000
939		3.906250
940		1.953125
941		5.859375
942		1.953125
943		5.859375
944		3.906250
945		7.812500
946		5.859375
947		7.812500
948		5.859375
949		9.765625
950		7.812500
951		9.765625
952		9.765625
953		11.718750
954		9.765625
955		13.671875
956		11.718750
957		15.625000
958		11.718750
959		15.625000
960		13.671875
961		17.578125
962		13.671875
963		17.578125
964		15.625000
965		19.531250
966		17.578125
967		19.531250
968		17.578125
969		23.437500
970		19.531250
971		23.437500
972		19.531250
973		23.437500
974		21.484375
975		25.390625
976		23.437500
977		25.390625
978		23.437500
979		27.343750
980		23.437500
981		29.296875
982		25.390625
983		29.296875
984		27.343750
985		29.296875
986		27.343750
987		31.250000
988		29.296875
989		31.250000
990		29.296875
991		31.250000
992		29.296875
993		33.203125
994		31.250000
995		33.203125
996		31.250000
997		33.203125
998		31.250000
999		35.156250
1000		33.203125
1001		35.156250
1002		33.203125
1003		37.109375
1004		33.203125
1005		37.109375
1006		33.203125
1007		37.109375
1008		35.156250
1009		37.109375
1010		33.203125
1011		37.109375
1012		33.203125
1013		37.109375
1014		33.203125
1015		39.062500
1016		35.156250
1017		37.109375
1018		35.156250
1019		37.109375
1020		35.156250
1021		39.062500
1022		35.156250
1023		37.109375
1024		35.156250
1025		37.109375
1026		33.203125
1027		37.109375
1028		33.203125
1029		37.109375
1030		33.203125
1031		37.109375
1032		33.203125
1033		37.109375
1034		33.203125
1035		35.156250
1036		31.250000
1037		35.156250
1038		31.250000
1039		35.156250
1040		31.250000
1041		35.156250
1042		31.250000
1043		33.203125
1044		29.296875
1045		33.203125
1046		29.296875
1047		33.203125
1048		29.296875
1049		31.250000
1050		27.343750
1051		31.250000
1052		25.390625
1053		29.296875
1054		25.390625
1055		29.296875
1056		23.437500
1057		27.343750
1058		23.437500
1059		27.343750
1060		23.437500
1061		25.390625
1062		21.484375
1063		25.390625
1064		19.531250
1065		23.437500
1066		19.531250
1067		23.437500
1068		17.578125
1069		21.484375
1070		17.578125
1071		21.484375
1072		15.625000
1073		19.531250
1074		13.671875
1075		17.578125
1076		13.671875
1077		17.578125
1078		11.718750
1079		15.625000
1080		11.718750
1081		13.671875
1082		9.765625
1083		13.671875
1084		7.812500
1085		11.718750
1086		7.812500
1087		9.765625
1088		5.859375
1089		9.765625
1090		3.906250
1091		7.812500
1092		3.906250
1093		7.812500
1094		1.953125
1095		5.859375
1096		0.000000
1097		3.906250
1098		0.000000
1099		3.906250
1100		-1.953125
1101		1.953125
1102		-1.953125
1103		0.000000
1104		-3.906250
1105		0.000000
1106		-3.906250
1107		0.000000
1108		-5.859375
1109		-1.953125
1110		-7.812500
1111		-3.906250
1112		-7.812500
1113		-3.906250
1114		-7.812500
1115		-3.906250
1116		-9.765625
1117		-5.859375
1118		-9.765625
1119		-7.812500
1120		-11.718750
1121		-7.812500
1122		-11.718750
1123		-7.812500
1124		-11.718750
1125		-7.812500
1126		-11.718750
1127		-9.765625
1128		-13.671875
1129		-9.765625
1130		-13.671875
1131		-9.765625
1132		-15.625000
1133		-9.765625
1134		-13.671875
1135		-11.718750
1136		-13.671875
1137		-11.718750
1138		-15.625000
1139		-11.718750
1140		-15.625000
1141		-11.718750
1142		-15.625000
1143		-11.718750
1144		-15.625000
1145		-11.718750
1146		-15.625000
1147		-11.718750
1148		-15.625000
1149		-9.765625
1150		-13.671875
1151		-11.718750
1152		-13.671875
1153		-11.718750
1154		-15.625000
1155		-9.765625
1156		-13.671875
1157		-9.765625
1158		-13.671875
1159		-9.765625
1160		-13.671875
1161		-9.765625
1162		-11.718750
1163		-7.812500
1164		-11.718750
1165		-7.812500
1166		-11.718750
1167		-7.812500
1168		-9.765625
1169		-7.812500
1170		-9.765625
1171		-5.859375
1172		-9.765625
1173		-5.859375
1174		-7.812500
1175		-5.859375
1176		-7.812500
1177		-3.906250
1178		-5.859375
1179		-1.953125
1180		-5.859375
1181		-1.953125
1182		-3.906250
1183		0.000000
1184		-1.953125
1185		0.000000
1186		-1.953125
1187		1.953125
1188		-1.953125
1189		1.953125
1190		0.000000
1191		3.906250
1192		0.000000
1193		5.859375
1194		1.953125
1195		5.859375
1196		3.906250
1197		7.812500
1198		5.859375
1199		7.812500
1200		5.859375
1201		9.765625
1202		7.812500
1203		9.765625
1204		7.812500
1205		11.718750
1206		9.765625
1207		13.671875
1208		11.718750
1209		13.671875
1210		11.718750
1211		15.625000
1212		13.671875
1213		17.578125
1214		13.671875
1215		19.531250
1216		15.625000
1217		19.531250
1218		17.578125
1219		19.531250
1220		17.578125
1221		21.484375
1222		19.531250
1223		23.437500
1224		19.531250
1225		23.437500
1226		21.484375
1227		25.390625
1228		21.484375
1229		25.390625
1230		23.437500
1231		27.343750
1232		25.390625
1233		29.296875
1234		23.437500
1235		29.296875
1236		25.390625
1237		29.296875
1238		27.343750
1239		31.250000
1240		27.343750
1241		31.250000
1242		29.296875
1243		33.203125
1244		29.296875
1245		33.203125
1246		29.296875
1247		33.203125
1248		31.250000
1249		35.156250
1250		31.250000
1251		35.156250
1252		33.203125
1253		35.156250
1254		31.250000
1255		37.109375
1256		33.203125
1257		37.109375
1258		33.203125
1259		37.109375
1260		33.203125
1261		37.109375
1262		33.203125
1263		37.109375
1264		33.203125
1265		37.109375
1266		33.203125
1267		39.062500
1268		35.156250
1269		37.109375
1270		35.156250
1271		37.109375
1272		33.203125
1273		39.062500
1274		33.203125
1275		37.109375
1276		33.203125
1277		37.109375
1278		33.203125
1279		37.109375
1280		33.203125
1281		37.109375
1282		33.203125
1283		37.109375
1284		31.250000
1285		35.156250
1286		33.203125
1287		35.156250
1288		33.203125
1289		35.156250
1290		31.250000
1291		35.156250
1292		31.250000
1293		33.203125
1294		31.250000
1295		33.203125
1296		29.296875
1297		33.203125
1298		29.296875
1299		33.203125
1300		27.343750
1301		31.250000
1302		27.343750
1303		29.296875
1304		27.343750
1305		29.296875
1306		25.390625
1307		29.296875
1308		25.390625
1309		27.343750
1310		23.437500
1311		27.343750
1312		21.484375
1313		25.390625
1314		21.484375
1315		25.390625
1316		19.531250
1317		23.437500
1318		19.531250
1319		23.437500
1320		17.578125
1321		21.484375
1322		15.625000
1323		21.484375
1324		15.625000
1325		19.531250
1326		13.671875
1327		17.578125
1328		13.671875
1329		17.578125
1330		11.718750
1331		15.625000
1332		9.765625
1333		13.671875
1334		9.765625
1335		13.671875
1336		7.812500
1337		11.718750
1338		5.859375
1339		9.765625
1340		5.859375
1341		9.765625
1342		3.906250
1343		7.812500
1344		3.906250
1345		7.812500
1346		1.953125
1347		5.859375
1348		1.953125
1349		5.859375
1350		-1.953125
1351		3.906250
1352		-1.953125
1353		1.953125
1354		-1.953125
1355		0.000000
1356		-3.906250
1357		0.000000
1358		-3.906250
1359		-1.953125
1360		-5.859375
1361		-1.953125
1362		-5.859375
1363		-3.906250
1364		-7.812500
1365		-3.906250
1366		-9.765625
1367		-5.859375
1368		-9.765625
1369		-3.906250
1370		-9.765625
1371		-7.812500
1372		-11.718750
1373		-7.812500
1374		-11.718750
1375		-7.812500
1376		-13.671875
1377		-9.765625
1378		-13.671875
1379		-9.765625
1380		-13.671875
1381		-9.765625
1382		-13.671875
1383		-9.765625
1384		-13.671875
1385		-9.765625
1386		-13.671875
1387		-11.718750
1388		-13.671875
1389		-11.718750
1390		-15.625000
1391		-11.718750
1392		-15.625000
1393		-11.718750
1394		-15.625000
1395		-11.718750
1396		-15.625000
1397		-11.718750
1398		-15.625000
1399		-11.718750
1400		-15.625000
1401		-11.718750
1402		-15.625000
1403		-11.718750
1404		-13.671875
1405		-11.718750
1406		-15.625000
1407		-9.765625
1408		-13.671875
1409		-9.765625
1410		-13.671875
1411		-9.765625
1412		-13.671875
1413		-9.765625
1414		-11.718750
1415		-9.765625
1416		-11.718750
1417		-7.812500
1418		-11.718750
1419		-7.812500
1420		-9.765625
1421		-7.812500
1422		-9.765625
1423		-5.859375
1424		-9.765625
1425		-5.859375
1426		-7.812500
1427		-5.859375
1428		-7.812500
1429		-3.906250
1430		-7.812500
1431		-3.906250
1432		-5.859375
1433		-1.953125
1434		-5.859375
1435		0.000000
1436		-3.906250
1437		0.000000
1438		-1.953125
1439		0.000000
1440		-1.953125
1441		1.953125
1442		0.000000
1443		3.906250
1444		0.000000
1445		3.906250
1446		1.953125
1447		3.906250
1448		1.953125
1449		7.812500
1450		3.906250
1451		7.812500
1452		5.859375
1453		9.765625
1454		5.859375
1455		9.765625
1456		7.812500
1457		11.718750
1458		9.765625
1459		11.718750
1460		9.765625
1461		13.671875
1462		11.718750
1463		13.671875
1464		11.718750
1465		15.625000
1466		13.671875
1467		17.578125
1468		15.625000
1469		19.531250
1470		17.578125
1471		19.531250
1472		17.578125
1473		21.484375
1474		17.578125
1475		21.484375
1476		19.531250
1477		23.437500
1478		21.484375
1479		23.437500
1480		21.484375
1481		25.390625
1482		23.437500
1483		27.343750
1484		23.437500
1485		27.343750
1486		23.437500
1487		29.296875
1488		25.390625
1489		29.296875
1490		25.390625
1491		29.296875
1492		27.343750
1493		31.250000
1494		27.343750
1495		31.250000
1496		29.296875
1497		33.203125
1498		29.296875
1499		33.203125
1500		31.250000
1501		33.203125
1502		29.296875
1503		33.203125
1504		31.250000
1505		35.156250
1506		31.250000
1507		35.156250
1508		33.203125
1509		37.109375
1510		33.203125
1511		35.156250
1512		33.203125
1513		37.109375
1514		33.203125
1515		37.109375
1516		33.203125
1517		37.109375
1518		33.203125
1519		37.109375
1520		33.203125
1521		37.109375
1522		33.203125
1523		37.109375
1524		33.203125
1525		37.109375
1526		33.203125
1527		37.109375
1528		33.203125
1529		37.109375
1530		33.203125
1531		37.109375
1532		33.203125
1533		37.109375
1534		33.203125
1535		37.109375
1536		31.250000
1537		35.156250
1538		31.250000
1539		35.156250
1540		29.296875
1541		35.156250
1542		31.250000
1543		33.203125
1544		29.296875
1545		33.203125
1546		29.296875
1547		33.203125
1548		27.343750
1549		33.203125
1550		27.343750
1551		31.250000
1552		27.343750
1553		31.250000
1554		27.343750
1555		29.296875
1556		25.390625
1557		29.296875
1558		25.390625
1559		29.296875
1560		23.437500
1561		27.343750
1562		23.437500
1563		25.390625
1564		21.484375
1565		25.390625
1566		19.531250
1567		23.437500
1568		19.531250
1569		23.437500
1570		17.578125
1571		21.484375
1572		17.578125
1573		19.531250
1574		15.625000
1575		19.531250
1576		15.625000
1577		19.531250
1578		13.671875
1579		17.578125
1580		11.718750
1581		15.625000
1582		11.718750
1583		13.671875
1584		9.765625
1585		13.671875
1586		7.812500
1587		11.718750
1588		7.812500
1589		9.765625
1590		3.906250
1591		9.765625
1592		3.906250
1593		9.765625
1594		3.906250
1595		7.812500
1596		1.953125
1597		5.859375
1598		0.000000
1599		3.906250
1600		0.000000
1601		3.906250
1602		-1.953125
1603		3.906250
1604		-1.953125
1605		0.000000
1606		-3.906250
1607		0.000000
1608		-3.906250
1609		0.000000
1610		-5.859375
1611		-1.953125
1612		-5.859375
1613		-3.906250
1614		-7.812500
1615		-3.906250
1616		-7.812500
1617		-5.859375
1618		-9.765625
1619		-5.859375
1620		-9.765625
1621		-5.859375
1622		-9.765625
1623		-7.812500
1624		-11.718750
1625		-7.812500
1626		-11.718750
1627		-7.812500
1628		-13.671875
1629		-9.765625
1630		-13.671875
1631		-9.765625
1632		-13.671875
1633		-9.765625
1634		-13.671875
1635		-11.718750
1636		-15.625000
1637		-11.718750
1638		-15.625000
1639		-11.718750
1640		-15.625000
1641		-13.671875
1642		-15.625000
1643		-11.718750
1644		-15.625000
1645		-11.718750
1646		-15.625000
1647		-11.718750
1648		-15.625000
1649		-13.671875
1650		-15.625000
1651		-13.671875
1652		-15.625000
1653		-11.718750
1654		-15.625000
1655		-11.718750
1656		-15.625000
1657		-11.718750
1658		-15.625000
1659		-11.718750
1660		-13.671875
1661		-11.718750
1662		-15.625000
1663		-11.718750
1664		-13.671875
1665		-9.765625
1666		-13.671875
1667		-9.765625
1668		-13.671875
1669		-9.765625
1670		-11.718750
1671		-7.812500
1672		-11.718750
1673		-7.812500
1674		-9.765625
1675		-5.859375
1676		-9.765625
1677		-5.859375
1678		-7.812500
1679		-5.859375
1680		-7.812500
1681		-5.859375
1682		-7.812500
1683		-3.906250
1684		-5.859375
1685		-1.953125
1686		-5.859375
1687		-1.953125
1688		-3.906250
1689		-1.953125
1690		-1.953125
1691		0.000000
1692		-1.953125
1693		1.953125
1694		-1.953125
1695		3.906250
1696		0.000000
1697		3.906250
1698		1.953125
1699		5.859375
1700		1.953125
1701		5.859375
1702		3.906250
1703		7.812500
1704		3.906250
1705		7.812500
1706		5.859375
1707		9.765625
1708		7.812500
1709		11.718750
1710		7.812500
1711		11.718750
1712		9.765625
1713		13.671875
1714		11.718750
1715		13.671875
1716		11.718750
1717		15.625000
1718		13.671875
1719		17.578125
1720		13.671875
1721		19.531250
1722		17.578125
1723		19.531250
1724		17.578125
1725		19.531250
1726		17.578125
1727		21.484375
1728		19.531250
1729		23.437500
1730		21.484375
1731		23.437500
1732		21.484375
1733		25.390625
1734		23.437500
1735		25.390625
1736		23.437500
1737		27.343750
1738		25.390625
1739		27.343750
1740		25.390625
1741		29.296875
1742		25.390625
1743		29.296875
1744		27.343750
1745		31.250000
1746		27.343750
1747		31.250000
1748		29.296875
1749		31.250000
1750		29.296875
1751		33.203125
1752		29.296875
1753		33.203125
1754		31.250000
1755		33.203125
1756		31.250000
1757		33.203125
1758		33.203125
1759		35.156250
1760		31.250000
1761		35.156250
1762		33.203125
1763		35.156250
1764		33.203125
1765		35.156250
1766		33.203125
1767		37.109375
1768		33.203125
1769		37.109375
1770		33.203125
1771		37.109375
1772		33.203125
1773		37.109375
1774		33.203125
1775		37.109375
1776		33.203125
1777		37.109375
1778		33.203125
1779		37.109375
1780		33.203125
1781		37.109375
1782		33.203125
1783		37.109375
1784		33.203125
1785		37.109375
1786		33.203125
1787		35.156250
1788		31.250000
1789		35.156250
1790		31.250000
1791		35.156250
1792		31.250000
1793		33.203125
1794		31.250000
1795		33.203125
1796		29.296875
1797		33.203125
1798		29.296875
1799		33.203125
1800		29.296875
1801		31.250000
1802		27.343750
1803		31.250000
1804		27.343750
1805		31.250000
1806		27.343750
1807		29.296875
1808		25.390625
1809		29.296875
1810		23.437500
1811		27.343750
1812		23.437500
1813		25.390625
1814		21.484375
1815		25.390625
1816		21.484375
1817		23.437500
1818		19.531250
1819		23.437500
1820		19.531250
1821		21.484375
1822		17.578125
1823		21.484375
1824		17.578125
1825		19.531250
1826		15.625000
1827		19.531250
1828		15.625000
1829		17.578125
1830		13.671875
1831		15.625000
1832		11.718750
1833		15.625000
1834		11.718750
1835		13.671875
1836		9.765625
1837		11.718750
1838		7.812500
1839		11.718750
1840		7.812500
1841		9.765625
1842		5.859375
1843		9.765625
1844		5.859375
1845		7.812500
1846		1.953125
1847		7.812500
1848		1.953125
1849		5.859375
1850		1.953125
1851		3.906250
1852		0.000000
1853		3.906250
1854		-1.953125
1855		1.953125
1856		-3.906250
1857		1.953125
1858		-3.906250
1859		0.000000
1860		-3.906250
1861		-1.953125
1862		-5.859375
1863		-1.953125
1864		-5.859375
1865		-1.953125
1866		-7.812500
1867		-3.906250
1868		-7.812500
1869		-5.859375
1870		-9.765625
1871		-5.859375
1872		-9.765625
1873		-5.859375
1874		-9.765625
1875		-7.812500
1876		-13.671875
1877		-7.812500
1878		-11.718750
1879		-7.812500
1880		-13.671875
1881		-9.765625
1882		-13.671875
1883		-9.765625
1884		-13.671875
1885		-11.718750
1886		-13.671875
1887		-11.718750
1888		-15.625000
1889		-11.718750
1890		-15.625000
1891		-11.718750
1892		-15.625000
1893		-13.671875
1894		-17.578125
1895		-11.718750
1896		-15.625000
1897		-13.671875
1898		-15.625000
1899		-13.671875
1900		-15.625000
1901		-11.718750
1902		-15.625000
1903		-13.671875
1904		-15.625000
1905		-11.718750
1906		-15.625000
1907		-11.718750
1908		-15.625000
1909		-11.718750
1910		-13.671875
1911		-11.718750
1912		-15.625000
1913		-11.718750
1914		-13.671875
1915		-11.718750
1916		-13.671875
1917		-11.718750
1918		-13.671875
1919		-9.765625
1920		-11.718750
1921		-9.765625
1922		-13.671875
1923		-7.812500
1924		-11.718750
1925		-7.812500
1926		-11.718750
1927		-7.812500
1928		-9.765625
1929		-5.859375
1930		-9.765625
1931		-5.859375
1932		-7.812500
1933		-5.859375
1934		-7.812500
1935		-3.906250
1936		-5.859375
1937		-1.953125
1938		-5.859375
1939		-1.953125
1940		-3.906250
1941		0.000000
1942		-1.953125
1943		0.000000
1944		-1.953125
1945		1.953125
1946		0.000000
1947		3.906250
1948		0.000000
1949		3.906250
1950		1.953125
1951		5.859375
1952		1.953125
1953		5.859375
1954		3.906250
1955		7.812500
1956		3.906250
1957		7.812500
1958		5.859375
1959		9.765625
1960		5.859375
1961		11.718750
1962		7.812500
1963		11.718750
1964		9.765625
1965		13.671875
1966		11.718750
1967		13.671875
1968		11.718750
1969		17.578125
1970		13.671875
1971		17.578125
1972		13.671875
1973		19.531250
1974		15.625000
1975		19.531250
1976		17.578125
1977		19.531250
1978		17.578125
1979		21.484375
1980		19.531250
1981		23.437500
1982		21.484375
1983		23.437500
1984		21.484375
1985		25.390625
1986		21.484375
1987		27.343750
1988		23.437500
1989		27.343750
1990		23.437500
1991		27.343750
1992		25.390625
1993		29.296875
1994		25.390625
1995		29.296875
1996		25.390625
1997		33.203125
1998		27.343750
1999		33.203125
2000		27.343750
2001		33.203125
2002		27.343750
2003		35.156250
2004		29.296875
2005		35.156250
2006		29.296875
2007		35.156250
2008		31.250000
2009		35.156250
2010		31.250000
2011		35.156250
2012		31.250000
2013		37.109375
2014		31.250000
2015		37.109375
2016		31.250000
2017		37.109375
2018		31.250000
2019		37.109375
2020		31.250000
2021		37.109375
2022		31.250000
2023		39.062500
2024		33.203125
2025		37.109375
2026		33.203125
2027		37.109375
2028		31.250000
2029		37.109375
2030		31.250000
2031		39.062500
2032		31.250000
2033		39.062500
2034		31.250000
2035		37.109375
2036		31.250000
2037		39.062500
2038		31.250000
2039		37.109375
2040		31.250000
2041		37.109375
2042		31.250000
2043		35.156250
2044		29.296875
2045		35.156250
2046		29.296875
2047		35.156250
2048		29.296875
2049		35.156250
2050		27.343750
2051		33.203125
2052		27.343750
2053		33.203125
2054		25.390625
2055		33.203125
2056		25.390625
2057		31.250000
2058		27.343750
2059		29.296875
2060		25.390625
2061		27.343750
2062		23.437500
2063		29.296875
2064		21.484375
2065		29.296875
2066		21.484375
2067		27.343750
2068		19.531250
2069		27.343750
2070		19.531250
2071		25.390625
2072		17.578125
2073		25.390625
2074		15.625000
2075		23.437500
2076		17.578125
2077		19.531250
2078		13.671875
2079		19.531250
2080		11.718750
2081		19.531250
2082		11.718750
2083		17.578125
2084		9.765625
2085		17.578125
2086		7.812500
2087		15.625000
2088		7.812500
2089		15.625000
2090		7.812500
2091		13.671875
2092		7.812500
2093		9.765625
2094		5.859375
2095		9.765625
2096		3.906250
2097		9.765625
2098		1.953125
2099		7.812500
2100		0.000000
2101		7.812500
2102		0.000000
2103		5.859375
2104		-1.953125
2105		5.859375
2106		-1.953125
2107		3.906250
2108		-1.953125
2109		1.953125
2110		-3.906250
2111		0.000000
2112		-5.859375
2113		0.000000
2114		-7.812500
2115		0.000000
2116		-9.765625
2117		-1.953125
2118		-9.765625
2119		-1.953125
2120		-9.765625
2121		-3.906250
2122		-11.718750
2123		-3.906250
2124		-11.718750
2125		-3.906250
2126		-11.718750
2127		-7.812500
2128		-13.671875
2129		-7.812500
2130		-15.625000
2131		-7.812500
2132		-15.625000
2133		-7.812500
2134		-15.625000
2135		-7.812500
2136		-15.625000
2137		-9.765625
2138		-17.578125
2139		-9.765625
2140		-17.578125
2141		-9.765625
2142		-15.625000
2143		-11.718750
2144		-15.625000
2145		-13.671875
2146		-17.578125
2147		-9.765625
2148		-17.578125
2149		-9.765625
2150		-19.531250
2151		-9.765625
2152		-17.578125
2153		-11.718750
2154		-17.578125
2155		-9.765625
2156		-17.578125
2157		-9.765625
2158		-17.578125
2159		-11.718750
2160		-15.625000
2161		-11.718750
2162		-17.578125
2163		-9.765625
2164		-17.578125
2165		-9.765625
2166		-15.625000
2167		-9.765625
2168		-15.625000
2169		-7.812500
2170		-15.625000
2171		-7.812500
2172		-15.625000
2173		-7.812500
2174		-13.671875
2175		-5.859375
2176		-11.718750
2177		-7.812500
2178		-11.718750
2179		-5.859375
2180		-11.718750
2181		-3.906250
2182		-11.718750
2183		-3.906250
2184		-9.765625
2185		-1.953125
2186		-9.765625
2187		-1.953125
2188		-7.812500
2189		0.000000
2190		-7.812500
2191		0.000000
2192		-5.859375
2193		0.000000
2194		-1.953125
2195		0.000000
2196		-3.906250
2197		3.906250
2198		-3.906250
2199		3.906250
2200		-1.953125
2201		5.859375
2202		0.000000
2203		7.812500
2204		0.000000
2205		7.812500
2206		1.953125
2207		9.765625
2208		3.906250
2209		9.765625
2210		5.859375
2211		9.765625
2212		7.812500
2213		13.671875
2214		5.859375
2215		13.671875
2216		7.812500
2217		15.625000
2218		9.765625
2219		17.578125
2220		9.765625
2221		17.578125
2222		9.765625
2223		19.531250
2224		13.671875
2225		19.531250
2226		15.625000
2227		19.531250
2228		17.578125
2229		19.531250
2230		15.625000
2231		23.437500
2232		17.578125
2233		25.390625
2234		19.531250
2235		25.390625
2236		19.531250
2237		27.343750
2238		21.484375
2239		29.296875
2240		21.484375
2241		29.296875
2242		23.437500
2243		29.296875
2244		25.390625
2245		29.296875
2246		25.390625
2247		31.250000
2248		25.390625
2249		33.203125
2250		25.390625
2251		33.203125
2252		27.343750
2253		33.203125
2254		27.343750
2255		35.156250
2256		27.343750
2257		35.156250
2258		29.296875
2259		35.156250
2260		31.250000
2261		35.156250
2262		31.250000
2263		35.156250
2264		31.250000
2265		37.109375
2266		31.250000
2267		37.109375
2268		31.250000
2269		37.109375
2270		31.250000
2271		37.109375
2272		31.250000
2273		37.109375
2274		31.250000
2275		39.062500
2276		31.250000
2277		39.062500
2278		33.203125
2279		37.109375
2280		31.250000
2281		37.109375
2282		31.250000
2283		39.062500
2284		31.250000
2285		37.109375
2286		31.250000
2287		37.109375
2288		31.250000
2289		37.109375
2290		29.296875
2291		37.109375
2292		29.296875
2293		37.109375
2294		31.250000
2295		35.156250
2296		31.250000
2297		35.156250
2298		29.296875
2299		35.156250
2300		27.343750
2301		35.156250
2302		27.343750
2303		33.203125
2304		25.390625
2305		33.203125
2306		25.390625
2307		33.203125
2308		25.390625
2309		31.250000
2310		25.390625
2311		29.296875
2312		25.390625
2313		27.343750
2314		21.484375
2315		29.296875
2316		21.484375
2317		27.343750
2318		19.531250
2319		27.343750
2320		17.578125
2321		27.343750
2322		17.578125
2323		25.390625
2324		15.625000
2325		25.390625
2326		15.625000
2327		23.437500
2328		17.578125
2329		19.531250
2330		13.671875
2331		19.531250
2332		11.718750
2333		19.531250
2334		9.765625
2335		17.578125
2336		9.765625
2337		17.578125
2338		7.812500
2339		15.625000
2340		7.812500
2341		13.671875
2342		5.859375
2343		13.671875
2344		7.812500
2345		9.765625
2346		5.859375
2347		7.812500
2348		1.953125
2349		9.765625
2350		0.000000
2351		7.812500
2352		0.000000
2353		7.812500
2354		-1.953125
2355		5.859375
2356		-1.953125
2357		3.906250
2358		-3.906250
2359		3.906250
2360		-3.906250
2361		3.906250
2362		-3.906250
2363		0.000000
2364		-5.859375
2365		0.000000
2366		-7.812500
2367		0.000000
2368		-9.765625
2369		-1.953125
2370		-9.765625
2371		-1.953125
2372		-11.718750
2373		-3.906250
2374		-11.718750
2375		-3.906250
2376		-11.718750
2377		-5.859375
2378		-11.718750
2379		-7.812500
2380		-11.718750
2381		-9.765625
2382		-13.671875
2383		-7.812500
2384		-15.625000
2385		-7.812500
2386		-15.625000
2387		-7.812500
2388		-15.625000
2389		-9.765625
2390		-17.578125
2391		-9.765625
2392		-17.578125
2393		-9.765625
2394		-15.625000
2395		-13.671875
2396		-15.625000
2397		-13.671875
2398		-17.578125
2399		-11.718750
2400		-17.578125
2401		-11.718750
2402		-17.578125
2403		-11.718750
2404		-17.578125
2405		-11.718750
2406		-19.531250
2407		-11.718750
2408		-17.578125
2409		-11.718750
2410		-17.578125
2411		-11.718750
2412		-15.625000
2413		-11.718750
2414		-17.578125
2415		-9.765625
2416		-17.578125
2417		-9.765625
2418		-15.625000
2419		-9.765625
2420		-15.625000
2421		-7.812500
2422		-15.625000
2423		-7.812500
2424		-15.625000
2425		-7.812500
2426		-13.671875
2427		-7.812500
2428		-11.718750
2429		-7.812500
2430		-9.765625
2431		-7.812500
2432		-11.718750
2433		-3.906250
2434		-9.765625
2435		-3.906250
2436		-9.765625
2437		-1.953125
2438		-9.765625
2439		-1.953125
2440		-7.812500
2441		0.000000
2442		-7.812500
2443		0.000000
2444		-5.859375
2445		0.000000
2446		-1.953125
2447		0.000000
2448		-1.953125
2449		3.906250
2450		-3.906250
2451		3.906250
2452		-1.953125
2453		5.859375
2454		0.000000
2455		7.812500
2456		0.000000
2457		7.812500
2458		1.953125
2459		9.765625
2460		3.906250
2461		9.765625
2462		5.859375
2463		9.765625
2464		7.812500
2465		11.718750
2466		5.859375
2467		13.671875
2468		7.812500
2469		15.625000
2470		9.765625
2471		15.625000
2472		9.765625
2473		17.578125
2474		11.718750
2475		19.531250
2476		11.718750
2477		19.531250
2478		15.625000
2479		19.531250
2480		17.578125
2481		19.531250
2482		17.578125
2483		23.437500
2484		17.578125
2485		25.390625
2486		17.578125
2487		25.390625
2488		19.531250
2489		27.343750
2490		19.531250
2491		27.343750
2492		21.484375
2493		29.296875
2494		23.437500
2495		29.296875
2496		25.390625
2497		29.296875
2498		25.390625
2499		31.250000
2500		25.390625
2501		33.203125
2502		25.390625
2503		33.203125
2504		27.343750
2505		33.203125
2506		27.343750
2507		35.156250
2508		27.343750
2509		35.156250
2510		27.343750
2511		35.156250
2512		31.250000
2513		33.203125
2514		31.250000
2515		35.156250
2516		29.296875
2517		37.109375
2518		29.296875
2519		37.109375
2520		31.250000
2521		37.109375
2522		31.250000
2523		37.109375
2524		31.250000
2525		37.109375
2526		31.250000
2527		39.062500
2528		31.250000
2529		39.062500
2530		33.203125
2531		35.156250
2532		31.250000
2533		39.062500
2534		31.250000
2535		37.109375
2536		31.250000
2537		39.062500
2538		29.296875
2539		37.109375
2540		31.250000
2541		37.109375
2542		29.296875
2543		37.109375
2544		29.296875
2545		37.109375
2546		31.250000
2547		35.156250
2548		31.250000
2549		33.203125
2550		27.343750
2551		35.156250
2552		27.343750
2553		35.156250
2554		27.343750
2555		33.203125
2556		25.390625
2557		33.203125
2558		25.390625
2559		33.203125
2560		25.390625
2561		31.250000
2562		25.390625
2563		31.250000
2564		25.390625
2565		27.343750
2566		21.484375
2567		29.296875
2568		21.484375
2569		27.343750
2570		19.531250
2571		27.343750
2572		19.531250
2573		25.390625
2574		17.578125
2575		25.390625
2576		17.578125
2577		23.437500
2578		15.625000
2579		23.437500
2580		15.625000
2581		19.531250
2582		13.671875
2583		19.531250
2584		11.718750
2585		19.531250
2586		9.765625
2587		17.578125
2588		9.765625
2589		17.578125
2590		7.812500
2591		15.625000
2592		7.812500
2593		15.625000
2594		5.859375
2595		13.671875
2596		7.812500
2597		9.765625
2598		5.859375
2599		9.765625
2600		1.953125
2601		9.765625
2602		1.953125
2603		7.812500
2604		0.000000
2605		7.812500
2606		-1.953125
2607		5.859375
2608		-1.953125
2609		5.859375
2610		-3.906250
2611		3.906250
2612		-3.906250
2613		1.953125
2614		-3.906250
2615		0.000000
2616		-5.859375
2617		0.000000
2618		-7.812500
2619		0.000000
2620		-9.765625
2621		-1.953125
2622		-9.765625
2623		-1.953125
2624		-11.718750
2625		-3.906250
2626		-11.718750
2627		-3.906250
2628		-11.718750
2629		-5.859375
2630		-11.718750
2631		-7.812500
2632		-11.718750
2633		-9.765625
2634		-13.671875
2635		-7.812500
2636		-15.625000
2637		-7.812500
2638		-15.625000
2639		-7.812500
2640		-15.625000
2641		-9.765625
2642		-17.578125
2643		-9.765625
2644		-17.578125
2645		-9.765625
2646		-17.578125
2647		-9.765625
2648		-15.625000
2649		-13.671875
2650		-17.578125
2651		-11.718750
2652		-17.578125
2653		-11.718750
2654		-17.578125
2655		-11.718750
2656		-17.578125
2657		-11.718750
2658		-17.578125
2659		-11.718750
2660		-17.578125
2661		-11.718750
2662		-17.578125
2663		-9.765625
2664		-15.625000
2665		-13.671875
2666		-15.625000
2667		-11.718750
2668		-17.578125
2669		-9.765625
2670		-17.578125
2671		-9.765625
2672		-15.625000
2673		-7.812500
2674		-15.625000
2675		-7.812500
2676		-15.625000
2677		-7.812500
2678		-13.671875
2679		-7.812500
2680		-11.718750
2681		-7.812500
2682		-9.765625
2683		-7.812500
2684		-11.718750
2685		-3.906250
2686		-11.718750
2687		-3.906250
2688		-11.718750
2689		-1.953125
2690		-9.765625
2691		-1.953125
2692		-7.812500
2693		-1.953125
2694		-7.812500
2695		0.000000
2696		-7.812500
2697		0.000000
2698		-1.953125
2699		0.000000
2700		-3.906250
2701		3.906250
2702		-3.906250
2703		3.906250
2704		-1.953125
2705		5.859375
2706		-1.953125
2707		5.859375
2708		0.000000
2709		7.812500
2710		1.953125
2711		9.765625
2712		1.953125
2713		11.718750
2714		5.859375
2715		9.765625
2716		7.812500
2717		9.765625
2718		5.859375
2719		13.671875
2720		7.812500
2721		15.625000
2722		9.765625
2723		15.625000
2724		9.765625
2725		17.578125
2726		11.718750
2727		19.531250
2728		13.671875
2729		19.531250
2730		13.671875
2731		19.531250
2732		17.578125
2733		19.531250
2734		17.578125
2735		23.437500
2736		17.578125
2737		25.390625
2738		17.578125
2739		25.390625
2740		19.531250
2741		27.343750
2742		21.484375
2743		27.343750
2744		21.484375
2745		29.296875
2746		23.437500
2747		29.296875
2748		25.390625
2749		27.343750
2750		27.343750
2751		29.296875
2752		25.390625
2753		33.203125
2754		25.390625
2755		33.203125
2756		27.343750
2757		33.203125
2758		27.343750
2759		35.156250
2760		27.343750
2761		35.156250
2762		29.296875
2763		35.156250
2764		31.250000
2765		33.203125
2766		31.250000
2767		35.156250
2768		29.296875
2769		37.109375
2770		31.250000
2771		37.109375
2772		31.250000
2773		37.109375
2774		31.250000
2775		37.109375
2776		31.250000
2777		39.062500
2778		31.250000
2779		39.062500
2780		31.250000
2781		37.109375
2782		33.203125
2783		35.156250
2784		33.203125
2785		37.109375
2786		31.250000
2787		39.062500
2788		31.250000
2789		39.062500
2790		31.250000
2791		39.062500
2792		31.250000
2793		37.109375
2794		29.296875
2795		37.109375
2796		29.296875
2797		37.109375
2798		31.250000
2799		33.203125
2800		31.250000
2801		33.203125
2802		27.343750
2803		35.156250
2804		27.343750
2805		35.156250
2806		27.343750
2807		35.156250
2808		27.343750
2809		33.203125
2810		25.390625
2811		33.203125
2812		25.390625
2813		31.250000
2814		23.437500
2815		31.250000
2816		25.390625
2817		27.343750
2818		21.484375
2819		27.343750
2820		21.484375
2821		29.296875
2822		19.531250
2823		27.343750
2824		19.531250
2825		27.343750
2826		17.578125
2827		25.390625
2828		17.578125
2829		23.437500
2830		15.625000
2831		23.437500
2832		17.578125
2833		19.531250
2834		15.625000
2835		19.531250
2836		11.718750
2837		19.531250
2838		11.718750
2839		17.578125
2840		9.765625
2841		17.578125
2842		7.812500
2843		17.578125
2844		5.859375
2845		13.671875
2846		5.859375
2847		13.671875
2848		7.812500
2849		9.765625
2850		5.859375
2851		7.812500
2852		1.953125
2853		9.765625
2854		1.953125
2855		7.812500
2856		0.000000
2857		7.812500
2858		-1.953125
2859		5.859375
2860		-1.953125
2861		3.906250
2862		-3.906250
2863		3.906250
2864		-3.906250
2865		1.953125
2866		-3.906250
2867		0.000000
2868		-7.812500
2869		0.000000
2870		-7.812500
2871		-1.953125
2872		-9.765625
2873		-1.953125
2874		-9.765625
2875		-1.953125
2876		-11.718750
2877		-3.906250
2878		-11.718750
2879		-3.906250
2880		-11.718750
2881		-5.859375
2882		-11.718750
2883		-7.812500
2884		-11.718750
2885		-9.765625
2886		-15.625000
2887		-7.812500
2888		-15.625000
2889		-7.812500
2890		-15.625000
2891		-9.765625
2892		-15.625000
2893		-9.765625
2894		-17.578125
2895		-9.765625
2896		-17.578125
2897		-9.765625
2898		-17.578125
2899		-11.718750
2900		-15.625000
2901		-13.671875
2902		-17.578125
2903		-11.718750
2904		-17.578125
2905		-11.718750
2906		-17.578125
2907		-11.718750
2908		-17.578125
2909		-11.718750
2910		-17.578125
2911		-11.718750
2912		-17.578125
2913		-11.718750
2914		-17.578125
2915		-11.718750
2916		-15.625000
2917		-13.671875
2918		-15.625000
2919		-11.718750
2920		-17.578125
2921		-9.765625
2922		-17.578125
2923		-9.765625
2924		-15.625000
2925		-9.765625
2926		-15.625000
2927		-9.765625
2928		-15.625000
2929		-7.812500
2930		-13.671875
2931		-7.812500
2932		-11.718750
2933		-9.765625
2934		-11.718750
2935		-7.812500
2936		-11.718750
2937		-3.906250
2938		-11.718750
2939		-3.906250
2940		-9.765625
2941		-3.906250
2942		-9.765625
2943		-1.953125
2944		-7.812500
2945		-1.953125
2946		-7.812500
2947		0.000000
2948		-5.859375
2949		0.000000
2950		-3.906250
2951		0.000000
2952		-1.953125
2953		3.906250
2954		-3.906250
2955		3.906250
2956		-1.953125
2957		5.859375
2958		-1.953125
2959		5.859375
2960		0.000000
2961		7.812500
2962		1.953125
2963		7.812500
2964		1.953125
2965		9.765625
2966		5.859375
2967		9.765625
2968		7.812500
2969		9.765625
2970		7.812500
2971		13.671875
2972		7.812500
2973		13.671875
2974		11.718750
2975		15.625000
2976		11.718750
2977		15.625000
2978		13.671875
2979		17.578125
2980		11.718750
2981		19.531250
2982		15.625000
2983		19.531250
2984		17.578125
2985		19.531250
2986		17.578125
2987		21.484375
2988		17.578125
2989		23.437500
2990		19.531250
2991		23.437500
2992		21.484375
2993		25.390625
2994		19.531250
2995		27.343750
2996		23.437500
2997		27.343750
2998		21.484375
2999		29.296875
3000		25.390625
3001		27.343750
3002		25.390625
3003		29.296875
3004		25.390625
3005		31.250000
3006		27.343750
3007		31.250000
3008		29.296875
3009		33.203125
3010		29.296875
3011		33.203125
3012		29.296875
3013		33.203125
3014		29.296875
3015		35.156250
3016		31.250000
3017		33.203125
3018		31.250000
3019		33.203125
3020		31.250000
3021		35.156250
3022		31.250000
3023		35.156250
3024		31.250000
3025		35.156250
3026		33.203125
3027		35.156250
3028		33.203125
3029		35.156250
3030		33.203125
3031		37.109375
3032		33.203125
3033		37.109375
3034		33.203125
3035		35.156250
3036		33.203125
3037		35.156250
3038		33.203125
3039		35.156250
3040		33.203125
3041		35.156250
3042		31.250000
3043		35.156250
3044		31.250000
3045		35.156250
3046		31.250000
3047		35.156250
3048		31.250000
3049		35.156250
3050		31.250000
3051		33.203125
3052		29.296875
3053		33.203125
3054		29.296875
3055		33.203125
3056		29.296875
3057		33.203125
3058		29.296875
3059		31.250000
3060		27.343750
3061		31.250000
3062		27.343750
3063		31.250000
3064		25.390625
3065		29.296875
3066		25.390625
3067		29.296875
3068		25.390625
3069		27.343750
3070		23.437500
3071		27.343750
3072		23.437500
3073		25.390625
3074		21.484375
3075		25.390625
3076		21.484375
3077		25.390625
3078		19.531250
3079		23.437500
3080		17.578125
3081		21.484375
3082		15.625000
3083		21.484375
3084		15.625000
3085		19.531250
3086		15.625000
3087		17.578125
3088		13.671875
3089		17.578125
3090		11.718750
3091		15.625000
3092		11.718750
3093		13.671875
3094		9.765625
3095		13.671875
3096		7.812500
3097		11.718750
3098		7.812500
3099		11.718750
3100		5.859375
3101		9.765625
3102		5.859375
3103		7.812500
3104		3.906250
3105		7.812500
3106		1.953125
3107		5.859375
3108		1.953125
3109		3.906250
3110		0.000000
3111		3.906250
3112		0.000000
3113		1.953125
3114		-1.953125
3115		1.953125
3116		-3.906250
3117		0.000000
3118		-3.906250
3119		0.000000
3120		-7.812500
3121		-1.953125
3122		-5.859375
3123		-1.953125
3124		-7.812500
3125		-3.906250
3126		-7.812500
3127		-3.906250
3128		-9.765625
3129		-5.859375
3130		-9.765625
3131		-5.859375
3132		-11.718750
3133		-7.812500
3134		-11.718750
3135		-9.765625
3136		-11.718750
3137		-9.765625
3138		-13.671875
3139		-9.765625
3140		-13.671875
3141		-9.765625
3142		-15.625000
3143		-11.718750
3144		-13.671875
3145		-11.718750
3146		-15.625000
3147		-11.718750
3148		-15.625000
3149		-13.671875
3150		-15.625000
3151		-11.718750
3152		-15.625000
3153		-13.671875
3154		-17.578125
3155		-13.671875
3156		-17.578125
3157		-13.671875
3158		-17.578125
3159		-13.671875
3160		-17.578125
3161		-13.671875
3162		-17.578125
3163		-13.671875
3164		-17.578125
3165		-13.671875
3166		-17.578125
3167		-13.671875
3168		-15.625000
3169		-13.671875
3170		-15.625000
3171		-11.718750
3172		-17.578125
3173		-11.718750
3174		-15.625000
3175		-11.718750
3176		-15.625000
3177		-11.718750
3178		-13.671875
3179		-11.718750
3180		-13.671875
3181		-9.765625
3182		-13.671875
3183		-7.812500
3184		-11.718750
3185		-9.765625
3186		-11.718750
3187		-7.812500
3188		-11.718750
3189		-5.859375
3190		-9.765625
3191		-5.859375
3192		-7.812500
3193		-5.859375
3194		-7.812500
3195		-3.906250
3196		-7.812500
3197		-3.906250
3198		-5.859375
3199		-1.953125
3200		-3.906250
3201		-1.953125
3202		-3.906250
3203		0.000000
3204		-3.906250
3205		1.953125
3206		-1.953125
3207		1.953125
3208		0.000000
3209		3.906250
3210		0.000000
3211		3.906250
3212		1.953125
3213		5.859375
3214		1.953125
3215		5.859375
3216		3.906250
3217		7.812500
3218		5.859375
3219		9.765625
3220		7.812500
3221		9.765625
3222		7.812500
3223		11.718750
3224		9.765625
3225		13.671875
3226		9.765625
3227		13.671875
3228		11.718750
3229		15.625000
3230		13.671875
3231		17.578125
3232		13.671875
3233		17.578125
3234		15.625000
3235		19.531250
3236		15.625000
3237		19.531250
3238		17.578125
3239		21.484375
3240		19.531250
3241		21.484375
3242		19.531250
3243		23.437500
3244		21.484375
3245		23.437500
3246		21.484375
3247		25.390625
3248		23.437500
3249		27.343750
3250		23.437500
3251		27.343750
3252		25.390625
3253		27.343750
3254		25.390625
3255		31.250000
3256		25.390625
3257		31.250000
3258		27.343750
3259		31.250000
3260		27.343750
3261		31.250000
3262		29.296875
3263		31.250000
3264		29.296875
3265		33.203125
3266		29.296875
3267		33.203125
3268		31.250000
3269		33.203125
3270		31.250000
3271		33.203125
3272		29.296875
3273		35.156250
3274		31.250000
3275		35.156250
3276		33.203125
3277		35.156250
3278		31.250000
3279		35.156250
3280		33.203125
3281		35.156250
3282		33.203125
3283		35.156250
3284		31.250000
3285		35.156250
3286		33.203125
3287		35.156250
3288		31.250000
3289		37.109375
3290		31.250000
3291		35.156250
3292		31.250000
3293		35.156250
3294		33.203125
3295		35.156250
3296		31.250000
3297		35.156250
3298		31.250000
3299		35.156250
3300		29.296875
3301		35.156250
3302		31.250000
3303		33.203125
3304		31.250000
3305		33.203125
3306		29.296875
3307		33.203125
3308		29.296875
3309		31.250000
3310		27.343750
3311		31.250000
3312		27.343750
3313		31.250000
3314		27.343750
3315		29.296875
3316		25.390625
3317		29.296875
3318		23.437500
3319		29.296875
3320		25.390625
3321		27.343750
3322		21.484375
3323		27.343750
3324		21.484375
3325		25.390625
3326		21.484375
3327		25.390625
3328		19.531250
3329		23.437500
3330		19.531250
3331		23.437500
3332		17.578125
3333		21.484375
3334		17.578125
3335		21.484375
3336		15.625000
3337		19.531250
3338		13.671875
3339		17.578125
3340		13.671875
3341		17.578125
3342		11.718750
3343		15.625000
3344		11.718750
3345		13.671875
3346		9.765625
3347		13.671875
3348		7.812500
3349		11.718750
3350		5.859375
3351		9.765625
3352		5.859375
3353		9.765625
3354		5.859375
3355		7.812500
3356		1.953125
3357		7.812500
3358		1.953125
3359		5.859375
3360		1.953125
3361		3.906250
3362		0.000000
3363		3.906250
3364		-1.953125
3365		1.953125
3366		-1.953125
3367		1.953125
3368		-3.906250
3369		0.000000
3370		-3.906250
3371		-1.953125
3372		-5.859375
3373		-1.953125
3374		-7.812500
3375		-3.906250
3376		-7.812500
3377		-3.906250
3378		-7.812500
3379		-5.859375
3380		-9.765625
3381		-5.859375
3382		-11.718750
3383		-7.812500
3384		-11.718750
3385		-7.812500
3386		-11.718750
3387		-9.765625
3388		-11.718750
3389		-9.765625
3390		-13.671875
3391		-9.765625
3392		-13.671875
3393		-11.718750
3394		-15.625000
3395		-11.718750
3396		-15.625000
3397		-11.718750
3398		-15.625000
3399		-11.718750
3400		-15.625000
3401		-11.718750
3402		-15.625000
3403		-13.671875
3404		-15.625000
3405		-13.671875
3406		-17.578125
3407		-13.671875
3408		-17.578125
3409		-13.671875
3410		-17.578125
3411		-13.671875
3412		-17.578125
3413		-13.671875
3414		-17.578125
3415		-13.671875
3416		-15.625000
3417		-13.671875
3418		-17.578125
3419		-13.671875
3420		-15.625000
3421		-13.671875
3422		-15.625000
3423		-13.671875
3424		-15.625000
3425		-11.718750
3426		-15.625000
3427		-11.718750
3428		-15.625000
3429		-11.718750
3430		-13.671875
3431		-11.718750
3432		-13.671875
3433		-9.765625
3434		-13.671875
3435		-9.765625
3436		-13.671875
3437		-9.765625
3438		-11.718750
3439		-7.812500
3440		-9.765625
3441		-7.812500
3442		-9.765625
3443		-5.859375
3444		-7.812500
3445		-5.859375
3446		-7.812500
3447		-3.906250
3448		-5.859375
3449		-3.906250
3450		-5.859375
3451		-1.953125
3452		-5.859375
3453		-1.953125
3454		-3.906250
3455		0.000000
3456		-1.953125
3457		1.953125
3458		-1.953125
3459		1.953125
3460		0.000000
3461		1.953125
3462		0.000000
3463		3.906250
3464		1.953125
3465		5.859375
3466		3.906250
3467		5.859375
3468		3.906250
3469		9.765625
3470		5.859375
3471		9.765625
3472		7.812500
3473		9.765625
3474		7.812500
3475		11.718750
3476		9.765625
3477		13.671875
3478		11.718750
3479		13.671875
3480		11.718750
3481		15.625000
3482		13.671875
3483		15.625000
3484		13.671875
3485		17.578125
3486		15.625000
3487		19.531250
3488		17.578125
3489		19.531250
3490		17.578125
3491		21.484375
3492		19.531250
3493		23.437500
3494		19.531250
3495		23.437500
3496		21.484375
3497		23.437500
3498		21.484375
3499		25.390625
3500		23.437500
3501		25.390625
3502		23.437500
3503		27.343750
3504		25.390625
3505		27.343750
3506		25.390625
3507		29.296875
3508		27.343750
3509		29.296875
3510		27.343750
3511		31.250000
3512		27.343750
3513		31.250000
3514		29.296875
3515		31.250000
3516		29.296875
3517		33.203125
3518		31.250000
3519		33.203125
3520		29.296875
3521		33.203125
3522		31.250000
3523		33.203125
3524		31.250000
3525		35.156250
3526		31.250000
3527		35.156250
3528		31.250000
3529		35.156250
3530		31.250000
3531		35.156250
3532		33.203125
3533		35.156250
3534		33.203125
3535		35.156250
3536		33.203125
3537		37.109375
3538		33.203125
3539		35.156250
3540		31.250000
3541		37.109375
3542		31.250000
3543		35.156250
3544		33.203125
3545		35.156250
3546		33.203125
3547		35.156250
3548		31.250000
3549		35.156250
3550		31.250000
3551		35.156250
3552		31.250000
3553		35.156250
3554		31.250000
3555		33.203125
3556		31.250000
3557		33.203125
3558		29.296875
3559		33.203125
3560		29.296875
3561		33.203125
3562		27.343750
3563		31.250000
3564		27.343750
3565		31.250000
3566		27.343750
3567		29.296875
3568		25.390625
3569		29.296875
3570		23.437500
3571		29.296875
3572		25.390625
3573		27.343750
3574		23.437500
3575		27.343750
3576		21.484375
3577		25.390625
3578		21.484375
3579		25.390625
3580		21.484375
3581		23.437500
3582		19.531250
3583		21.484375
3584		17.578125
3585		21.484375
3586		15.625000
3587		21.484375
3588		15.625000
3589		19.531250
3590		15.625000
3591		17.578125
3592		13.671875
3593		15.625000
3594		11.718750
3595		15.625000
3596		11.718750
3597		13.671875
3598		9.765625
3599		13.671875
3600		7.812500
3601		11.718750
3602		7.812500
3603		11.718750
3604		5.859375
3605		9.765625
3606		5.859375
3607		7.812500
3608		1.953125
3609		7.812500
3610		1.953125
3611		5.859375
3612		1.953125
3613		5.859375
3614		0.000000
3615		3.906250
3616		-1.953125
3617		1.953125
3618		-1.953125
3619		0.000000
3620		-3.906250
3621		0.000000
3622		-3.906250
3623		-1.953125
3624		-5.859375
3625		-1.953125
3626		-7.812500
3627		-1.953125
3628		-7.812500
3629		-3.906250
3630		-9.765625
3631		-5.859375
3632		-9.765625
3633		-5.859375
3634		-9.765625
3635		-5.859375
3636		-11.718750
3637		-7.812500
3638		-11.718750
3639		-7.812500
3640		-11.718750
3641		-9.765625
3642		-13.671875
3643		-9.765625
3644		-13.671875
3645		-9.765625
3646		-13.671875
3647		-11.718750
3648		-15.625000
3649		-11.718750
3650		-15.625000
3651		-11.718750
3652		-15.625000
3653		-11.718750
3654		-17.578125
3655		-11.718750
3656		-15.625000
3657		-13.671875
3658		-17.578125
3659		-13.671875
3660		-17.578125
3661		-13.671875
3662		-17.578125
3663		-13.671875
3664		-17.578125
3665		-13.671875
3666		-15.625000
3667		-13.671875
3668		-17.578125
3669		-13.671875
3670		-15.625000
3671		-13.671875
3672		-15.625000
3673		-13.671875
3674		-15.625000
3675		-13.671875
3676		-15.625000
3677		-11.718750
3678		-15.625000
3679		-11.718750
3680		-13.671875
3681		-11.718750
3682		-15.625000
3683		-11.718750
3684		-13.671875
3685		-9.765625
3686		-13.671875
3687		-9.765625
3688		-13.671875
3689		-9.765625
3690		-11.718750
3691		-7.812500
3692		-11.718750
3693		-5.859375
3694		-9.765625
3695		-5.859375
3696		-9.765625
3697		-5.859375
3698		-7.812500
3699		-3.906250
3700		-7.812500
3701		-3.906250
3702		-5.859375
3703		-1.953125
3704		-5.859375
3705		-1.953125
3706		-3.906250
3707		0.000000
3708		-1.953125
3709		0.000000
3710		-1.953125
3711		1.953125
3712		0.000000
3713		3.906250
3714		1.953125
3715		3.906250
3716		1.953125
3717		5.859375
3718		3.906250
3719		7.812500
3720		3.906250
3721		7.812500
3722		5.859375
3723		9.765625
3724		7.812500
3725		9.765625
3726		7.812500
3727		11.718750
3728		9.765625
3729		13.671875
3730		11.718750
3731		13.671875
3732		11.718750
3733		15.625000
3734		13.671875
3735		15.625000
3736		13.671875
3737		17.578125
3738		15.625000
3739		19.531250
3740		17.578125
3741		19.531250
3742		17.578125
3743		21.484375
3744		17.578125
3745		23.437500
3746		19.531250
3747		23.437500
3748		21.484375
3749		23.437500
3750		21.484375
3751		25.390625
3752		21.484375
3753		27.343750
3754		23.437500
3755		27.343750
3756		25.390625
3757		27.343750
3758		25.390625
3759		29.296875
3760		25.390625
3761		29.296875
3762		27.343750
3763		31.250000
3764		27.343750
3765		31.250000
3766		29.296875
3767		31.250000
3768		29.296875
3769		33.203125
3770		29.296875
3771		33.203125
3772		29.296875
3773		33.203125
3774		31.250000
3775		33.203125
3776		31.250000
3777		35.156250
3778		31.250000
3779		35.156250
3780		31.250000
3781		35.156250
3782		33.203125
3783		35.156250
3784		31.250000
3785		35.156250
3786		33.203125
3787		35.156250
3788		31.250000
3789		35.156250
3790		33.203125
3791		35.156250
3792		33.203125
3793		35.156250
3794		33.203125
3795		35.156250
3796		31.250000
3797		35.156250
3798		31.250000
3799		35.156250
3800		31.250000
3801		35.156250
3802		31.250000
3803		35.156250
3804		31.250000
3805		35.156250
3806		29.296875
3807		35.156250
3808		31.250000
3809		33.203125
3810		29.296875
3811		33.203125
3812		29.296875
3813		33.203125
3814		27.343750
3815		31.250000
3816		27.343750
3817		31.250000
3818		27.343750
3819		31.250000
3820		25.390625
3821		29.296875
3822		25.390625
3823		29.296875
3824		25.390625
3825		27.343750
3826		21.484375
3827		27.343750
3828		21.484375
3829		25.390625
3830		21.484375
3831		23.437500
3832		21.484375
3833		23.437500
3834		19.531250
3835		21.484375
3836		17.578125
3837		21.484375
3838		15.625000
3839		21.484375
3840		15.625000
3841		19.531250
3842		15.625000
3843		17.578125
3844		13.671875
3845		17.578125
3846		11.718750
3847		15.625000
3848		11.718750
3849		15.625000
3850		9.765625
3851		13.671875
3852		7.812500
3853		11.718750
3854		7.812500
3855		9.765625
3856		5.859375
3857		9.765625
3858		3.906250
3859		7.812500
3860		3.906250
3861		7.812500
3862		1.953125
3863		5.859375
3864		0.000000
3865		3.906250
3866		0.000000
3867		3.906250
3868		-1.953125
3869		1.953125
3870		-1.953125
3871		1.953125
3872		-3.906250
3873		0.000000
3874		-3.906250
3875		-1.953125
3876		-5.859375
3877		-1.953125
3878		-7.812500
3879		-3.906250
3880		-7.812500
3881		-3.906250
3882		-7.812500
3883		-5.859375
3884		-9.765625
3885		-5.859375
3886		-9.765625
3887		-7.812500
3888		-11.718750
3889		-7.812500
3890		-11.718750
3891		-7.812500
3892		-11.718750
3893		-9.765625
3894		-13.671875
3895		-9.765625
3896		-13.671875
3897		-11.718750
3898		-13.671875
3899		-11.718750
3900		-15.625000
3901		-11.718750
3902		-15.625000
3903		-11.718750
3904		-15.625000
3905		-13.671875
3906		-17.578125
3907		-13.671875
3908		-15.625000
3909		-13.671875
3910		-17.578125
3911		-13.671875
3912		-17.578125
3913		-13.671875
3914		-17.578125
3915		-13.671875
3916		-17.578125
3917		-13.671875
3918		-17.578125
3919		-13.671875
3920		-17.578125
3921		-13.671875
3922		-17.578125
3923		-13.671875
3924		-15.625000
3925		-13.671875
3926		-15.625000
3927		-13.671875
3928		-15.625000
3929		-11.718750
3930		-15.625000
3931		-11.718750
3932		-15.625000
3933		-11.718750
3934		-13.671875
3935		-9.765625
3936		-13.671875
3937		-9.765625
3938		-13.671875
3939		-9.765625
3940		-13.671875
3941		-9.765625
3942		-11.718750
3943		-7.812500
3944		-11.718750
3945		-7.812500
3946		-9.765625
3947		-5.859375
3948		-9.765625
3949		-5.859375
3950		-7.812500
3951		-5.859375
3952		-7.812500
3953		-3.906250
3954		-5.859375
3955		-1.953125
3956		-5.859375
3957		-1.953125
3958		-3.906250
3959		0.000000
3960		-1.953125
3961		0.000000
3962		-1.953125
3963		1.953125
3964		0.000000
3965		3.906250
3966		0.000000
3967		3.906250
3968		1.953125
3969		5.859375
3970		1.953125
3971		5.859375
3972		3.906250
3973		7.812500
3974		5.859375
3975		7.812500
3976		5.859375
3977		9.765625
3978		7.812500
3979		11.718750
3980		9.765625
3981		13.671875
3982		9.765625
3983		13.671875
3984		11.718750
3985		15.625000
3986		13.671875
3987		15.625000
3988		13.671875
3989		17.578125
3990		13.671875
3991		19.531250
3992		17.578125
3993		19.531250
3994		17.578125
3995		21.484375
3996		19.531250
3997		23.437500
3998		19.531250
3999		23.437500
4000		21.484375
4001		23.437500
4002		21.484375
4003		25.390625
4004		23.437500
4005		27.343750
4006		23.437500
4007		27.343750
4008		25.390625
4009		27.343750
4010		25.390625
4011		29.296875
4012		25.390625
4013		29.296875
4014		27.343750
4015		29.296875
4016		27.343750
4017		31.250000
4018		29.296875
4019		31.250000
4020		29.296875
4021		33.203125
4022		29.296875
4023		33.203125
4024		29.296875
4025		33.203125
4026		31.250000
4027		33.203125
4028		29.296875
4029		35.156250
4030		31.250000
4031		35.156250
4032		31.250000
4033		35.156250
4034		31.250000
4035		35.156250
4036		31.250000
4037		35.156250
4038		33.203125
4039		35.156250
4040		33.203125
4041		35.156250
4042		33.203125
4043		35.156250
4044		33.203125
4045		35.156250
4046		31.250000
4047		35.156250
4048		31.250000
4049		35.156250
4050		31.250000
4051		35.156250
4052		31.250000
4053		35.156250
4054		31.250000
4055		35.156250
4056		31.250000
4057		33.203125
4058		29.296875
4059		33.203125
4060		31.250000
4061		33.203125
4062		29.296875
4063		33.203125
4064		29.296875
4065		33.203125
4066		27.343750
4067		31.250000
4068		27.343750
4069		31.250000
4070		27.343750
4071		29.296875
4072		25.390625
4073		29.296875
4074		25.390625
4075		29.296875
4076		23.437500
4077		27.343750
4078		21.484375
4079		25.390625
4080		21.484375
4081		25.390625
4082		21.484375
4083		25.390625
4084		19.531250
4085		23.437500
4086		19.531250
4087		21.484375
4088		17.578125
4089		21.484375
4090		17.578125
4091		19.531250
4092		15.625000
4093		19.531250
4094		13.671875
4095		17.578125
4096		13.671875
4097		17.578125
4098		11.718750
4099		15.625000
4100		9.765625
4101		13.671875
4102		9.765625
4103		13.671875
4104		7.812500
4105		11.718750
4106		7.812500
4107		9.765625
4108		5.859375
4109		9.765625
4110		3.906250
4111		7.812500
4112		1.953125
4113		5.859375
4114		1.953125
4115		5.859375
4116		0.000000
4117		3.906250
4118		0.000000
4119		3.906250
4120		-1.953125
4121		1.953125
4122		-1.953125
4123		0.000000
4124		-3.906250
4125		0.000000
4126		-3.906250
4127		-1.953125
4128		-5.859375
4129		-1.953125
4130		-7.812500
4131		-1.953125
4132		-7.812500
4133		-3.906250
4134		-7.812500
4135		-5.859375
4136		-9.765625
4137		-5.859375
4138		-9.765625
4139		-7.812500
4140		-11.718750
4141		-7.812500
4142		-13.671875
4143		-9.765625
4144		-11.718750
4145		-9.765625
4146		-13.671875
4147		-9.765625
4148		-13.671875
4149		-11.718750
4150		-15.625000
4151		-11.718750
4152		-15.625000
4153		-11.718750
4154		-15.625000
4155		-13.671875
4156		-15.625000
4157		-11.718750
4158		-15.625000
4159		-13.671875
4160		-15.625000
4161		-13.671875
4162		-15.625000
4163		-13.671875
4164		-17.578125
4165		-13.671875
4166		-17.578125
4167		-13.671875
4168		-17.578125
4169		-13.671875
4170		-17.578125
4171		-13.671875
4172		-17.578125
4173		-13.671875
4174		-15.625000
4175		-13.671875
4176		-15.625000
4177		-13.671875
4178		-15.625000
4179		-13.671875
4180		-15.625000
4181		-11.718750
4182		-15.625000
4183		-11.718750
4184		-15.625000
4185		-11.718750
4186		-15.625000
4187		-11.718750
4188		-13.671875
4189		-9.765625
4190		-11.718750
4191		-9.765625
4192		-13.671875
4193		-9.765625
4194		-11.718750
4195		-7.812500
4196		-9.765625
4197		-7.812500
4198		-9.765625
4199		-5.859375
4200		-7.812500
4201		-5.859375
4202		-7.812500
4203		-3.906250
4204		-7.812500
4205		-3.906250
4206		-5.859375
4207		-1.953125
4208		-5.859375
4209		-1.953125
4210		-3.906250
4211		0.000000
4212		-1.953125
4213		0.000000
4214		-1.953125
4215		1.953125
4216		0.000000
4217		3.906250
4218		0.000000
4219		3.906250
4220		1.953125
4221		5.859375
4222		3.906250
4223		5.859375
4224		3.906250
4225		7.812500
4226		5.859375
4227		9.765625
4228		7.812500
4229		9.765625
4230		7.812500
4231		11.718750
4232		9.765625
4233		11.718750
4234		9.765625
4235		13.671875
4236		11.718750
4237		15.625000
4238		13.671875
4239		17.578125
4240		13.671875
4241		17.578125
4242		15.625000
4243		19.531250
4244		17.578125
4245		19.531250
4246		17.578125
4247		21.484375
4248		17.578125
4249		21.484375
4250		19.531250
4251		23.437500
4252		21.484375
4253		25.390625
4254		21.484375
4255		25.390625
4256		23.437500
4257		25.390625
4258		23.437500
4259		27.343750
4260		25.390625
4261		27.343750
4262		25.390625
4263		29.296875
4264		27.343750
4265		31.250000
4266		27.343750
4267		29.296875
4268		27.343750
4269		31.250000
4270		27.343750
4271		31.250000
4272		29.296875
4273		33.203125
4274		29.296875
4275		33.203125
4276		29.296875
4277		33.203125
4278		31.250000
4279		33.203125
4280		31.250000
4281		35.156250
4282		31.250000
4283		35.156250
4284		31.250000
4285		35.156250
4286		31.250000
4287		35.156250
4288		33.203125
4289		35.156250
4290		31.250000
4291		35.156250
4292		33.203125
4293		37.109375
4294		33.203125
4295		35.156250
4296		33.203125
4297		35.156250
4298		31.250000
4299		35.156250
4300		31.250000
4301		35.156250
4302		31.250000
4303		35.156250
4304		31.250000
4305		35.156250
4306		31.250000
4307		35.156250
4308		31.250000
4309		33.203125
4310		31.250000
4311		35.156250
4312		31.250000
4313		33.203125
4314		29.296875
4315		33.203125
4316		29.296875
4317		33.203125
4318		27.343750
4319		31.250000
4320		27.343750
4321		31.250000
4322		27.343750
4323		29.296875
4324		25.390625
4325		29.296875
4326		23.437500
4327		27.343750
4328		23.437500
4329		27.343750
4330		23.437500
4331		25.390625
4332		21.484375
4333		25.390625
4334		21.484375
4335		25.390625
4336		19.531250
4337		23.437500
4338		19.531250
4339		21.484375
4340		17.578125
4341		21.484375
4342		15.625000
4343		21.484375
4344		15.625000
4345		19.531250
4346		15.625000
4347		17.578125
4348		13.671875
4349		15.625000
4350		11.718750
4351		15.625000
4352		11.718750
4353		13.671875
4354		9.765625
4355		13.671875
4356		7.812500
4357		11.718750
4358		7.812500
4359		9.765625
4360		5.859375
4361		9.765625
4362		3.906250
4363		7.812500
4364		1.953125
4365		5.859375
4366		1.953125
4367		5.859375
4368		1.953125
4369		3.906250
4370		0.000000
4371		3.906250
4372		-1.953125
4373		1.953125
4374		-1.953125
4375		0.000000
4376		-3.906250
4377		0.000000
4378		-3.906250
4379		-1.953125
4380		-5.859375
4381		-1.953125
4382		-7.812500
4383		-1.953125
4384		-7.812500
4385		-3.906250
4386		-7.812500
4387		-5.859375
4388		-9.765625
4389		-5.859375
4390		-9.765625
4391		-7.812500
4392		-11.718750
4393		-7.812500
4394		-13.671875
4395		-7.812500
4396		-11.718750
4397		-9.765625
4398		-13.671875
4399		-9.765625
4400		-13.671875
4401		-11.718750
4402		-15.625000
4403		-11.718750
4404		-15.625000
4405		-11.718750
4406		-15.625000
4407		-11.718750
4408		-15.625000
4409		-11.718750
4410		-17.578125
4411		-13.671875
4412		-15.625000
4413		-13.671875
4414		-15.625000
4415		-13.671875
4416		-17.578125
4417		-13.671875
4418		-17.578125
4419		-13.671875
4420		-17.578125
4421		-13.671875
4422		-17.578125
4423		-13.671875
4424		-15.625000
4425		-13.671875
4426		-15.625000
4427		-13.671875
4428		-17.578125
4429		-13.671875
4430		-15.625000
4431		-13.671875
4432		-15.625000
4433		-11.718750
4434		-15.625000
4435		-11.718750
4436		-13.671875
4437		-11.718750
4438		-13.671875
4439		-11.718750
4440		-13.671875
4441		-9.765625
4442		-13.671875
4443		-9.765625
4444		-11.718750
4445		-9.765625
4446		-11.718750
4447		-7.812500
4448		-11.718750
4449		-5.859375
4450		-9.765625
4451		-5.859375
4452		-7.812500
4453		-5.859375
4454		-7.812500
4455		-5.859375
4456		-5.859375
4457		-3.906250
4458		-5.859375
4459		-1.953125
4460		-5.859375
4461		0.000000
4462		-3.906250
4463		0.000000
4464		-1.953125
4465		0.000000
4466		-1.953125
4467		1.953125
4468		0.000000
4469		3.906250
4470		0.000000
4471		3.906250
4472		1.953125
4473		5.859375
4474		3.906250
4475		7.812500
4476		3.906250
4477		7.812500
4478		3.906250
4479		9.765625
4480		7.812500
4481		9.765625
4482		7.812500
4483		11.718750
4484		9.765625
4485		13.671875
4486		11.718750
4487		15.625000
4488		11.718750
4489		15.625000
4490		11.718750
4491		17.578125
4492		13.671875
4493		17.578125
4494		15.625000
4495		19.531250
4496		17.578125
4497		19.531250
4498		17.578125
4499		21.484375
4500		17.578125
4501		21.484375
4502		19.531250
4503		23.437500
4504		21.484375
4505		25.390625
4506		21.484375
4507		25.390625
4508		23.437500
4509		25.390625
4510		23.437500
4511		27.343750
4512		25.390625
4513		29.296875
4514		25.390625
4515		29.296875
4516		27.343750
4517		31.250000
4518		27.343750
4519		31.250000
4520		27.343750
4521		31.250000
4522		27.343750
4523		31.250000
4524		29.296875
4525		33.203125
4526		29.296875
4527		33.203125
4528		29.296875
4529		35.156250
4530		31.250000
4531		33.203125
4532		31.250000
4533		35.156250
4534		31.250000
4535		35.156250
4536		31.250000
4537		35.156250
4538		33.203125
4539		35.156250
4540		33.203125
4541		35.156250
4542		33.203125
4543		35.156250
4544		31.250000
4545		35.156250
4546		33.203125
4547		35.156250
4548		33.203125
4549		35.156250
4550		33.203125
4551		37.109375
4552		31.250000
4553		35.156250
4554		31.250000
4555		35.156250
4556		31.250000
4557		35.156250
4558		31.250000
4559		35.156250
4560		31.250000
4561		35.156250
4562		29.296875
4563		35.156250
4564		31.250000
4565		33.203125
4566		29.296875
4567		33.203125
4568		29.296875
4569		33.203125
4570		27.343750
4571		31.250000
4572		27.343750
4573		31.250000
4574		25.390625
4575		29.296875
4576		25.390625
4577		29.296875
4578		25.390625
4579		29.296875
4580		23.437500
4581		27.343750
4582		23.437500
4583		25.390625
4584		21.484375
4585		25.390625
4586		21.484375
4587		25.390625
4588		19.531250
4589		23.437500
4590		17.578125
4591		21.484375
4592		17.578125
4593		21.484375
4594		15.625000
4595		19.531250
4596		13.671875
4597		19.531250
4598		13.671875
4599		17.578125
4600		13.671875
4601		17.578125
4602		11.718750
4603		15.625000
4604		9.765625
4605		13.671875
4606		9.765625
4607		13.671875
4608		7.812500
4609		11.718750
4610		5.859375
4611		11.718750
4612		5.859375
4613		9.765625
4614		3.906250
4615		7.812500
4616		3.906250
4617		5.859375
4618		1.953125
4619		5.859375
4620		0.000000
4621		3.906250
4622		0.000000
4623		3.906250
4624		-1.953125
4625		1.953125
4626		-3.906250
4627		0.000000
4628		-5.859375
4629		0.000000
4630		-3.906250
4631		-1.953125
4632		-5.859375
4633		-1.953125
4634		-7.812500
4635		-3.906250
4636		-7.812500
4637		-3.906250
4638		-9.765625
4639		-5.859375
4640		-9.765625
4641		-5.859375
4642		-9.765625
4643		-7.812500
4644		-11.718750
4645		-7.812500
4646		-11.718750
4647		-9.765625
4648		-13.671875
4649		-9.765625
4650		-13.671875
4651		-9.765625
4652		-13.671875
4653		-11.718750
4654		-15.625000
4655		-11.718750
4656		-15.625000
4657		-11.718750
4658		-15.625000
4659		-11.718750
4660		-15.625000
4661		-13.671875
4662		-15.625000
4663		-13.671875
4664		-15.625000
4665		-13.671875
4666		-15.625000
4667		-13.671875
4668		-17.578125
4669		-13.671875
4670		-17.578125
4671		-13.671875
4672		-17.578125
4673		-13.671875
4674		-17.578125
4675		-13.671875
4676		-17.578125
4677		-13.671875
4678		-17.578125
4679		-13.671875
4680		-17.578125
4681		-13.671875
4682		-15.625000
4683		-13.671875
4684		-15.625000
4685		-11.718750
4686		-15.625000
4687		-11.718750
4688		-13.671875
4689		-11.718750
4690		-13.671875
4691		-9.765625
4692		-13.671875
4693		-9.765625
4694		-13.671875
4695		-9.765625
4696		-11.718750
4697		-9.765625
4698		-11.718750
4699		-7.812500
4700		-11.718750
4701		-7.812500
4702		-9.765625
4703		-5.859375
4704		-9.765625
4705		-5.859375
4706		-7.812500
4707		-3.906250
4708		-5.859375
4709		-3.906250
4710		-5.859375
4711		-1.953125
4712		-3.906250
4713		0.000000
4714		-3.906250
4715		0.000000
4716		-1.953125
4717		0.000000
4718		-1.953125
4719		1.953125
4720		0.000000
4721		3.906250
4722		1.953125
4723		3.906250
4724		1.953125
4725		5.859375
4726		3.906250
4727		5.859375
4728		3.906250
4729		7.812500
4730		5.859375
4731		9.765625
4732		7.812500
4733		9.765625
4734		7.812500
4735		13.671875
4736		9.765625
4737		13.671875
4738		9.765625
4739		13.671875
4740		11.718750
4741		15.625000
4742		13.671875
4743		17.578125
4744		13.671875
4745		17.578125
4746		15.625000
4747		19.531250
4748		17.578125
4749		19.531250
4750		17.578125
4751		21.484375
4752		19.531250
4753		21.484375
4754		19.531250
4755		23.437500
4756		21.484375
4757		23.437500
4758		21.484375
4759		25.390625
4760		23.437500
4761		27.343750
4762		23.437500
4763		27.343750
4764		23.437500
4765		27.343750
4766		25.390625
4767		29.296875
4768		27.343750
4769		29.296875
4770		27.343750
4771		31.250000
4772		27.343750
4773		31.250000
4774		29.296875
4775		31.250000
4776		29.296875
4777		31.250000
4778		29.296875
4779		33.203125
4780		29.296875
4781		33.203125
4782		31.250000
4783		33.203125
4784		31.250000
4785		33.203125
4786		31.250000
4787		35.156250
4788		31.250000
4789		35.156250
4790		31.250000
4791		35.156250
4792		31.250000
4793		35.156250
4794		31.250000
4795		35.156250
4796		31.250000
4797		37.109375
4798		33.203125
4799		35.156250
4800		33.203125
4801		35.156250
4802		31.250000
4803		35.156250
4804		31.250000
4805		35.156250
4806		31.250000
4807		35.156250
4808		31.250000
4809		35.156250
4810		31.250000
4811		33.203125
4812		31.250000
4813		33.203125
4814		29.296875
4815		33.203125
4816		29.296875
4817		33.203125
4818		29.296875
4819		33.203125
4820		29.296875
4821		31.250000
4822		27.343750
4823		31.250000
4824		27.343750
4825		31.250000
4826		27.343750
4827		29.296875
4828		25.390625
4829		29.296875
4830		23.437500
4831		27.343750
4832		23.437500
4833		27.343750
4834		23.437500
4835		25.390625
4836		21.484375
4837		25.390625
4838		21.484375
4839		25.390625
4840		19.531250
4841		23.437500
4842		17.578125
4843		21.484375
4844		17.578125
4845		21.484375
4846		15.625000
4847		19.531250
4848		15.625000
4849		19.531250
4850		13.671875
4851		17.578125
4852		11.718750
4853		15.625000
4854		11.718750
4855		15.625000
4856		11.718750
4857		13.671875
4858		9.765625
4859		13.671875
4860		7.812500
4861		11.718750
4862		5.859375
4863		9.765625
4864		5.859375
4865		9.765625
4866		3.906250
4867		7.812500
4868		3.906250
4869		5.859375
4870		1.953125
4871		5.859375
4872		0.000000
4873		3.906250
4874		0.000000
4875		1.953125
4876		-1.953125
4877		1.953125
4878		-3.906250
4879		0.000000
4880		-5.859375
4881		0.000000
4882		-3.906250
4883		-1.953125
4884		-5.859375
4885		-3.906250
4886		-5.859375
4887		-3.906250
4888		-7.812500
4889		-3.906250
4890		-7.812500
4891		-5.859375
4892		-9.765625
4893		-5.859375
4894		-11.718750
4895		-7.812500
4896		-11.718750
4897		-7.812500
4898		-13.671875
4899		-7.812500
4900		-13.671875
4901		-9.765625
4902		-13.671875
4903		-9.765625
4904		-13.671875
4905		-11.718750
4906		-13.671875
4907		-11.718750
4908		-15.625000
4909		-11.718750
4910		-15.625000
4911		-11.718750
4912		-15.625000
4913		-13.671875
4914		-17.578125
4915		-13.671875
4916		-15.625000
4917		-13.671875
4918		-17.578125
4919		-13.671875
4920		-17.578125
4921		-13.671875
4922		-17.578125
4923		-13.671875
4924		-17.578125
4925		-13.671875
4926		-17.578125
4927		-13.671875
4928		-17.578125
4929		-13.671875
4930		-15.625000
4931		-13.671875
4932		-17.578125
4933		-13.671875
4934		-15.625000
4935		-13.671875
4936		-15.625000
4937		-11.718750
4938		-15.625000
4939		-11.718750
4940		-15.625000
4941		-11.718750
4942		-13.671875
4943		-11.718750
4944		-13.671875
4945		-9.765625
4946		-13.671875
4947		-9.765625
4948		-13.671875
4949		-7.812500
4950		-11.718750
4951		-7.812500
4952		-9.765625
4953		-7.812500
4954		-11.718750
4955		-5.859375
4956		-7.812500
4957		-5.859375
4958		-7.812500
4959		-3.906250
4960		-7.812500
4961		-3.906250
4962		-5.859375
4963		-1.953125
4964		-3.906250
4965		-1.953125
4966		-3.906250
4967		0.000000
4968		-1.953125
4969		0.000000
4970		-1.953125
4971		1.953125
4972		0.000000
4973		3.906250
4974		0.000000
4975		3.906250
4976		1.953125
4977		5.859375
4978		3.906250
4979		5.859375
4980		3.906250
4981		7.812500
4982		5.859375
4983		9.765625
4984		7.812500
4985		9.765625
4986		7.812500
4987		11.718750
4988		9.765625
4989		13.671875
4990		11.718750
4991		13.671875
4992		11.718750
4993		15.625000
4994		13.671875
4995		17.578125
4996		13.671875
4997		17.578125
4998		15.625000
4999		19.531250
5000		17.578125
5001		19.531250
5002		17.578125
5003		21.484375
5004		17.578125
5005		21.484375
5006		19.531250
5007		23.437500
5008		21.484375
5009		25.390625
5010		21.484375
5011		25.390625
5012		23.437500
5013		27.343750
5014		23.437500
5015		27.343750
5016		23.437500
5017		27.343750
5018		25.390625
5019		29.296875
5020		25.390625
5021		29.296875
5022		27.343750
5023		31.250000
5024		27.343750
5025		31.250000
5026		29.296875
5027		33.203125
5028		29.296875
5029		33.203125
5030		29.296875
5031		33.203125
5032		29.296875
5033		33.203125
5034		31.250000
5035		33.203125
5036		31.250000
5037		33.203125
5038		31.250000
5039		35.156250
5040		31.250000
5041		35.156250
5042		31.250000
5043		35.156250
5044		31.250000
5045		35.156250
5046		33.203125
5047		35.156250
5048		31.250000
5049		35.156250
5050		31.250000
5051		37.109375
5052		33.203125
5053		35.156250
5054		31.250000
5055		35.156250
5056		31.250000
5057		35.156250
5058		31.250000
5059		35.156250
5060		31.250000
5061		35.156250
5062		31.250000
5063		33.203125
5064		31.250000
5065		33.203125
5066		31.250000
5067		33.203125
5068		29.296875
5069		33.203125
5070		27.343750
5071		33.203125
5072		27.343750
5073		31.250000
5074		27.343750
5075		31.250000
5076		27.343750
5077		31.250000
5078		25.390625
5079		29.296875
5080		25.390625
5081		29.296875
5082		23.437500
5083		27.343750
5084		23.437500
5085		27.343750
5086		23.437500
5087		25.390625
5088		21.484375
5089		25.390625
5090		21.484375
5091		25.390625
5092		19.531250
5093		23.437500
5094		19.531250
5095		21.484375
5096		17.578125
5097		21.484375
5098		17.578125
5099		19.531250
5100		15.625000
5101		19.531250
5102		13.671875
5103		17.578125
5104		13.671875
5105		15.625000
5106		11.718750
5107		15.625000
5108		9.765625
5109		13.671875
5110		9.765625
5111		11.718750
5112		7.812500
5113		11.718750
5114		5.859375
5115		9.765625
5116		3.906250
5117		9.765625
5118		3.906250
5119		7.812500
5120		3.906250
5121		5.859375
5122		1.953125
5123		5.859375
5124		0.000000
5125		3.906250
5126		0.000000
5127		3.906250
5128		-1.953125
5129		1.953125
5130		-1.953125
5131		0.000000
5132		-3.906250
5133		0.000000
5134		-3.906250
5135		-1.953125
5136		-5.859375
5137		-3.906250
5138		-7.812500
5139		-3.906250
5140		-7.812500
5141		-3.906250
5142		-9.765625
5143		-5.859375
5144		-9.765625
5145		-5.859375
5146		-9.765625
5147		-7.812500
5148		-11.718750
5149		-7.812500
5150		-11.718750
5151		-7.812500
5152		-13.671875
5153		-9.765625
5154		-13.671875
5155		-9.765625
5156		-13.671875
5157		-11.718750
5158		-15.625000
5159		-11.718750
5160		-15.625000
5161		-11.718750
5162		-15.625000
5163		-11.718750
5164		-15.625000
5165		-13.671875
5166		-17.578125
5167		-13.671875
5168		-15.625000
5169		-13.671875
5170		-15.625000
5171		-13.671875
5172		-17.578125
5173		-13.671875
5174		-17.578125
5175		-13.671875
5176		-17.578125
5177		-13.671875
5178		-17.578125
5179		-13.671875
5180		-17.578125
5181		-13.671875
5182		-15.625000
5183		-13.671875
5184		-17.578125
5185		-13.671875
5186		-15.625000
5187		-13.671875
5188		-15.625000
5189		-11.718750
5190		-15.625000
5191		-11.718750
5192		-13.671875
5193		-11.718750
5194		-13.671875
5195		-11.718750
5196		-13.671875
5197		-9.765625
5198		-11.718750
5199		-9.765625
5200		-11.718750
5201		-9.765625
5202		-11.718750
5203		-7.812500
5204		-9.765625
5205		-7.812500
5206		-11.718750
5207		-5.859375
5208		-7.812500
5209		-5.859375
5210		-7.812500
5211		-3.906250
5212		-7.812500
5213		-3.906250
5214		-5.859375
5215		-1.953125
5216		-5.859375
5217		-1.953125
5218		-3.906250
5219		0.000000
5220		-1.953125
5221		0.000000
5222		-1.953125
5223		1.953125
5224		0.000000
5225		3.906250
5226		0.000000
5227		5.859375
5228		1.953125
5229		5.859375
5230		3.906250
5231		7.812500
5232		3.906250
5233		7.812500
5234		5.859375
5235		9.765625
5236		7.812500
5237		9.765625
5238		7.812500
5239		13.671875
5240		9.765625
5241		13.671875
5242		11.718750
5243		13.671875
5244		11.718750
5245		15.625000
5246		13.671875
5247		15.625000
5248		13.671875
5249		17.578125
5250		15.625000
5251		19.531250
5252		17.578125
5253		19.531250
5254		17.578125
5255		21.484375
5256		17.578125
5257		23.437500
5258		19.531250
5259		23.437500
5260		21.484375
5261		25.390625
5262		21.484375
5263		25.390625
5264		23.437500
5265		27.343750
5266		23.437500
5267		27.343750
5268		25.390625
5269		29.296875
5270		25.390625
5271		29.296875
5272		25.390625
5273		29.296875
5274		27.343750
5275		29.296875
5276		27.343750
5277		31.250000
5278		29.296875
5279		31.250000
5280		29.296875
5281		33.203125
5282		29.296875
5283		33.203125
5284		29.296875
5285		33.203125
5286		31.250000
5287		33.203125
5288		31.250000
5289		35.156250
5290		31.250000
5291		35.156250
5292		31.250000
5293		35.156250
5294		33.203125
5295		35.156250
5296		33.203125
5297		35.156250
5298		31.250000
5299		35.156250
5300		33.203125
5301		35.156250
5302		31.250000
5303		35.156250
5304		33.203125
5305		35.156250
5306		33.203125
5307		35.156250
5308		33.203125
5309		35.156250
5310		31.250000
5311		35.156250
5312		31.250000
5313		35.156250
5314		31.250000
5315		35.156250
5316		31.250000
5317		35.156250
5318		29.296875
5319		33.203125
5320		29.296875
5321		33.203125
5322		29.296875
5323		33.203125
5324		27.343750
5325		31.250000
5326		27.343750
5327		31.250000
5328		27.343750
5329		31.250000
5330		25.390625
5331		29.296875
5332		25.390625
5333		29.296875
5334		23.437500
5335		27.343750
5336		23.437500
5337		27.343750
5338		23.437500
5339		25.390625
5340		21.484375
5341		25.390625
5342		19.531250
5343		23.437500
5344		19.531250
5345		23.437500
5346		19.531250
5347		21.484375
5348		17.578125
5349		21.484375
5350		15.625000
5351		19.531250
5352		15.625000
5353		19.531250
5354		13.671875
5355		17.578125
5356		13.671875
5357		15.625000
5358		11.718750
5359		15.625000
5360		9.765625
5361		13.671875
5362		7.812500
5363		13.671875
5364		7.812500
5365		11.718750
5366		7.812500
5367		9.765625
5368		5.859375
5369		9.765625
5370		3.906250
5371		7.812500
5372		3.906250
5373		5.859375
5374		1.953125
5375		5.859375
5376		1.953125
5377		3.906250
5378		0.000000
5379		3.906250
5380		-1.953125
5381		1.953125
5382		-1.953125
5383		1.953125
5384		-3.906250
5385		0.000000
5386		-5.859375
5387		0.000000
5388		-5.859375
5389		-1.953125
5390		-7.812500
5391		-3.906250
5392		-7.812500
5393		-3.906250
5394		-9.765625
5395		-5.859375
5396		-9.765625
5397		-5.859375
5398		-11.718750
5399		-7.812500
5400		-11.718750
5401		-7.812500
5402		-11.718750
5403		-7.812500
5404		-11.718750
5405		-9.765625
5406		-13.671875
5407		-11.718750
5408		-13.671875
5409		-9.765625
5410		-15.625000
5411		-11.718750
5412		-15.625000
5413		-11.718750
5414		-15.625000
5415		-11.718750
5416		-15.625000
5417		-13.671875
5418		-15.625000
5419		-13.671875
5420		-15.625000
5421		-13.671875
5422		-15.625000
5423		-13.671875
5424		-17.578125
5425		-13.671875
5426		-17.578125
5427		-13.671875
5428		-17.578125
5429		-13.671875
5430		-17.578125
5431		-13.671875
5432		-17.578125
5433		-13.671875
5434		-15.625000
5435		-13.671875
5436		-17.578125
5437		-13.671875
5438		-15.625000
5439		-13.671875
5440		-15.625000
5441		-11.718750
5442		-15.625000
5443		-11.718750
5444		-13.671875
5445		-11.718750
5446		-13.671875
5447		-11.718750
5448		-13.671875
5449		-9.765625
5450		-11.718750
5451		-9.765625
5452		-11.718750
5453		-7.812500
5454		-9.765625
5455		-7.812500
5456		-9.765625
5457		-7.812500
5458		-9.765625
5459		-5.859375
5460		-9.765625
5461		-5.859375
5462		-7.812500
5463		-3.906250
5464		-5.859375
5465		-3.906250
5466		-5.859375
5467		-1.953125
5468		-3.906250
5469		0.000000
5470		-3.906250
5471		0.000000
5472		-1.953125
5473		1.953125
5474		-1.953125
5475		1.953125
5476		0.000000
5477		3.906250
5478		0.000000
5479		3.906250
5480		1.953125
5481		5.859375
5482		3.906250
5483		7.812500
5484		5.859375
5485		7.812500
5486		5.859375
5487		9.765625
5488		7.812500
5489		9.765625
5490		9.765625
5491		11.718750
5492		7.812500
5493		13.671875
5494		11.718750
5495		13.671875
5496		11.718750
5497		15.625000
5498		13.671875
5499		17.578125
5500		13.671875
5501		17.578125
5502		15.625000
5503		19.531250
5504		15.625000
5505		19.531250
5506		17.578125
5507		21.484375
5508		17.578125
5509		23.437500
5510		19.531250
5511		23.437500
5512		21.484375
5513		23.437500
5514		21.484375
5515		25.390625
5516		23.437500
5517		27.343750
5518		25.390625
5519		27.343750
5520		25.390625
5521		29.296875
5522		25.390625
5523		29.296875
5524		27.343750
5525		31.250000
5526		27.343750
5527		31.250000
5528		27.343750
5529		31.250000
5530		29.296875
5531		33.203125
5532		29.296875
5533		33.203125
5534		29.296875
5535		33.203125
5536		29.296875
5537		33.203125
5538		31.250000
5539		35.156250
5540		31.250000
5541		33.203125
5542		31.250000
5543		35.156250
5544		31.250000
5545		35.156250
5546		33.203125
5547		35.156250
5548		33.203125
5549		35.156250
5550		33.203125
5551		35.156250
5552		33.203125
5553		35.156250
5554		33.203125
5555		35.156250
5556		33.203125
5557		35.156250
5558		31.250000
5559		37.109375
5560		33.203125
5561		35.156250
5562		33.203125
5563		35.156250
5564		31.250000
5565		35.156250
5566		31.250000
5567		35.156250
5568		31.250000
5569		33.203125
5570		29.296875
5571		33.203125
5572		29.296875
5573		33.203125
5574		29.296875
5575		31.250000
5576		29.296875
5577		33.203125
5578		27.343750
5579		31.250000
5580		27.343750
5581		29.296875
5582		27.343750
5583		29.296875
5584		25.390625
5585		29.296875
5586		25.390625
5587		27.343750
5588		23.437500
5589		27.343750
5590		23.437500
5591		25.390625
5592		21.484375
5593		25.390625
5594		21.484375
5595		23.437500
5596		19.531250
5597		23.437500
5598		17.578125
5599		21.484375
5600		17.578125
5601		21.484375
5602		15.625000
5603		19.531250
5604		15.625000
5605		19.531250
5606		13.671875
5607		17.578125
5608		13.671875
5609		15.625000
5610		11.718750
5611		15.625000
5612		9.765625
5613		13.671875
5614		9.765625
5615		11.718750
5616		7.812500
5617		11.718750
5618		5.859375
5619		9.765625
5620		5.859375
5621		9.765625
5622		3.906250
5623		7.812500
5624		3.906250
5625		5.859375
5626		1.953125
5627		5.859375
5628		0.000000
5629		3.906250
5630		0.000000
5631		3.906250
5632		-1.953125
5633		1.953125
5634		-1.953125
5635		0.000000
5636		-3.906250
5637		0.000000
5638		-3.906250
5639		-1.953125
5640		-5.859375
5641		-3.906250
5642		-7.812500
5643		-3.906250
5644		-7.812500
5645		-3.906250
5646		-9.765625
5647		-5.859375
5648		-9.765625
5649		-5.859375
5650		-9.765625
5651		-7.812500
5652		-11.718750
5653		-7.812500
5654		-13.671875
5655		-7.812500
5656		-11.718750
5657		-9.765625
5658		-13.671875
5659		-9.765625
5660		-13.671875
5661		-9.765625
5662		-15.625000
5663		-11.718750
5664		-15.625000
5665		-11.718750
5666		-15.625000
5667		-11.718750
5668		-15.625000
5669		-11.718750
5670		-15.625000
5671		-13.671875
5672		-17.578125
5673		-13.671875
5674		-15.625000
5675		-13.671875
5676		-17.578125
5677		-13.671875
5678		-17.578125
5679		-13.671875
5680		-17.578125
5681		-13.671875
5682		-17.578125
5683		-13.671875
5684		-17.578125
5685		-13.671875
5686		-15.625000
5687		-13.671875
5688		-15.625000
5689		-11.718750
5690		-15.625000
5691		-13.671875
5692		-15.625000
5693		-11.718750
5694		-15.625000
5695		-11.718750
5696		-13.671875
5697		-11.718750
5698		-13.671875
5699		-9.765625
5700		-13.671875
5701		-9.765625
5702		-13.671875
5703		-9.765625
5704		-11.718750
5705		-7.812500
5706		-9.765625
5707		-7.812500
5708		-9.765625
5709		-7.812500
5710		-9.765625
5711		-5.859375
5712		-7.812500
5713		-3.906250
5714		-7.812500
5715		-3.906250
5716		-5.859375
5717		-1.953125
5718		-5.859375
5719		-1.953125
5720		-3.906250
5721		-1.953125
5722		-3.906250
5723		0.000000
5724		-1.953125
5725		1.953125
5726		0.000000
5727		1.953125
5728		0.000000
5729		3.906250
5730		1.953125
5731		5.859375
5732		1.953125
5733		5.859375
5734		3.906250
5735		7.812500
5736		5.859375
5737		7.812500
5738		5.859375
5739		9.765625
5740		7.812500
5741		11.718750
5742		9.765625
5743		11.718750
5744		9.765625
5745		13.671875
5746		11.718750
5747		15.625000
5748		11.718750
5749		15.625000
5750		13.671875
5751		17.578125
5752		15.625000
5753		19.531250
5754		15.625000
5755		19.531250
5756		17.578125
5757		21.484375
5758		17.578125
5759		21.484375
5760		19.531250
5761		23.437500
5762		21.484375
5763		23.437500
5764		21.484375
5765		25.390625
5766		21.484375
5767		25.390625
5768		23.437500
5769		27.343750
5770		23.437500
5771		27.343750
5772		25.390625
5773		29.296875
5774		27.343750
5775		29.296875
5776		27.343750
5777		31.250000
5778		27.343750
5779		31.250000
5780		27.343750
5781		31.250000
5782		29.296875
5783		33.203125
5784		29.296875
5785		33.203125
5786		29.296875
5787		33.203125
5788		29.296875
5789		35.156250
5790		31.250000
5791		33.203125
5792		31.250000
5793		35.156250
5794		31.250000
5795		35.156250
5796		33.203125
5797		35.156250
5798		31.250000
5799		35.156250
5800		33.203125
5801		35.156250
5802		33.203125
5803		35.156250
5804		33.203125
5805		35.156250
5806		31.250000
5807		37.109375
5808		33.203125
5809		35.156250
5810		31.250000
5811		35.156250
5812		33.203125
5813		35.156250
5814		31.250000
5815		35.156250
5816		31.250000
5817		35.156250
5818		31.250000
5819		35.156250
5820		31.250000
5821		35.156250
5822		31.250000
5823		33.203125
5824		29.296875
5825		33.203125
5826		29.296875
5827		33.203125
5828		27.343750
5829		33.203125
5830		27.343750
5831		31.250000
5832		27.343750
5833		31.250000
5834		25.390625
5835		29.296875
5836		25.390625
5837		29.296875
5838		25.390625
5839		29.296875
5840		23.437500
5841		27.343750
5842		23.437500
5843		25.390625
5844		21.484375
5845		25.390625
5846		19.531250
5847		23.437500
5848		19.531250
5849		23.437500
5850		17.578125
5851		21.484375
5852		17.578125
5853		21.484375
5854		15.625000
5855		19.531250
5856		15.625000
5857		19.531250
5858		13.671875
5859		17.578125
5860		11.718750
5861		15.625000
5862		11.718750
5863		15.625000
5864		9.765625
5865		13.671875
5866		7.812500
5867		13.671875
5868		7.812500
5869		11.718750
5870		7.812500
5871		9.765625
5872		5.859375
5873		9.765625
5874		3.906250
5875		7.812500
5876		3.906250
5877		5.859375
5878		1.953125
5879		5.859375
5880		0.000000
5881		3.906250
5882		0.000000
5883		3.906250
5884		-1.953125
5885		1.953125
5886		-1.953125
5887		1.953125
5888		-3.906250
5889		0.000000
5890		-5.859375
5891		-1.953125
5892		-5.859375
5893		-1.953125
5894		-7.812500
5895		-3.906250
5896		-7.812500
5897		-3.906250
5898		-9.765625
5899		-5.859375
5900		-9.765625
5901		-5.859375
5902		-11.718750
5903		-7.812500
5904		-11.718750
5905		-7.812500
5906		-11.718750
5907		-7.812500
5908		-11.718750
5909		-9.765625
5910		-13.671875
5911		-9.765625
5912		-15.625000
5913		-9.765625
5914		-15.625000
5915		-11.718750
5916		-15.625000
5917		-11.718750
5918		-15.625000
5919		-11.718750
5920		-15.625000
5921		-11.718750
5922		-17.578125
5923		-11.718750
5924		-17.578125
5925		-13.671875
5926		-15.625000
5927		-13.671875
5928		-17.578125
5929		-13.671875
5930		-17.578125
5931		-13.671875
5932		-17.578125
5933		-13.671875
5934		-17.578125
5935		-11.718750
5936		-17.578125
5937		-13.671875
5938		-17.578125
5939		-13.671875
5940		-17.578125
5941		-11.718750
5942		-15.625000
5943		-13.671875
5944		-15.625000
5945		-11.718750
5946		-15.625000
5947		-11.718750
5948		-15.625000
5949		-9.765625
5950		-13.671875
5951		-9.765625
5952		-13.671875
5953		-9.765625
5954		-11.718750
5955		-7.812500
5956		-11.718750
5957		-7.812500
5958		-9.765625
5959		-7.812500
5960		-9.765625
5961		-7.812500
5962		-9.765625
5963		-5.859375
5964		-9.765625
5965		-3.906250
5966		-7.812500
5967		-1.953125
5968		-7.812500
5969		-1.953125
5970		-5.859375
5971		-1.953125
5972		-3.906250
5973		0.000000
5974		-3.906250
5975		0.000000
5976		-1.953125
5977		1.953125
5978		-1.953125
5979		3.906250
5980		0.000000
5981		5.859375
5982		0.000000
5983		5.859375
5984		1.953125
5985		7.812500
5986		3.906250
5987		7.812500
5988		3.906250
5989		9.765625
5990		5.859375
5991		9.765625
5992		7.812500
5993		9.765625
5994		9.765625
5995		11.718750
5996		9.765625
5997		13.671875
5998		11.718750
5999		15.625000
6000		11.718750
6001		17.578125
6002		11.718750
6003		17.578125
6004		13.671875
6005		19.531250
6006		15.625000
6007		19.531250
6008		15.625000
6009		19.531250
6010		19.531250
6011		21.484375
6012		19.531250
6013		23.437500
6014		19.531250
6015		25.390625
6016		21.484375
6017		25.390625
6018		21.484375
6019		27.343750
6020		21.484375
6021		27.343750
6022		23.437500
6023		29.296875
6024		25.390625
6025		29.296875
6026		27.343750
6027		29.296875
6028		27.343750
6029		29.296875
6030		27.343750
6031		31.250000
6032		29.296875
6033		31.250000
6034		29.296875
6035		31.250000
6036		29.296875
6037		33.203125
6038		31.250000
6039		33.203125
6040		31.250000
6041		33.203125
6042		31.250000
6043		33.203125
6044		31.250000
6045		35.156250
6046		31.250000
6047		35.156250
6048		33.203125
6049		35.156250
6050		33.203125
6051		35.156250
6052		33.203125
6053		35.156250
6054		33.203125
6055		35.156250
6056		33.203125
6057		35.156250
6058		31.250000
6059		35.156250
6060		33.203125
6061		35.156250
6062		33.203125
6063		35.156250
6064		33.203125
6065		35.156250
6066		33.203125
6067		35.156250
6068		33.203125
6069		35.156250
6070		31.250000
6071		35.156250
6072		31.250000
6073		33.203125
6074		31.250000
6075		33.203125
6076		31.250000
6077		33.203125
6078		29.296875
6079		31.250000
6080		29.296875
6081		31.250000
6082		29.296875
6083		31.250000
6084		27.343750
6085		31.250000
6086		27.343750
6087		29.296875
6088		25.390625
6089		29.296875
6090		25.390625
6091		27.343750
6092		25.390625
6093		27.343750
6094		23.437500
6095		27.343750
6096		23.437500
6097		25.390625
6098		21.484375
6099		23.437500
6100		19.531250
6101		23.437500
6102		19.531250
6103		21.484375
6104		17.578125
6105		21.484375
6106		17.578125
6107		19.531250
6108		15.625000
6109		19.531250
6110		13.671875
6111		17.578125
6112		13.671875
6113		15.625000
6114		11.718750
6115		15.625000
6116		11.718750
6117		13.671875
6118		9.765625
6119		13.671875
6120		7.812500
6121		11.718750
6122		7.812500
6123		9.765625
6124		5.859375
6125		9.765625
6126		3.906250
6127		7.812500
6128		3.906250
6129		5.859375
6130		0.000000
6131		7.812500
6132		-1.953125
6133		7.812500
6134		-1.953125
6135		5.859375
6136		-1.953125
6137		1.953125
6138		-1.953125
6139		0.000000
6140		-3.906250
6141		0.000000
6142		-3.906250
6143		-1.953125
6144		-5.859375
6145		-1.953125
6146		-9.765625
6147		-1.953125
6148		-9.765625
6149		0.000000
6150		-11.718750
6151		-1.953125
6152		-11.718750
6153		-1.953125
6154		-9.765625
6155		-7.812500
6156		-9.765625
6157		-7.812500
6158		-11.718750
6159		-9.765625
6160		-11.718750
6161		-9.765625
6162		-13.671875
6163		-9.765625
6164		-15.625000
6165		-7.812500
6166		-17.578125
6167		-7.812500
6168		-17.578125
6169		-7.812500
6170		-15.625000
6171		-11.718750
6172		-15.625000
6173		-13.671875
6174		-15.625000
6175		-13.671875
6176		-15.625000
6177		-13.671875
6178		-15.625000
6179		-13.671875
6180		-19.531250
6181		-9.765625
6182		-19.531250
6183		-9.765625
6184		-19.531250
6185		-9.765625
6186		-19.531250
6187		-9.765625
6188		-15.625000
6189		-13.671875
6190		-15.625000
6191		-13.671875
6192		-15.625000
6193		-13.671875
6194		-15.625000
6195		-11.718750
6196		-13.671875
6197		-11.718750
6198		-17.578125
6199		-7.812500
6200		-17.578125
6201		-7.812500
6202		-17.578125
6203		-7.812500
6204		-11.718750
6205		-9.765625
6206		-11.718750
6207		-9.765625
6208		-11.718750
6209		-7.812500
6210		-9.765625
6211		-7.812500
6212		-9.765625
6213		-5.859375
6214		-11.718750
6215		-1.953125
6216		-11.718750
6217		-1.953125
6218		-9.765625
6219		0.000000
6220		-5.859375
6221		-1.953125
6222		-3.906250
6223		-1.953125
6224		-3.906250
6225		0.000000
6226		-1.953125
6227		0.000000
6228		-1.953125
6229		1.953125
6230		-3.906250
6231		5.859375
6232		-1.953125
6233		7.812500
6234		-1.953125
6235		9.765625
6236		0.000000
6237		9.765625
6238		3.906250
6239		7.812500
6240		5.859375
6241		7.812500
6242		7.812500
6243		9.765625
6244		7.812500
6245		11.718750
6246		9.765625
6247		11.718750
6248		5.859375
6249		17.578125
6250		9.765625
6251		17.578125
6252		9.765625
6253		19.531250
6254		13.671875
6255		17.578125
6256		15.625000
6257		17.578125
6258		15.625000
6259		19.531250
6260		17.578125
6261		21.484375
6262		19.531250
6263		21.484375
6264		15.625000
6265		27.343750
6266		17.578125
6267		27.343750
6268		19.531250
6269		29.296875
6270		19.531250
6271		27.343750
6272		23.437500
6273		27.343750
6274		25.390625
6275		27.343750
6276		25.390625
6277		29.296875
6278		27.343750
6279		29.296875
6280		27.343750
6281		29.296875
6282		23.437500
6283		35.156250
6284		25.390625
6285		35.156250
6286		27.343750
6287		35.156250
6288		31.250000
6289		33.203125
6290		31.250000
6291		33.203125
6292		31.250000
6293		33.203125
6294		31.250000
6295		33.203125
6296		33.203125
6297		35.156250
6298		29.296875
6299		39.062500
6300		29.296875
6301		39.062500
6302		29.296875
6303		39.062500
6304		33.203125
6305		37.109375
6306		33.203125
6307		35.156250
6308		33.203125
6309		35.156250
6310		33.203125
6311		35.156250
6312		33.203125
6313		35.156250
6314		33.203125
6315		35.156250
6316		31.250000
6317		39.062500
6318		31.250000
6319		37.109375
6320		33.203125
6321		35.156250
6322		31.250000
6323		35.156250
6324		31.250000
6325		35.156250
6326		31.250000
6327		33.203125
6328		31.250000
6329		33.203125
6330		29.296875
6331		33.203125
6332		29.296875
6333		31.250000
6334		25.390625
6335		33.203125
6336		27.343750
6337		33.203125
6338		27.343750
6339		29.296875
6340		25.390625
6341		29.296875
6342		25.390625
6343		27.343750
6344		23.437500
6345		27.343750
6346		23.437500
6347		25.390625
6348		23.437500
6349		25.390625
6350		19.531250
6351		25.390625
6352		19.531250
6353		25.390625
6354		19.531250
6355		21.484375
6356		17.578125
6357		21.484375
6358		17.578125
6359		19.531250
6360		15.625000
6361		19.531250
6362		15.625000
6363		17.578125
6364		13.671875
6365		15.625000
6366		11.718750
6367		15.625000
6368		11.718750
6369		13.671875
6370		9.765625
6371		13.671875
6372		9.765625
6373		11.718750
6374		7.812500
6375		9.765625
6376		5.859375
6377		9.765625
6378		5.859375
6379		7.812500
6380		3.906250
6381		5.859375
6382		1.953125
6383		5.859375
6384		1.953125
6385		3.906250
6386		0.000000
6387		3.906250
6388		0.000000
6389		1.953125
6390		-1.953125
6391		1.953125
6392		-3.906250
6393		0.000000
6394		-3.906250
6395		-1.953125
6396		-5.859375
6397		-1.953125
6398		-5.859375
6399		-3.906250
6400		-7.812500
6401		-3.906250
6402		-7.812500
6403		-3.906250
6404		-9.765625
6405		-5.859375
6406		-9.765625
6407		-7.812500
6408		-11.718750
6409		-7.812500
6410		-11.718750
6411		-7.812500
6412		-11.718750
6413		-9.765625
6414		-11.718750
6415		-9.765625
6416		-13.671875
6417		-9.765625
6418		-13.671875
6419		-11.718750
6420		-13.671875
6421		-11.718750
6422		-15.625000
6423		-11.718750
6424		-15.625000
6425		-11.718750
6426		-15.625000
6427		-13.671875
6428		-15.625000
6429		-13.671875
6430		-15.625000
6431		-13.671875
6432		-17.578125
6433		-13.671875
6434		-15.625000
6435		-13.671875
6436		-15.625000
6437		-13.671875
6438		-17.578125
6439		-13.671875
6440		-15.625000
6441		-11.718750
6442		-15.625000
6443		-13.671875
6444		-15.625000
6445		-13.671875
6446		-13.671875
6447		-11.718750
6448		-13.671875
6449		-11.718750
6450		-15.625000
6451		-11.718750
6452		-13.671875
6453		-9.765625
6454		-11.718750
6455		-9.765625
6456		-11.718750
6457		-9.765625
6458		-11.718750
6459		-7.812500
6460		-11.718750
6461		-7.812500
6462		-9.765625
6463		-7.812500
6464		-9.765625
6465		-5.859375
6466		-9.765625
6467		-3.906250
6468		-7.812500
6469		-3.906250
6470		-5.859375
6471		-3.906250
6472		-5.859375
6473		-1.953125
6474		-5.859375
6475		0.000000
6476		-3.906250
6477		0.000000
6478		-1.953125
6479		0.000000
6480		-1.953125
6481		1.953125
6482		-1.953125
6483		3.906250
6484		0.000000
6485		3.906250
6486		1.953125
6487		5.859375
6488		3.906250
6489		5.859375
6490		3.906250
6491		7.812500
6492		5.859375
6493		9.765625
6494		7.812500
6495		9.765625
6496		7.812500
6497		11.718750
6498		9.765625
6499		11.718750
6500		9.765625
6501		13.671875
6502		11.718750
6503		15.625000
6504		13.671875
6505		17.578125
6506		13.671875
6507		17.578125
6508		15.625000
6509		19.531250
6510		17.578125
6511		19.531250
6512		17.578125
6513		21.484375
6514		19.531250
6515		21.484375
6516		19.531250
6517		25.390625
6518		19.531250
6519		25.390625
6520		23.437500
6521		25.390625
6522		23.437500
6523		27.343750
6524		23.437500
6525		27.343750
6526		25.390625
6527		27.343750
6528		25.390625
6529		29.296875
6530		27.343750
6531		29.296875
6532		27.343750
6533		31.250000
6534		27.343750
6535		31.250000
6536		27.343750
6537		33.203125
6538		29.296875
6539		33.203125
6540		29.296875
6541		33.203125
6542		29.296875
6543		35.156250
6544		31.250000
6545		33.203125
6546		31.250000
6547		35.156250
6548		33.203125
6549		35.156250
6550		31.250000
6551		37.109375
6552		33.203125
6553		35.156250
6554		33.203125
6555		35.156250
6556		33.203125
6557		37.109375
6558		33.203125
6559		37.109375
6560		33.203125
6561		35.156250
6562		33.203125
6563		35.156250
6564		33.203125
6565		35.156250
6566		31.250000
6567		37.109375
6568		33.203125
6569		37.109375
6570		31.250000
6571		35.156250
6572		33.203125
6573		35.156250
6574		31.250000
6575		35.156250
6576		31.250000
6577		35.156250
6578		31.250000
6579		33.203125
6580		31.250000
6581		33.203125
6582		29.296875
6583		33.203125
6584		29.296875
6585		33.203125
6586		27.343750
6587		31.250000
6588		27.343750
6589		31.250000
6590		27.343750
6591		31.250000
6592		25.390625
6593		29.296875
6594		25.390625
6595		27.343750
6596		25.390625
6597		27.343750
6598		23.437500
6599		27.343750
6600		23.437500
6601		25.390625
6602		21.484375
6603		25.390625
6604		21.484375
6605		23.437500
6606		19.531250
6607		21.484375
6608		17.578125
6609		21.484375
6610		17.578125
6611		19.531250
6612		15.625000
6613		19.531250
6614		15.625000
6615		17.578125
6616		13.671875
6617		15.625000
6618		11.718750
6619		15.625000
6620		11.718750
6621		13.671875
6622		9.765625
6623		13.671875
6624		7.812500
6625		11.718750
6626		7.812500
6627		9.765625
6628		5.859375
6629		9.765625
6630		5.859375
6631		7.812500
6632		3.906250
6633		7.812500
6634		1.953125
6635		5.859375
6636		1.953125
6637		3.906250
6638		0.000000
6639		3.906250
6640		0.000000
6641		1.953125
6642		-1.953125
6643		1.953125
6644		-1.953125
6645		0.000000
6646		-3.906250
6647		-1.953125
6648		-5.859375
6649		-1.953125
6650		-5.859375
6651		-3.906250
6652		-7.812500
6653		-3.906250
6654		-7.812500
6655		-5.859375
6656		-7.812500
6657		-5.859375
6658		-9.765625
6659		-7.812500
6660		-9.765625
6661		-7.812500
6662		-11.718750
6663		-7.812500
6664		-11.718750
6665		-9.765625
6666		-11.718750
6667		-9.765625
6668		-13.671875
6669		-9.765625
6670		-13.671875
6671		-11.718750
6672		-13.671875
6673		-11.718750
6674		-13.671875
6675		-11.718750
6676		-15.625000
6677		-11.718750
6678		-15.625000
6679		-11.718750
6680		-15.625000
6681		-13.671875
6682		-15.625000
6683		-13.671875
6684		-15.625000
6685		-13.671875
6686		-15.625000
6687		-13.671875
6688		-15.625000
6689		-13.671875
6690		-15.625000
6691		-13.671875
6692		-15.625000
6693		-13.671875
6694		-15.625000
6695		-13.671875
6696		-15.625000
6697		-11.718750
6698		-13.671875
6699		-11.718750
6700		-13.671875
6701		-11.718750
6702		-13.671875
6703		-11.718750
6704		-13.671875
6705		-9.765625
6706		-11.718750
6707		-9.765625
6708		-11.718750
6709		-9.765625
6710		-11.718750
6711		-7.812500
6712		-9.765625
6713		-7.812500
6714		-9.765625
6715		-7.812500
6716		-9.765625
6717		-5.859375
6718		-7.812500
6719		-3.906250
6720		-7.812500
6721		-3.906250
6722		-5.859375
6723		-3.906250
6724		-5.859375
6725		-1.953125
6726		-3.906250
6727		-1.953125
6728		-3.906250
6729		0.000000
6730		-1.953125
6731		0.000000
6732		-1.953125
6733		1.953125
6734		0.000000
6735		3.906250
6736		1.953125
6737		3.906250
6738		1.953125
6739		5.859375
6740		3.906250
6741		5.859375
6742		3.906250
6743		7.812500
6744		5.859375
6745		9.765625
6746		7.812500
6747		9.765625
6748		7.812500
6749		11.718750
6750		9.765625
6751		13.671875
6752		9.765625
6753		15.625000
6754		11.718750
6755		15.625000
6756		13.671875
6757		15.625000
6758		15.625000
6759		17.578125
6760		15.625000
6761		19.531250
6762		17.578125
6763		19.531250
6764		17.578125
6765		21.484375
6766		19.531250
6767		21.484375
6768		19.531250
6769		25.390625
6770		19.531250
6771		27.343750
6772		23.437500
6773		25.390625
6774		23.437500
6775		25.390625
6776		23.437500
6777		27.343750
6778		25.390625
6779		27.343750
6780		27.343750
6781		29.296875
6782		27.343750
6783		29.296875
6784		27.343750
6785		31.250000
6786		27.343750
6787		33.203125
6788		27.343750
6789		33.203125
6790		31.250000
6791		33.203125
6792		31.250000
6793		33.203125
6794		31.250000
6795		33.203125
6796		31.250000
6797		35.156250
6798		31.250000
6799		35.156250
6800		33.203125
6801		35.156250
6802		31.250000
6803		37.109375
6804		31.250000
6805		37.109375
6806		33.203125
6807		35.156250
6808		33.203125
6809		37.109375
6810		33.203125
6811		35.156250
6812		33.203125
6813		37.109375
6814		33.203125
6815		37.109375
6816		33.203125
6817		37.109375
6818		33.203125
6819		37.109375
6820		31.250000
6821		37.109375
6822		31.250000
6823		37.109375
6824		33.203125
6825		35.156250
6826		33.203125
6827		35.156250
6828		31.250000
6829		35.156250
6830		31.250000
6831		35.156250
6832		31.250000
6833		33.203125
6834		31.250000
6835		33.203125
6836		27.343750
6837		33.203125
6838		27.343750
6839		33.203125
6840		27.343750
6841		31.250000
6842		27.343750
6843		31.250000
6844		27.343750
6845		29.296875
6846		25.390625
6847		29.296875
6848		25.390625
6849		27.343750
6850		23.437500
6851		27.343750
6852		21.484375
6853		27.343750
6854		21.484375
6855		27.343750
6856		19.531250
6857		23.437500
6858		19.531250
6859		23.437500
6860		19.531250
6861		21.484375
6862		17.578125
6863		19.531250
6864		17.578125
6865		19.531250
6866		15.625000
6867		17.578125
6868		13.671875
6869		17.578125
6870		11.718750
6871		17.578125
6872		9.765625
6873		15.625000
6874		9.765625
6875		13.671875
6876		9.765625
6877		11.718750
6878		7.812500
6879		9.765625
6880		5.859375
6881		9.765625
6882		5.859375
6883		7.812500
6884		3.906250
6885		7.812500
6886		1.953125
6887		7.812500
6888		0.000000
6889		5.859375
6890		0.000000
6891		3.906250
6892		0.000000
6893		1.953125
6894		-1.953125
6895		1.953125
6896		-1.953125
6897		0.000000
6898		-3.906250
6899		-1.953125
6900		-3.906250
6901		-1.953125
6902		-7.812500
6903		-1.953125
6904		-7.812500
6905		-1.953125
6906		-9.765625
6907		-3.906250
6908		-7.812500
6909		-5.859375
6910		-9.765625
6911		-7.812500
6912		-9.765625
6913		-7.812500
6914		-11.718750
6915		-7.812500
6916		-11.718750
6917		-9.765625
6918		-13.671875
6919		-9.765625
6920		-13.671875
6921		-9.765625
6922		-15.625000
6923		-9.765625
6924		-13.671875
6925		-11.718750
6926		-13.671875
6927		-11.718750
6928		-13.671875
6929		-11.718750
6930		-15.625000
6931		-11.718750
6932		-15.625000
6933		-13.671875
6934		-15.625000
6935		-13.671875
6936		-15.625000
6937		-11.718750
6938		-15.625000
6939		-13.671875
6940		-15.625000
6941		-13.671875
6942		-15.625000
6943		-13.671875
6944		-15.625000
6945		-13.671875
6946		-15.625000
6947		-13.671875
6948		-13.671875
6949		-11.718750
6950		-13.671875
6951		-11.718750
6952		-15.625000
6953		-11.718750
6954		-15.625000
6955		-9.765625
6956		-13.671875
6957		-11.718750
6958		-11.718750
6959		-9.765625
6960		-11.718750
6961		-9.765625
6962		-11.718750
6963		-7.812500
6964		-9.765625
6965		-7.812500
6966		-9.765625
6967		-7.812500
6968		-7.812500
6969		-5.859375
6970		-9.765625
6971		-3.906250
6972		-7.812500
6973		-3.906250
6974		-5.859375
6975		-3.906250
6976		-5.859375
6977		-1.953125
6978		-3.906250
6979		-1.953125
6980		-1.953125
6981		0.000000
6982		-1.953125
6983		0.000000
6984		0.000000
6985		1.953125
6986		0.000000
6987		3.906250
6988		1.953125
6989		3.906250
6990		1.953125
6991		5.859375
6992		3.906250
6993		5.859375
6994		5.859375
6995		7.812500
6996		5.859375
6997		9.765625
6998		7.812500
6999		9.765625
7000		9.765625
7001		11.718750
7002		9.765625
7003		13.671875
7004		11.718750
7005		13.671875
7006		11.718750
7007		15.625000
7008		13.671875
7009		15.625000
7010		15.625000
7011		17.578125
7012		15.625000
7013		19.531250
7014		17.578125
7015		19.531250
7016		19.531250
7017		21.484375
7018		19.531250
7019		23.437500
7020		21.484375
7021		23.437500
7022		21.484375
7023		25.390625
7024		23.437500
7025		25.390625
7026		23.437500
7027		27.343750
7028		25.390625
7029		27.343750
7030		25.390625
7031		29.296875
7032		27.343750
7033		29.296875
7034		27.343750
7035		29.296875
7036		27.343750
7037		31.250000
7038		29.296875
7039		31.250000
7040		29.296875
7041		33.203125
7042		31.250000
7043		33.203125
7044		31.250000
7045		33.203125
7046		31.250000
7047		33.203125
7048		31.250000
7049		35.156250
7050		33.203125
7051		35.156250
7052		31.250000
7053		35.156250
7054		33.203125
7055		35.156250
7056		33.203125
7057		35.156250
7058		33.203125
7059		35.156250
7060		33.203125
7061		37.109375
7062		33.203125
7063		37.109375
7064		33.203125
7065		35.156250
7066		33.203125
7067		37.109375
7068		33.203125
7069		35.156250
7070		33.203125
7071		35.156250
7072		33.203125
7073		35.156250
7074		33.203125
7075		37.109375
7076		33.203125
7077		35.156250
7078		33.203125
7079		35.156250
7080		33.203125
7081		35.156250
7082		31.250000
7083		35.156250
7084		29.296875
7085		33.203125
7086		31.250000
7087		33.203125
7088		29.296875
7089		33.203125
7090		29.296875
7091		31.250000
7092		29.296875
7093		31.250000
7094		27.343750
7095		31.250000
7096		27.343750
7097		29.296875
7098		25.390625
7099		29.296875
7100		25.390625
7101		27.343750
7102		23.437500
7103		27.343750
7104		23.437500
7105		25.390625
7106		21.484375
7107		25.390625
7108		21.484375
7109		23.437500
7110		19.531250
7111		23.437500
7112		19.531250
7113		21.484375
7114		17.578125
7115		19.531250
7116		15.625000
7117		19.531250
7118		15.625000
7119		17.578125
7120		13.671875
7121		17.578125
7122		11.718750
7123		15.625000
7124		11.718750
7125		13.671875
7126		9.765625
7127		13.671875
7128		9.765625
7129		11.718750
7130		7.812500
7131		11.718750
7132		5.859375
7133		9.765625
7134		5.859375
7135		7.812500
7136		3.906250
7137		7.812500
7138		3.906250
7139		5.859375
7140		1.953125
7141		3.906250
7142		0.000000
7143		3.906250
7144		0.000000
7145		1.953125
7146		-1.953125
7147		0.000000
7148		-1.953125
7149		0.000000
7150		-3.906250
7151		0.000000
7152		-5.859375
7153		-1.953125
7154		-5.859375
7155		-3.906250
7156		-5.859375
7157		-3.906250
7158		-7.812500
7159		-5.859375
7160		-7.812500
7161		-5.859375
7162		-9.765625
7163		-7.812500
7164		-9.765625
7165		-7.812500
7166		-11.718750
7167		-7.812500
7168		-11.718750
7169		-9.765625
7170		-11.718750
7171		-9.765625
7172		-13.671875
7173		-9.765625
7174		-13.671875
7175		-11.718750
7176		-13.671875
7177		-11.718750
7178		-13.671875
7179		-11.718750
7180		-13.671875
7181		-11.718750
7182		-15.625000
7183		-11.718750
7184		-15.625000
7185		-13.671875
7186		-15.625000
7187		-11.718750
7188		-15.625000
7189		-13.671875
7190		-15.625000
7191		-13.671875
7192		-15.625000
7193		-13.671875
7194		-15.625000
7195		-13.671875
7196		-15.625000
7197		-13.671875
7198		-15.625000
7199		-11.718750
7200		-13.671875
7201		-11.718750
7202		-13.671875
7203		-11.718750
7204		-13.671875
7205		-11.718750
7206		-13.671875
7207		-9.765625
7208		-13.671875
7209		-9.765625
7210		-11.718750
7211		-9.765625
7212		-11.718750
7213		-9.765625
7214		-11.718750
7215		-7.812500
7216		-9.765625
7217		-7.812500
7218		-9.765625
7219		-7.812500
7220		-7.812500
7221		-5.859375
7222		-7.812500
7223		-5.859375
7224		-5.859375
7225		-3.906250
7226		-5.859375
7227		-1.953125
7228		-5.859375
7229		-1.953125
7230		-3.906250
7231		-1.953125
7232		-3.906250
7233		0.000000
7234		-1.953125
7235		1.953125
7236		0.000000
7237		1.953125
7238		0.000000
7239		3.906250
7240		1.953125
7241		3.906250
7242		3.906250
7243		7.812500
7244		3.906250
7245		7.812500
7246		5.859375
7247		7.812500
7248		5.859375
7249		9.765625
7250		7.812500
7251		9.765625
7252		9.765625
7253		11.718750
7254		9.765625
7255		13.671875
7256		11.718750
7257		13.671875
7258		13.671875
7259		15.625000
7260		13.671875
7261		17.578125
7262		15.625000
7263		17.578125
7264		17.578125
7265		19.531250
7266		15.625000
7267		19.531250
7268		17.578125
7269		21.484375
7270		19.531250
7271		23.437500
7272		21.484375
7273		23.437500
7274		21.484375
7275		25.390625
7276		23.437500
7277		25.390625
7278		23.437500
7279		27.343750
7280		25.390625
7281		27.343750
7282		25.390625
7283		29.296875
7284		27.343750
7285		29.296875
7286		27.343750
7287		29.296875
7288		27.343750
7289		31.250000
7290		29.296875
7291		31.250000
7292		29.296875
7293		33.203125
7294		31.250000
7295		33.203125
7296		31.250000
7297		33.203125
7298		31.250000
7299		33.203125
7300		31.250000
7301		35.156250
7302		33.203125
7303		35.156250
7304		33.203125
7305		35.156250
7306		33.203125
7307		35.156250
7308		33.203125
7309		35.156250
7310		33.203125
7311		37.109375
7312		33.203125
7313		37.109375
7314		33.203125
7315		37.109375
7316		33.203125
7317		37.109375
7318		35.156250
7319		37.109375
7320		35.156250
7321		37.109375
7322		33.203125
7323		37.109375
7324		33.203125
7325		35.156250
7326		33.203125
7327		35.156250
7328		33.203125
7329		35.156250
7330		33.203125
7331		35.156250
7332		33.203125
7333		35.156250
7334		31.250000
7335		35.156250
7336		31.250000
7337		33.203125
7338		31.250000
7339		33.203125
7340		29.296875
7341		33.203125
7342		29.296875
7343		31.250000
7344		29.296875
7345		31.250000
7346		27.343750
7347		31.250000
7348		27.343750
7349		29.296875
7350		25.390625
7351		29.296875
7352		25.390625
7353		27.343750
7354		23.437500
7355		27.343750
7356		23.437500
7357		25.390625
7358		21.484375
7359		25.390625
7360		21.484375
7361		23.437500
7362		19.531250
7363		23.437500
7364		19.531250
7365		21.484375
7366		17.578125
7367		21.484375
7368		15.625000
7369		19.531250
7370		15.625000
7371		17.578125
7372		13.671875
7373		17.578125
7374		13.671875
7375		15.625000
7376		11.718750
7377		15.625000
7378		9.765625
7379		13.671875
7380		7.812500
7381		11.718750
7382		7.812500
7383		11.718750
7384		7.812500
7385		9.765625
7386		5.859375
7387		7.812500
7388		3.906250
7389		7.812500
7390		1.953125
7391		5.859375
7392		1.953125
7393		5.859375
7394		0.000000
7395		3.906250
7396		0.000000
7397		1.953125
7398		-1.953125
7399		1.953125
7400		-1.953125
7401		0.000000
7402		-3.906250
7403		0.000000
7404		-3.906250
7405		-1.953125
7406		-5.859375
7407		-1.953125
7408		-5.859375
7409		-3.906250
7410		-7.812500
7411		-5.859375
7412		-7.812500
7413		-5.859375
7414		-9.765625
7415		-5.859375
7416		-9.765625
7417		-5.859375
7418		-9.765625
7419		-7.812500
7420		-11.718750
7421		-9.765625
7422		-11.718750
7423		-9.765625
7424		-11.718750
7425		-9.765625
7426		-13.671875
7427		-9.765625
7428		-13.671875
7429		-11.718750
7430		-13.671875
7431		-11.718750
7432		-13.671875
7433		-11.718750
7434		-13.671875
7435		-11.718750
7436		-13.671875
7437		-13.671875
7438		-15.625000
7439		-11.718750
7440		-15.625000
7441		-13.671875
7442		-15.625000
7443		-13.671875
7444		-15.625000
7445		-13.671875
7446		-15.625000
7447		-11.718750
7448		-13.671875
7449		-11.718750
7450		-15.625000
7451		-11.718750
7452		-13.671875
7453		-11.718750
7454		-13.671875
7455		-11.718750
7456		-13.671875
7457		-11.718750
7458		-13.671875
7459		-9.765625
7460		-13.671875
7461		-9.765625
7462		-11.718750
7463		-9.765625
7464		-11.718750
7465		-7.812500
7466		-9.765625
7467		-7.812500
7468		-9.765625
7469		-7.812500
7470		-9.765625
7471		-5.859375
7472		-7.812500
7473		-5.859375
7474		-7.812500
7475		-3.906250
7476		-5.859375
7477		-3.906250
7478		-5.859375
7479		-1.953125
7480		-3.906250
7481		-1.953125
7482		-3.906250
7483		0.000000
7484		-1.953125
7485		0.000000
7486		-1.953125
7487		1.953125
7488		0.000000
7489		3.906250
7490		0.000000
7491		3.906250
7492		1.953125
7493		5.859375
7494		3.906250
7495		5.859375
7496		3.906250
7497		7.812500
7498		5.859375
7499		7.812500
7500		5.859375
7501		9.765625
7502		7.812500
7503		11.718750
7504		9.765625
7505		11.718750
7506		9.765625
7507		13.671875
7508		11.718750
7509		15.625000
7510		13.671875
7511		15.625000
7512		13.671875
7513		17.578125
7514		15.625000
7515		17.578125
7516		17.578125
7517		19.531250
7518		17.578125
7519		21.484375
7520		19.531250
7521		21.484375
7522		19.531250
7523		23.437500
7524		21.484375
7525		23.437500
7526		21.484375
7527		25.390625
7528		23.437500
7529		25.390625
7530		23.437500
7531		27.343750
7532		23.437500
7533		27.343750
7534		25.390625
7535		29.296875
7536		27.343750
7537		29.296875
7538		27.343750
7539		31.250000
7540		29.296875
7541		31.250000
7542		29.296875
7543		31.250000
7544		29.296875
7545		33.203125
7546		31.250000
7547		33.203125
7548		31.250000
7549		35.156250
7550		31.250000
7551		35.156250
7552		33.203125
7553		35.156250
7554		33.203125
7555		35.156250
7556		33.203125
7557		35.156250
7558		33.203125
7559		35.156250
7560		33.203125
7561		35.156250
7562		35.156250
7563		37.109375
7564		33.203125
7565		37.109375
7566		33.203125
7567		37.109375
7568		35.156250
7569		37.109375
7570		35.156250
7571		37.109375
7572		33.203125
7573		37.109375
7574		33.203125
7575		37.109375
7576		33.203125
7577		37.109375
7578		31.250000
7579		37.109375
7580		33.203125
7581		35.156250
7582		33.203125
7583		35.156250
7584		33.203125
7585		35.156250
7586		31.250000
7587		35.156250
7588		31.250000
7589		33.203125
7590		31.250000
7591		33.203125
7592		29.296875
7593		33.203125
7594		29.296875
7595		31.250000
7596		27.343750
7597		31.250000
7598		27.343750
7599		31.250000
7600		27.343750
7601		29.296875
7602		25.390625
7603		29.296875
7604		25.390625
7605		27.343750
7606		23.437500
7607		27.343750
7608		23.437500
7609		25.390625
7610		21.484375
7611		25.390625
7612		21.484375
7613		23.437500
7614		19.531250
7615		23.437500
7616		19.531250
7617		21.484375
7618		17.578125
7619		21.484375
7620		15.625000
7621		19.531250
7622		15.625000
7623		17.578125
7624		13.671875
7625		17.578125
7626		13.671875
7627		15.625000
7628		11.718750
7629		15.625000
7630		9.765625
7631		13.671875
7632		9.765625
7633		11.718750
7634		7.812500
7635		11.718750
7636		7.812500
7637		9.765625
7638		5.859375
7639		7.812500
7640		3.906250
7641		7.812500
7642		3.906250
7643		5.859375
7644		1.953125
7645		3.906250
7646		0.000000
7647		3.906250
7648		0.000000
7649		1.953125
7650		-1.953125
7651		1.953125
7652		-1.953125
7653		0.000000
7654		-3.906250
7655		0.000000
7656		-3.906250
7657		-1.953125
7658		-5.859375
7659		-1.953125
7660		-5.859375
7661		-3.906250
7662		-7.812500
7663		-3.906250
7664		-7.812500
7665		-5.859375
7666		-9.765625
7667		-5.859375
7668		-9.765625
7669		-7.812500
7670		-9.765625
7671		-7.812500
7672		-11.718750
7673		-9.765625
7674		-13.671875
7675		-9.765625
7676		-11.718750
7677		-9.765625
7678		-13.671875
7679		-9.765625
7680		-13.671875
7681		-11.718750
7682		-13.671875
7683		-11.718750
7684		-13.671875
7685		-11.718750
7686		-15.625000
7687		-11.718750
7688		-13.671875
7689		-11.718750
7690		-15.625000
7691		-11.718750
7692		-15.625000
7693		-11.718750
7694		-15.625000
7695		-11.718750
7696		-15.625000
7697		-11.718750
7698		-15.625000
7699		-11.718750
7700		-13.671875
7701		-11.718750
7702		-13.671875
7703		-11.718750
7704		-13.671875
7705		-11.718750
7706		-13.671875
7707		-11.718750
7708		-13.671875
7709		-9.765625
7710		-13.671875
7711		-9.765625
7712		-11.718750
7713		-9.765625
7714		-11.718750
7715		-9.765625
7716		-11.718750
7717		-7.812500
7718		-9.765625
7719		-7.812500
7720		-9.765625
7721		-7.812500
7722		-9.765625
7723		-5.859375
7724		-7.812500
7725		-5.859375
7726		-7.812500
7727		-3.906250
7728		-5.859375
7729		-3.906250
7730		-5.859375
7731		-1.953125
7732		-3.906250
7733		-1.953125
7734		-3.906250
7735		0.000000
7736		-1.953125
7737		0.000000
7738		-1.953125
7739		1.953125
7740		0.000000
7741		1.953125
7742		0.000000
7743		3.906250
7744		1.953125
7745		5.859375
7746		1.953125
7747		5.859375
7748		3.906250
7749		7.812500
7750		5.859375
7751		7.812500
7752		7.812500
7753		9.765625
7754		7.812500
7755		11.718750
7756		9.765625
7757		11.718750
7758		9.765625
7759		13.671875
7760		11.718750
7761		15.625000
7762		13.671875
7763		15.625000
7764		13.671875
7765		17.578125
7766		15.625000
7767		19.531250
7768		17.578125
7769		19.531250
7770		17.578125
7771		21.484375
7772		19.531250
7773		21.484375
7774		19.531250
7775		23.437500
7776		21.484375
7777		23.437500
7778		21.484375
7779		25.390625
7780		21.484375
7781		27.343750
7782		21.484375
7783		27.343750
7784		25.390625
7785		27.343750
7786		23.437500
7787		31.250000
7788		27.343750
7789		29.296875
7790		27.343750
7791		31.250000
7792		29.296875
7793		31.250000
7794		29.296875
7795		31.250000
7796		31.250000
7797		33.203125
7798		29.296875
7799		35.156250
7800		31.250000
7801		33.203125
7802		29.296875
7803		35.156250
7804		31.250000
7805		35.156250
7806		31.250000
7807		39.062500
7808		33.203125
7809		35.156250
7810		33.203125
7811		35.156250
7812		33.203125
7813		37.109375
7814		33.203125
7815		39.062500
7816		33.203125
7817		37.109375
7818		35.156250
7819		37.109375
7820		33.203125
7821		39.062500
7822		31.250000
7823		39.062500
7824		35.156250
7825		37.109375
7826		33.203125
7827		37.109375
7828		33.203125
7829		37.109375
7830		33.203125
7831		39.062500
7832		33.203125
7833		37.109375
7834		33.203125
7835		37.109375
7836		31.250000
7837		37.109375
7838		33.203125
7839		35.156250
7840		31.250000
7841		37.109375
7842		31.250000
7843		33.203125
7844		29.296875
7845		33.203125
7846		27.343750
7847		35.156250
7848		27.343750
7849		33.203125
7850		27.343750
7851		31.250000
7852		25.390625
7853		31.250000
7854		27.343750
7855		29.296875
7856		23.437500
7857		29.296875
7858		25.390625
7859		27.343750
7860		23.437500
7861		25.390625
7862		21.484375
7863		25.390625
7864		21.484375
7865		27.343750
7866		19.531250
7867		25.390625
7868		19.531250
7869		23.437500
7870		15.625000
7871		23.437500
7872		17.578125
7873		19.531250
7874		13.671875
7875		23.437500
7876		13.671875
7877		17.578125
7878		11.718750
7879		15.625000
7880		11.718750
7881		15.625000
7882		9.765625
7883		15.625000
7884		7.812500
7885		11.718750
7886		5.859375
7887		13.671875
7888		5.859375
7889		13.671875
7890		3.906250
7891		11.718750
7892		5.859375
7893		7.812500
7894		3.906250
7895		5.859375
7896		1.953125
7897		7.812500
7898		-1.953125
7899		7.812500
7900		0.000000
7901		3.906250
7902		-1.953125
7903		1.953125
7904		-3.906250
7905		3.906250
7906		-5.859375
7907		1.953125
7908		-3.906250
7909		-1.953125
7910		-5.859375
7911		-1.953125
7912		-7.812500
7913		-1.953125
7914		-11.718750
7915		0.000000
7916		-9.765625
7917		-3.906250
7918		-7.812500
7919		-5.859375
7920		-13.671875
7921		-3.906250
7922		-13.671875
7923		-3.906250
7924		-15.625000
7925		-3.906250
7926		-11.718750
7927		-9.765625
7928		-11.718750
7929		-9.765625
7930		-15.625000
7931		-7.812500
7932		-15.625000
7933		-7.812500
7934		-13.671875
7935		-11.718750
7936		-15.625000
7937		-9.765625
7938		-17.578125
7939		-7.812500
7940		-17.578125
7941		-9.765625
7942		-13.671875
7943		-11.718750
7944		-13.671875
7945		-11.718750
7946		-15.625000
7947		-11.718750
7948		-17.578125
7949		-7.812500
7950		-15.625000
7951		-9.765625
7952		-13.671875
7953		-11.718750
7954		-17.578125
7955		-7.812500
7956		-13.671875
7957		-11.718750
7958		-17.578125
7959		-7.812500
7960		-13.671875
7961		-9.765625
7962		-13.671875
7963		-9.765625
7964		-15.625000
7965		-5.859375
7966		-11.718750
7967		-7.812500
7968		-9.765625
7969		-7.812500
7970		-11.718750
7971		-3.906250
7972		-11.718750
7973		-3.906250
7974		-9.765625
7975		-3.906250
7976		-7.812500
7977		-3.906250
7978		-5.859375
7979		-3.906250
7980		-7.812500
7981		-1.953125
7982		-7.812500
7983		0.000000
7984		-3.906250
7985		-1.953125
7986		-3.906250
7987		1.953125
7988		-3.906250
7989		5.859375
7990		-3.906250
7991		3.906250
7992		0.000000
7993		3.906250
7994		1.953125
7995		3.906250
7996		1.953125
7997		5.859375
7998		1.953125
7999		9.765625
8000		1.953125
8001		9.765625
8002		5.859375
8003		9.765625
8004		3.906250
8005		13.671875
8006		5.859375
8007		13.671875
8008		7.812500
8009		15.625000
8010		11.718750
8011		13.671875
8012		11.718750
8013		15.625000
8014		11.718750
8015		19.531250
8016		11.718750
8017		19.531250
8018		13.671875
8019		19.531250
8020		17.578125
8021		21.484375
8022		15.625000
8023		25.390625
8024		17.578125
8025		25.390625
8026		21.484375
8027		23.437500
8028		21.484375
8029		25.390625
8030		21.484375
8031		27.343750
8032		21.484375
8033		29.296875
8034		23.437500
8035		29.296875
8036		25.390625
8037		29.296875
8038		23.437500
8039		33.203125
8040		27.343750
8041		31.250000
8042		27.343750
8043		33.203125
8044		29.296875
8045		31.250000
8046		29.296875
8047		33.203125
8048		27.343750
8049		37.109375
8050		29.296875
8051		35.156250
8052		31.250000
8053		35.156250
8054		31.250000
8055		37.109375
8056		33.203125
8057		35.156250
8058		31.250000
8059		39.062500
8060		33.203125
8061		35.156250
8062		33.203125
8063		37.109375
8064		35.156250
8065		37.109375
8066		31.250000
8067		39.062500
8068		33.203125
8069		37.109375
8070		35.156250
8071		39.062500
8072		33.203125
8073		39.062500
8074		35.156250
8075		37.109375
8076		35.156250
8077		37.109375
8078		35.156250
8079		37.109375
8080		35.156250
8081		37.109375
8082		33.203125
8083		37.109375
8084		33.203125
8085		39.062500
8086		33.203125
8087		35.156250
8088		31.250000
8089		37.109375
8090		33.203125
8091		35.156250
8092		31.250000
8093		35.156250
8094		31.250000
8095		33.203125
8096		29.296875
8097		33.203125
8098		29.296875
8099		33.203125
8100		29.296875
8101		31.250000
8102		29.296875
8103		31.250000
8104		27.343750
8105		29.296875
8106		27.343750
8107		29.296875
8108		25.390625
8109		29.296875
8110		25.390625
8111		27.343750
8112		23.437500
8113		25.390625
8114		23.437500
8115		25.390625
8116		21.484375
8117		25.390625
8118		19.531250
8119		23.437500
8120		19.531250
8121		23.437500
8122		17.578125
8123		21.484375
8124		17.578125
8125		19.531250
8126		15.625000
8127		19.531250
8128		15.625000
8129		17.578125
8130		11.718750
8131		17.578125
8132		11.718750
8133		17.578125
8134		9.765625
8135		15.625000
8136		7.812500
8137		13.671875
8138		7.812500
8139		11.718750
8140		5.859375
8141		11.718750
8142		5.859375
8143		9.765625
8144		5.859375
8145		7.812500
8146		3.906250
8147		5.859375
8148		1.953125
8149		7.812500
8150		0.000000
8151		5.859375
8152		0.000000
8153		3.906250
8154		-1.953125
8155		3.906250
8156		-3.906250
8157		1.953125
8158		-3.906250
8159		1.953125
8160		-3.906250
8161		0.000000
8162		-5.859375
8163		-1.953125
8164		-5.859375
8165		-1.953125
8166		-7.812500
8167		-1.953125
8168		-7.812500
8169		-3.906250
8170		-9.765625
8171		-3.906250
8172		-9.765625
8173		-3.906250
8174		-11.718750
8175		-5.859375
8176		-11.718750
8177		-5.859375
8178		-11.718750
8179		-9.765625
8180		-13.671875
8181		-9.765625
8182		-13.671875
8183		-9.765625
8184		-13.671875
8185		-9.765625
8186		-15.625000
8187		-9.765625
8188		-15.625000
8189		-9.765625
8190		-15.625000
8191		-9.765625
8192		-15.625000
8193		-9.765625
8194		-15.625000
8195		-11.718750
8196		-13.671875
8197		-11.718750
8198		-15.625000
8199		-9.765625
8200		-13.671875
8201		-11.718750
8202		-15.625000
8203		-9.765625
8204		-15.625000
8205		-9.765625
8206		-13.671875
8207		-9.765625
8208		-13.671875
8209		-9.765625
8210		-13.671875
8211		-9.765625
8212		-11.718750
8213		-9.765625
8214		-13.671875
8215		-7.812500
8216		-11.718750
8217		-7.812500
8218		-11.718750
8219		-7.812500
8220		-11.718750
8221		-5.859375
8222		-11.718750
8223		-5.859375
8224		-9.765625
8225		-5.859375
8226		-9.765625
8227		-3.906250
8228		-7.812500
8229		-3.906250
8230		-7.812500
8231		-3.906250
8232		-7.812500
8233		-1.953125
8234		-5.859375
8235		0.000000
8236		-3.906250
8237		0.000000
8238		-5.859375
8239		1.953125
8240		-1.953125
8241		1.953125
8242		-1.953125
8243		3.906250
8244		0.000000
8245		3.906250
8246		1.953125
8247		3.906250
8248		1.953125
8249		5.859375
8250		3.906250
8251		7.812500
8252		5.859375
8253		7.812500
8254		3.906250
8255		11.718750
8256		7.812500
8257		9.765625
8258		7.812500
8259		11.718750
8260		9.765625
8261		13.671875
8262		11.718750
8263		13.671875
8264		11.718750
8265		15.625000
8266		13.671875
8267		17.578125
8268		15.625000
8269		19.531250
8270		13.671875
8271		21.484375
8272		17.578125
8273		21.484375
8274		17.578125
8275		21.484375
8276		19.531250
8277		23.437500
8278		19.531250
8279		23.437500
8280		21.484375
8281		25.390625
8282		23.437500
8283		27.343750
8284		23.437500
8285		27.343750
8286		25.390625
8287		27.343750
8288		23.437500
8289		29.296875
8290		27.343750
8291		31.250000
8292		27.343750
8293		31.250000
8294		27.343750
8295		31.250000
8296		29.296875
8297		31.250000
8298		29.296875
8299		33.203125
8300		29.296875
8301		33.203125
8302		31.250000
8303		35.156250
8304		29.296875
8305		37.109375
8306		33.203125
8307		35.156250
8308		33.203125
8309		35.156250
8310		33.203125
8311		37.109375
8312		33.203125
8313		37.109375
8314		35.156250
8315		37.109375
8316		33.203125
8317		37.109375
8318		35.156250
8319		37.109375
8320		35.156250
8321		37.109375
8322		33.203125
8323		39.062500
8324		35.156250
8325		37.109375
8326		35.156250
8327		37.109375
8328		35.156250
8329		37.109375
8330		35.156250
8331		37.109375
8332		33.203125
8333		37.109375
8334		33.203125
8335		37.109375
8336		33.203125
8337		37.109375
8338		31.250000
8339		37.109375
8340		33.203125
8341		35.156250
8342		31.250000
8343		35.156250
8344		31.250000
8345		35.156250
8346		31.250000
8347		35.156250
8348		29.296875
8349		33.203125
8350		29.296875
8351		33.203125
8352		29.296875
8353		31.250000
8354		27.343750
8355		31.250000
8356		27.343750
8357		31.250000
8358		25.390625
8359		29.296875
8360		23.437500
8361		29.296875
8362		25.390625
8363		27.343750
8364		23.437500
8365		27.343750
8366		21.484375
8367		25.390625
8368		21.484375
8369		25.390625
8370		19.531250
8371		23.437500
8372		19.531250
8373		23.437500
8374		17.578125
8375		21.484375
8376		17.578125
8377		19.531250
8378		15.625000
8379		19.531250
8380		13.671875
8381		17.578125
8382		11.718750
8383		17.578125
8384		11.718750
8385		15.625000
8386		11.718750
8387		13.671875
8388		9.765625
8389		13.671875
8390		7.812500
8391		11.718750
8392		5.859375
8393		11.718750
8394		5.859375
8395		9.765625
8396		5.859375
8397		7.812500
8398		3.906250
8399		5.859375
8400		1.953125
8401		5.859375
8402		1.953125
8403		3.906250
8404		0.000000
8405		3.906250
8406		0.000000
8407		1.953125
8408		-1.953125
8409		1.953125
8410		-3.906250
8411		0.000000
8412		-3.906250
8413		0.000000
8414		-3.906250
8415		-1.953125
8416		-5.859375
8417		-1.953125
8418		-5.859375
8419		-3.906250
8420		-7.812500
8421		-3.906250
8422		-9.765625
8423		-5.859375
8424		-9.765625
8425		-5.859375
8426		-9.765625
8427		-7.812500
8428		-11.718750
8429		-7.812500
8430		-11.718750
8431		-7.812500
8432		-11.718750
8433		-9.765625
8434		-13.671875
8435		-9.765625
8436		-13.671875
8437		-9.765625
8438		-13.671875
8439		-9.765625
8440		-13.671875
8441		-9.765625
8442		-13.671875
8443		-11.718750
8444		-15.625000
8445		-11.718750
8446		-15.625000
8447		-9.765625
8448		-13.671875
8449		-11.718750
8450		-13.671875
8451		-11.718750
8452		-13.671875
8453		-11.718750
8454		-13.671875
8455		-11.718750
8456		-13.671875
8457		-9.765625
8458		-13.671875
8459		-9.765625
8460		-13.671875
8461		-9.765625
8462		-13.671875
8463		-9.765625
8464		-11.718750
8465		-9.765625
8466		-13.671875
8467		-7.812500
8468		-11.718750
8469		-7.812500
8470		-11.718750
8471		-7.812500
8472		-11.718750
8473		-7.812500
8474		-9.765625
8475		-5.859375
8476		-9.765625
8477		-5.859375
8478		-7.812500
8479		-3.906250
8480		-7.812500
8481		-3.906250
8482		-5.859375
8483		-3.906250
8484		-5.859375
8485		-1.953125
8486		-5.859375
8487		-1.953125
8488		-3.906250
8489		0.000000
8490		-1.953125
8491		1.953125
8492		-1.953125
8493		1.953125
8494		-1.953125
8495		3.906250
8496		0.000000
8497		3.906250
8498		1.953125
8499		3.906250
8500		3.906250
8501		5.859375
8502		3.906250
8503		7.812500
8504		5.859375
8505		9.765625
8506		5.859375
8507		9.765625
8508		7.812500
8509		11.718750
8510		7.812500
8511		11.718750
8512		9.765625
8513		15.625000
8514		11.718750
8515		13.671875
8516		13.671875
8517		15.625000
8518		13.671875
8519		17.578125
8520		15.625000
8521		19.531250
8522		15.625000
8523		19.531250
8524		17.578125
8525		21.484375
8526		17.578125
8527		21.484375
8528		19.531250
8529		23.437500
8530		21.484375
8531		23.437500
8532		21.484375
8533		25.390625
8534		21.484375
8535		25.390625
8536		23.437500
8537		27.343750
8538		25.390625
8539		27.343750
8540		25.390625
8541		29.296875
8542		27.343750
8543		29.296875
8544		27.343750
8545		31.250000
8546		27.343750
8547		31.250000
8548		29.296875
8549		31.250000
8550		29.296875
8551		33.203125
8552		29.296875
8553		33.203125
8554		31.250000
8555		35.156250
8556		31.250000
8557		35.156250
8558		33.203125
8559		35.156250
8560		31.250000
8561		37.109375
8562		33.203125
8563		37.109375
8564		33.203125
8565		37.109375
8566		35.156250
8567		37.109375
8568		33.203125
8569		37.109375
8570		33.203125
8571		37.109375
8572		35.156250
8573		37.109375
8574		35.156250
8575		37.109375
8576		35.156250
8577		37.109375
8578		35.156250
8579		37.109375
8580		33.203125
8581		37.109375
8582		35.156250
8583		37.109375
8584		33.203125
8585		37.109375
8586		33.203125
8587		37.109375
8588		33.203125
8589		37.109375
8590		33.203125
8591		37.109375
8592		33.203125
8593		35.156250
8594		31.250000
8595		35.156250
8596		31.250000
8597		35.156250
8598		31.250000
8599		33.203125
8600		29.296875
8601		33.203125
8602		29.296875
8603		33.203125
8604		29.296875
8605		33.203125
8606		27.343750
8607		31.250000
8608		27.343750
8609		29.296875
8610		25.390625
8611		29.296875
8612		25.390625
8613		29.296875
8614		23.437500
8615		27.343750
8616		23.437500
8617		27.343750
8618		21.484375
8619		25.390625
8620		21.484375
8621		25.390625
8622		19.531250
8623		23.437500
8624		19.531250
8625		23.437500
8626		17.578125
8627		21.484375
8628		15.625000
8629		21.484375
8630		15.625000
8631		19.531250
8632		15.625000
8633		17.578125
8634		11.718750
8635		17.578125
8636		11.718750
8637		15.625000
8638		9.765625
8639		13.671875
8640		9.765625
8641		13.671875
8642		7.812500
8643		11.718750
8644		5.859375
8645		11.718750
8646		3.906250
8647		9.765625
8648		3.906250
8649		7.812500
8650		3.906250
8651		7.812500
8652		1.953125
8653		5.859375
8654		1.953125
8655		3.906250
8656		0.000000
8657		3.906250
8658		-1.953125
8659		1.953125
8660		-1.953125
8661		1.953125
8662		-3.906250
8663		0.000000
8664		-3.906250
8665		0.000000
8666		-5.859375
8667		-1.953125
8668		-7.812500
8669		-3.906250
8670		-7.812500
8671		-3.906250
8672		-7.812500
8673		-3.906250
8674		-9.765625
8675		-5.859375
8676		-9.765625
8677		-5.859375
8678		-9.765625
8679		-5.859375
8680		-11.718750
8681		-7.812500
8682		-11.718750
8683		-9.765625
8684		-11.718750
8685		-9.765625
8686		-13.671875
8687		-9.765625
8688		-13.671875
8689		-9.765625
8690		-13.671875
8691		-9.765625
8692		-13.671875
8693		-11.718750
8694		-13.671875
8695		-11.718750
8696		-13.671875
8697		-11.718750
8698		-15.625000
8699		-11.718750
8700		-13.671875
8701		-11.718750
8702		-15.625000
8703		-9.765625
8704		-15.625000
8705		-11.718750
8706		-13.671875
8707		-11.718750
8708		-13.671875
8709		-11.718750
8710		-13.671875
8711		-11.718750
8712		-13.671875
8713		-9.765625
8714		-13.671875
8715		-9.765625
8716		-13.671875
8717		-9.765625
8718		-13.671875
8719		-9.765625
8720		-11.718750
8721		-7.812500
8722		-11.718750
8723		-7.812500
8724		-11.718750
8725		-7.812500
8726		-9.765625
8727		-5.859375
8728		-9.765625
8729		-5.859375
8730		-7.812500
8731		-3.906250
8732		-7.812500
8733		-3.906250
8734		-5.859375
8735		-3.906250
8736		-7.812500
8737		-1.953125
8738		-3.906250
8739		-1.953125
8740		-3.906250
8741		0.000000
8742		-3.906250
8743		0.000000
8744		-1.953125
8745		1.953125
8746		0.000000
8747		1.953125
8748		0.000000
8749		3.906250
8750		1.953125
8751		3.906250
8752		1.953125
8753		7.812500
8754		3.906250
8755		7.812500
8756		3.906250
8757		7.812500
8758		5.859375
8759		9.765625
8760		7.812500
8761		11.718750
8762		9.765625
8763		11.718750
8764		9.765625
8765		13.671875
8766		11.718750
8767		13.671875
8768		13.671875
8769		15.625000
8770		13.671875
8771		17.578125
8772		15.625000
8773		17.578125
8774		15.625000
8775		19.531250
8776		17.578125
8777		19.531250
8778		17.578125
8779		21.484375
8780		19.531250
8781		23.437500
8782		19.531250
8783		25.390625
8784		21.484375
8785		25.390625
8786		23.437500
8787		25.390625
8788		23.437500
8789		27.343750
8790		25.390625
8791		27.343750
8792		25.390625
8793		29.296875
8794		25.390625
8795		29.296875
8796		27.343750
8797		31.250000
8798		29.296875
8799		31.250000
8800		29.296875
8801		31.250000
8802		29.296875
8803		33.203125
8804		29.296875
8805		33.203125
8806		31.250000
8807		35.156250
8808		31.250000
8809		35.156250
8810		33.203125
8811		35.156250
8812		33.203125
8813		35.156250
8814		33.203125
8815		37.109375
8816		33.203125
8817		37.109375
8818		33.203125
8819		37.109375
8820		33.203125
8821		37.109375
8822		33.203125
8823		37.109375
8824		35.156250
8825		37.109375
8826		35.156250
8827		37.109375
8828		35.156250
8829		37.109375
8830		35.156250
8831		37.109375
8832		35.156250
8833		37.109375
8834		35.156250
8835		37.109375
8836		33.203125
8837		37.109375
8838		33.203125
8839		37.109375
8840		33.203125
8841		37.109375
8842		33.203125
8843		37.109375
8844		33.203125
8845		35.156250
8846		31.250000
8847		35.156250
8848		31.250000
8849		35.156250
8850		31.250000
8851		35.156250
8852		31.250000
8853		33.203125
8854		29.296875
8855		33.203125
8856		29.296875
8857		33.203125
8858		27.343750
8859		31.250000
8860		27.343750
8861		29.296875
8862		25.390625
8863		29.296875
8864		25.390625
8865		29.296875
8866		23.437500
8867		29.296875
8868		23.437500
8869		25.390625
8870		21.484375
8871		25.390625
8872		21.484375
8873		25.390625
8874		19.531250
8875		23.437500
8876		19.531250
8877		23.437500
8878		17.578125
8879		21.484375
8880		15.625000
8881		19.531250
8882		15.625000
8883		19.531250
8884		13.671875
8885		17.578125
8886		11.718750
8887		15.625000
8888		11.718750
8889		15.625000
8890		11.718750
8891		13.671875
8892		9.765625
8893		11.718750
8894		7.812500
8895		11.718750
8896		5.859375
8897		11.718750
8898		5.859375
8899		9.765625
8900		5.859375
8901		7.812500
8902		3.906250
8903		5.859375
8904		1.953125
8905		5.859375
8906		0.000000
8907		5.859375
8908		0.000000
8909		3.906250
8910		-1.953125
8911		1.953125
8912		-3.906250
8913		1.953125
8914		-3.906250
8915		0.000000
8916		-5.859375
8917		0.000000
8918		-5.859375
8919		-1.953125
8920		-5.859375
8921		-1.953125
8922		-7.812500
8923		-3.906250
8924		-7.812500
8925		-3.906250
8926		-7.812500
8927		-5.859375
8928		-9.765625
8929		-5.859375
8930		-9.765625
8931		-7.812500
8932		-11.718750
8933		-7.812500
8934		-11.718750
8935		-7.812500
8936		-11.718750
8937		-9.765625
8938		-13.671875
8939		-9.765625
8940		-13.671875
8941		-9.765625
8942		-13.671875
8943		-9.765625
8944		-13.671875
8945		-11.718750
8946		-13.671875
8947		-11.718750
8948		-13.671875
8949		-11.718750
8950		-15.625000
8951		-11.718750
8952		-13.671875
8953		-11.718750
8954		-15.625000
8955		-9.765625
8956		-15.625000
8957		-11.718750
8958		-13.671875
8959		-11.718750
8960		-13.671875
8961		-11.718750
8962		-13.671875
8963		-11.718750
8964		-13.671875
8965		-9.765625
8966		-13.671875
8967		-9.765625
8968		-11.718750
8969		-9.765625
8970		-13.671875
8971		-9.765625
8972		-11.718750
8973		-9.765625
8974		-11.718750
8975		-7.812500
8976		-9.765625
8977		-7.812500
8978		-9.765625
8979		-7.812500
8980		-9.765625
8981		-5.859375
8982		-9.765625
8983		-3.906250
8984		-7.812500
8985		-3.906250
8986		-5.859375
8987		-3.906250
8988		-5.859375
8989		-1.953125
8990		-5.859375
8991		-1.953125
8992		-3.906250
8993		0.000000
8994		-1.953125
8995		0.000000
8996		-1.953125
8997		1.953125
8998		0.000000
8999		3.906250
9000		0.000000
9001		3.906250
9002		1.953125
9003		3.906250
9004		1.953125
9005		5.859375
9006		3.906250
9007		7.812500
9008		3.906250
9009		9.765625
9010		5.859375
9011		9.765625
9012		7.812500
9013		11.718750
9014		9.765625
9015		11.718750
9016		9.765625
9017		13.671875
9018		11.718750
9019		13.671875
9020		13.671875
9021		15.625000
9022		13.671875
9023		17.578125
9024		15.625000
9025		17.578125
9026		15.625000
9027		19.531250
9028		17.578125
9029		21.484375
9030		17.578125
9031		21.484375
9032		19.531250
9033		23.437500
9034		19.531250
9035		23.437500
9036		21.484375
9037		25.390625
9038		23.437500
9039		27.343750
9040		23.437500
9041		27.343750
9042		25.390625
9043		27.343750
9044		25.390625
9045		29.296875
9046		27.343750
9047		29.296875
9048		27.343750
9049		31.250000
9050		27.343750
9051		31.250000
9052		29.296875
9053		31.250000
9054		29.296875
9055		33.203125
9056		31.250000
9057		33.203125
9058		31.250000
9059		35.156250
9060		31.250000
9061		35.156250
9062		31.250000
9063		35.156250
9064		33.203125
9065		37.109375
9066		33.203125
9067		37.109375
9068		33.203125
9069		35.156250
9070		33.203125
9071		37.109375
9072		33.203125
9073		37.109375
9074		33.203125
9075		37.109375
9076		35.156250
9077		37.109375
9078		35.156250
9079		37.109375
9080		33.203125
9081		37.109375
9082		33.203125
9083		37.109375
9084		35.156250
9085		39.062500
9086		35.156250
9087		37.109375
9088		33.203125
9089		37.109375
9090		33.203125
9091		37.109375
9092		33.203125
9093		37.109375
9094		33.203125
9095		37.109375
9096		33.203125
9097		35.156250
9098		31.250000
9099		35.156250
9100		31.250000
9101		35.156250
9102		31.250000
9103		33.203125
9104		31.250000
9105		33.203125
9106		29.296875
9107		33.203125
9108		29.296875
9109		31.250000
9110		27.343750
9111		31.250000
9112		27.343750
9113		29.296875
9114		25.390625
9115		29.296875
9116		25.390625
9117		29.296875
9118		23.437500
9119		27.343750
9120		23.437500
9121		25.390625
9122		21.484375
9123		25.390625
9124		21.484375
9125		25.390625
9126		19.531250
9127		23.437500
9128		19.531250
9129		21.484375
9130		17.578125
9131		21.484375
9132		15.625000
9133		19.531250
9134		15.625000
9135		19.531250
9136		13.671875
9137		17.578125
9138		13.671875
9139		15.625000
9140		11.718750
9141		15.625000
9142		9.765625
9143		13.671875
9144		9.765625
9145		13.671875
9146		7.812500
9147		11.718750
9148		5.859375
9149		9.765625
9150		5.859375
9151		9.765625
9152		3.906250
9153		7.812500
9154		3.906250
9155		5.859375
9156		1.953125
9157		5.859375
9158		0.000000
9159		3.906250
9160		0.000000
9161		3.906250
9162		-1.953125
9163		1.953125
9164		-1.953125
9165		1.953125
9166		-3.906250
9167		0.000000
9168		-3.906250
9169		-1.953125
9170		-5.859375
9171		-1.953125
9172		-7.812500
9173		-3.906250
9174		-7.812500
9175		-3.906250
9176		-7.812500
9177		-3.906250
9178		-7.812500
9179		-5.859375
9180		-9.765625
9181		-5.859375
9182		-9.765625
9183		-7.812500
9184		-11.718750
9185		-7.812500
9186		-11.718750
9187		-9.765625
9188		-11.718750
9189		-9.765625
9190		-13.671875
9191		-9.765625
9192		-13.671875
9193		-9.765625
9194		-13.671875
9195		-9.765625
9196		-13.671875
9197		-9.765625
9198		-13.671875
9199		-11.718750
9200		-15.625000
9201		-11.718750
9202		-15.625000
9203		-11.718750
9204		-13.671875
9205		-11.718750
9206		-15.625000
9207		-9.765625
9208		-15.625000
9209		-11.718750
9210		-15.625000
9211		-11.718750
9212		-13.671875
9213		-11.718750
9214		-13.671875
9215		-11.718750
9216		-13.671875
9217		-9.765625
9218		-13.671875
9219		-9.765625
9220		-11.718750
9221		-9.765625
9222		-11.718750
9223		-9.765625
9224		-13.671875
9225		-9.765625
9226		-11.718750
9227		-7.812500
9228		-9.765625
9229		-7.812500
9230		-9.765625
9231		-5.859375
9232		-9.765625
9233		-5.859375
9234		-7.812500
9235		-5.859375
9236		-7.812500
9237		-3.906250
9238		-5.859375
9239		-3.906250
9240		-5.859375
9241		-1.953125
9242		-3.906250
9243		-1.953125
9244		-3.906250
9245		0.000000
9246		-3.906250
9247		1.953125
9248		-1.953125
9249		1.953125
9250		0.000000
9251		3.906250
9252		0.000000
9253		3.906250
9254		1.953125
9255		3.906250
9256		3.906250
9257		7.812500
9258		3.906250
9259		7.812500
9260		5.859375
9261		9.765625
9262		5.859375
9263		9.765625
9264		7.812500
9265		11.718750
9266		9.765625
9267		11.718750
9268		9.765625
9269		13.671875
9270		11.718750
9271		15.625000
9272		13.671875
9273		15.625000
9274		13.671875
9275		17.578125
9276		13.671875
9277		17.578125
9278		15.625000
9279		19.531250
9280		17.578125
9281		21.484375
9282		17.578125
9283		21.484375
9284		19.531250
9285		23.437500
9286		19.531250
9287		23.437500
9288		21.484375
9289		25.390625
9290		21.484375
9291		25.390625
9292		23.437500
9293		27.343750
9294		23.437500
9295		29.296875
9296		25.390625
9297		29.296875
9298		27.343750
9299		29.296875
9300		27.343750
9301		31.250000
9302		27.343750
9303		31.250000
9304		29.296875
9305		31.250000
9306		29.296875
9307		33.203125
9308		29.296875
9309		33.203125
9310		31.250000
9311		35.156250
9312		31.250000
9313		35.156250
9314		31.250000
9315		35.156250
9316		33.203125
9317		37.109375
9318		33.203125
9319		37.109375
9320		33.203125
9321		37.109375
9322		35.156250
9323		37.109375
9324		33.203125
9325		37.109375
9326		35.156250
9327		37.109375
9328		33.203125
9329		37.109375
9330		35.156250
9331		37.109375
9332		33.203125
9333		37.109375
9334		35.156250
9335		37.109375
9336		33.203125
9337		37.109375
9338		35.156250
9339		37.109375
9340		33.203125
9341		37.109375
9342		33.203125
9343		37.109375
9344		33.203125
9345		37.109375
9346		33.203125
9347		37.109375
9348		31.250000
9349		35.156250
9350		31.250000
9351		35.156250
9352		31.250000
9353		35.156250
9354		31.250000
9355		33.203125
9356		31.250000
9357		33.203125
9358		29.296875
9359		33.203125
9360		29.296875
9361		31.250000
9362		27.343750
9363		31.250000
9364		27.343750
9365		29.296875
9366		25.390625
9367		29.296875
9368		25.390625
9369		29.296875
9370		23.437500
9371		27.343750
9372		23.437500
9373		27.343750
9374		21.484375
9375		25.390625
9376		21.484375
9377		23.437500
9378		19.531250
9379		23.437500
9380		19.531250
9381		21.484375
9382		17.578125
9383		21.484375
9384		15.625000
9385		19.531250
9386		13.671875
9387		19.531250
9388		13.671875
9389		17.578125
9390		13.671875
9391		15.625000
9392		11.718750
9393		15.625000
9394		9.765625
9395		13.671875
9396		9.765625
9397		13.671875
9398		7.812500
9399		11.718750
9400		5.859375
9401		9.765625
9402		5.859375
9403		9.765625
9404		3.906250
9405		9.765625
9406		3.906250
9407		5.859375
9408		1.953125
9409		5.859375
9410		1.953125
9411		3.906250
9412		0.000000
9413		3.906250
9414		-1.953125
9415		1.953125
9416		-1.953125
9417		1.953125
9418		-3.906250
9419		0.000000
9420		-3.906250
9421		0.000000
9422		-5.859375
9423		-1.953125
9424		-7.812500
9425		-3.906250
9426		-7.812500
9427		-3.906250
9428		-7.812500
9429		-3.906250
9430		-9.765625
9431		-5.859375
9432		-9.765625
9433		-5.859375
9434		-9.765625
9435		-7.812500
9436		-11.718750
9437		-7.812500
9438		-11.718750
9439		-9.765625
9440		-11.718750
9441		-9.765625
9442		-13.671875
9443		-9.765625
9444		-13.671875
9445		-9.765625
9446		-13.671875
9447		-9.765625
9448		-13.671875
9449		-11.718750
9450		-13.671875
9451		-11.718750
9452		-13.671875
9453		-11.718750
9454		-15.625000
9455		-11.718750
9456		-13.671875
9457		-11.718750
9458		-15.625000
9459		-11.718750
9460		-15.625000
9461		-11.718750
9462		-13.671875
9463		-11.718750
9464		-13.671875
9465		-11.718750
9466		-13.671875
9467		-11.718750
9468		-13.671875
9469		-11.718750
9470		-13.671875
9471		-9.765625
9472		-11.718750
9473		-9.765625
9474		-11.718750
9475		-9.765625
9476		-11.718750
9477		-7.812500
9478		-11.718750
9479		-7.812500
9480		-9.765625
9481		-7.812500
9482		-9.765625
9483		-5.859375
9484		-9.765625
9485		-5.859375
9486		-7.812500
9487		-5.859375
9488		-7.812500
9489		-3.906250
9490		-5.859375
9491		-3.906250
9492		-5.859375
9493		-1.953125
9494		-3.906250
9495		-1.953125
9496		-3.906250
9497		0.000000
9498		-1.953125
9499		0.000000
9500		-1.953125
9501		1.953125
9502		0.000000
9503		1.953125
9504		0.000000
9505		3.906250
9506		1.953125
9507		3.906250
9508		1.953125
9509		5.859375
9510		3.906250
9511		7.812500
9512		5.859375
9513		7.812500
9514		5.859375
9515		9.765625
9516		7.812500
9517		11.718750
9518		9.765625
9519		11.718750
9520		9.765625
9521		13.671875
9522		11.718750
9523		13.671875
9524		13.671875
9525		15.625000
9526		13.671875
9527		17.578125
9528		13.671875
9529		17.578125
9530		15.625000
9531		19.531250
9532		17.578125
9533		21.484375
9534		17.578125
9535		21.484375
9536		19.531250
9537		23.437500
9538		19.531250
9539		23.437500
9540		21.484375
9541		25.390625
9542		23.437500
9543		27.343750
9544		23.437500
9545		27.343750
9546		25.390625
9547		27.343750
9548		25.390625
9549		29.296875
9550		27.343750
9551		29.296875
9552		27.343750
9553		31.250000
9554		27.343750
9555		31.250000
9556		29.296875
9557		31.250000
9558		29.296875
9559		33.203125
9560		29.296875
9561		33.203125
9562		31.250000
9563		35.156250
9564		31.250000
9565		35.156250
9566		33.203125
9567		35.156250
9568		33.203125
9569		35.156250
9570		33.203125
9571		37.109375
9572		33.203125
9573		37.109375
9574		35.156250
9575		37.109375
9576		33.203125
9577		37.109375
9578		35.156250
9579		37.109375
9580		33.203125
9581		37.109375
9582		35.156250
9583		37.109375
9584		35.156250
9585		37.109375
9586		33.203125
9587		37.109375
9588		33.203125
9589		37.109375
9590		33.203125
9591		37.109375
9592		33.203125
9593		37.109375
9594		33.203125
9595		37.109375
9596		33.203125
9597		37.109375
9598		33.203125
9599		35.156250
9600		33.203125
9601		35.156250
9602		31.250000
9603		35.156250
9604		31.250000
9605		35.156250
9606		31.250000
9607		33.203125
9608		31.250000
9609		33.203125
9610		29.296875
9611		33.203125
9612		29.296875
9613		33.203125
9614		27.343750
9615		31.250000
9616		25.390625
9617		31.250000
9618		25.390625
9619		29.296875
9620		25.390625
9621		27.343750
9622		23.437500
9623		27.343750
9624		23.437500
9625		27.343750
9626		21.484375
9627		25.390625
9628		21.484375
9629		25.390625
9630		19.531250
9631		23.437500
9632		19.531250
9633		21.484375
9634		17.578125
9635		21.484375
9636		17.578125
9637		19.531250
9638		15.625000
9639		19.531250
9640		13.671875
9641		17.578125
9642		13.671875
9643		15.625000
9644		11.718750
9645		15.625000
9646		9.765625
9647		13.671875
9648		9.765625
9649		13.671875
9650		7.812500
9651		11.718750
9652		7.812500
9653		9.765625
9654		5.859375
9655		9.765625
9656		5.859375
9657		9.765625
9658		3.906250
9659		5.859375
9660		1.953125
9661		5.859375
9662		1.953125
9663		3.906250
9664		0.000000
9665		3.906250
9666		-1.953125
9667		1.953125
9668		-1.953125
9669		1.953125
9670		-3.906250
9671		0.000000
9672		-5.859375
9673		0.000000
9674		-5.859375
9675		-1.953125
9676		-5.859375
9677		-3.906250
9678		-7.812500
9679		-3.906250
9680		-7.812500
9681		-3.906250
9682		-9.765625
9683		-5.859375
9684		-9.765625
9685		-5.859375
9686		-9.765625
9687		-7.812500
9688		-11.718750
9689		-7.812500
9690		-11.718750
9691		-9.765625
9692		-11.718750
9693		-9.765625
9694		-13.671875
9695		-9.765625
9696		-13.671875
9697		-9.765625
9698		-13.671875
9699		-11.718750
9700		-13.671875
9701		-9.765625
9702		-13.671875
9703		-11.718750
9704		-13.671875
9705		-11.718750
9706		-13.671875
9707		-9.765625
9708		-13.671875
9709		-11.718750
9710		-15.625000
9711		-11.718750
9712		-13.671875
9713		-11.718750
9714		-13.671875
9715		-11.718750
9716		-13.671875
9717		-11.718750
9718		-13.671875
9719		-9.765625
9720		-13.671875
9721		-9.765625
9722		-13.671875
9723		-9.765625
9724		-13.671875
9725		-9.765625
9726		-11.718750
9727		-9.765625
9728		-11.718750
9729		-7.812500
9730		-11.718750
9731		-7.812500
9732		-11.718750
9733		-7.812500
9734		-9.765625
9735		-5.859375
9736		-9.765625
9737		-5.859375
9738		-7.812500
9739		-3.906250
9740		-7.812500
9741		-3.906250
9742		-5.859375
9743		-3.906250
9744		-5.859375
9745		-1.953125
9746		-3.906250
9747		-1.953125
9748		-3.906250
9749		0.000000
9750		-1.953125
9751		0.000000
9752		-1.953125
9753		1.953125
9754		0.000000
9755		1.953125
9756		0.000000
9757		3.906250
9758		1.953125
9759		5.859375
9760		3.906250
9761		5.859375
9762		3.906250
9763		7.812500
9764		5.859375
9765		9.765625
9766		5.859375
9767		9.765625
9768		7.812500
9769		11.718750
9770		9.765625
9771		13.671875
9772		9.765625
9773		15.625000
9774		11.718750
9775		15.625000
9776		13.671875
9777		15.625000
9778		13.671875
9779		17.578125
9780		13.671875
9781		19.531250
9782		15.625000
9783		19.531250
9784		17.578125
9785		21.484375
9786		17.578125
9787		21.484375
9788		19.531250
9789		23.437500
9790		21.484375
9791		25.390625
9792		21.484375
9793		25.390625
9794		23.437500
9795		27.343750
9796		23.437500
9797		27.343750
9798		25.390625
9799		29.296875
9800		25.390625
9801		29.296875
9802		27.343750
9803		29.296875
9804		27.343750
9805		31.250000
9806		27.343750
9807		31.250000
9808		29.296875
9809		33.203125
9810		31.250000
9811		33.203125
9812		31.250000
9813		33.203125
9814		31.250000
9815		33.203125
9816		31.250000
9817		35.156250
9818		33.203125
9819		35.156250
9820		33.203125
9821		35.156250
9822		33.203125
9823		35.156250
9824		33.203125
9825		37.109375
9826		35.156250
9827		37.109375
9828		33.203125
9829		37.109375
9830		35.156250
9831		37.109375
9832		33.203125
9833		37.109375
9834		35.156250
9835		37.109375
9836		35.156250
9837		37.109375
9838		35.156250
9839		37.109375
9840		35.156250
9841		37.109375
9842		35.156250
9843		37.109375
9844		35.156250
9845		37.109375
9846		33.203125
9847		37.109375
9848		33.203125
9849		37.109375
9850		33.203125
9851		35.156250
9852		33.203125
9853		35.156250
9854		33.203125
9855		35.156250
9856		31.250000
9857		35.156250
9858		31.250000
9859		35.156250
9860		31.250000
9861		33.203125
9862		29.296875
9863		33.203125
9864		29.296875
9865		33.203125
9866		27.343750
9867		31.250000
9868		27.343750
9869		31.250000
9870		25.390625
9871		29.296875
9872		25.390625
9873		29.296875
9874		23.437500
9875		27.343750
9876		23.437500
9877		25.390625
9878		21.484375
9879		25.390625
9880		21.484375
9881		25.390625
9882		19.531250
9883		23.437500
9884		19.531250
9885		23.437500
9886		17.578125
9887		21.484375
9888		15.625000
9889		19.531250
9890		15.625000
9891		19.531250
9892		13.671875
9893		17.578125
9894		13.671875
9895		15.625000
9896		11.718750
9897		15.625000
9898		11.718750
9899		15.625000
9900		9.765625
9901		13.671875
9902		7.812500
9903		11.718750
9904		7.812500
9905		11.718750
9906		5.859375
9907		9.765625
9908		3.906250
9909		7.812500
9910		3.906250
9911		5.859375
9912		1.953125
9913		5.859375
9914		0.000000
9915		3.906250
9916		0.000000
9917		3.906250
9918		-1.953125
9919		1.953125
9920		-1.953125
9921		1.953125
9922		-3.906250
9923		0.000000
9924		-3.906250
9925		0.000000
9926		-5.859375
9927		-1.953125
9928		-5.859375
9929		-3.906250
9930		-7.812500
9931		-3.906250
9932		-9.765625
9933		-3.906250
9934		-7.812500
9935		-5.859375
9936		-9.765625
9937		-5.859375
9938		-11.718750
9939		-7.812500
9940		-11.718750
9941		-7.812500
9942		-11.718750
9943		-7.812500
9944		-11.718750
9945		-9.765625
9946		-13.671875
9947		-9.765625
9948		-13.671875
9949		-9.765625
9950		-13.671875
9951		-9.765625
9952		-13.671875
9953		-11.718750
9954		-13.671875
9955		-9.765625
9956		-13.671875
9957		-11.718750
9958		-15.625000
9959		-11.718750
9960		-13.671875
9961		-11.718750
9962		-13.671875
9963		-11.718750
9964		-15.625000
9965		-11.718750
9966		-13.671875
9967		-11.718750
9968		-13.671875
9969		-11.718750
9970		-13.671875
9971		-9.765625
9972		-13.671875
9973		-9.765625
9974		-13.671875
9975		-9.765625
9976		-11.718750
9977		-9.765625
9978		-11.718750
9979		-9.765625
9980		-11.718750
9981		-7.812500
9982		-11.718750
9983		-7.812500
9984		-11.718750
9985		-7.812500
9986		-9.765625
9987		-5.859375
9988		-9.765625
9989		-5.859375
9990		-7.812500
9991		-5.859375
9992		-7.812500
9993		-3.906250
9994		-5.859375
9995		-3.906250
9996		-5.859375
9997		-1.953125
9998		-3.906250
9999		-1.953125
10000		-3.906250
