Channel              :		CH1
Frequency            :		1.053kHz
Period               :		0.949ms
PK-PK                :		82.03mV
Probe attenuation    :		1X
Voltage per ADC value:		0.122070mV
Time interval        :		2.00000us

index		CH1_Voltage(mV)
1		-21.484375
2		-21.484375
3		-17.578125
4		-21.484375
5		-17.578125
6		-21.484375
7		-19.531250
8		-23.437500
9		-19.531250
10		-23.437500
11		-19.531250
12		-27.343750
13		-19.531250
14		-27.343750
15		-19.531250
16		-27.343750
17		-23.437500
18		-27.343750
19		-23.437500
20		-29.296875
21		-23.437500
22		-29.296875
23		-25.390625
24		-29.296875
25		-27.343750
26		-31.250000
27		-25.390625
28		-33.203125
29		-25.390625
30		-33.203125
31		-25.390625
32		-35.156250
33		-27.343750
34		-33.203125
35		-29.296875
36		-33.203125
37		-29.296875
38		-35.156250
39		-31.250000
40		-33.203125
41		-31.250000
42		-35.156250
43		-33.203125
44		-35.156250
45		-33.203125
46		-39.062500
47		-31.250000
48		-39.062500
49		-31.250000
50		-37.109375
51		-33.203125
52		-37.109375
53		-35.156250
54		-39.062500
55		-35.156250
56		-37.109375
57		-35.156250
58		-39.062500
59		-37.109375
60		-39.062500
61		-35.156250
62		-42.968750
63		-35.156250
64		-42.968750
65		-33.203125
66		-41.015625
67		-35.156250
68		-41.015625
69		-37.109375
70		-41.015625
71		-37.109375
72		-41.015625
73		-37.109375
74		-41.015625
75		-39.062500
76		-41.015625
77		-37.109375
78		-42.968750
79		-37.109375
80		-44.921875
81		-35.156250
82		-42.968750
83		-35.156250
84		-41.015625
85		-37.109375
86		-41.015625
87		-39.062500
88		-41.015625
89		-39.062500
90		-41.015625
91		-39.062500
92		-41.015625
93		-39.062500
94		-42.968750
95		-37.109375
96		-42.968750
97		-35.156250
98		-42.968750
99		-35.156250
100		-41.015625
101		-37.109375
102		-41.015625
103		-37.109375
104		-41.015625
105		-35.156250
106		-41.015625
107		-35.156250
108		-39.062500
109		-37.109375
110		-41.015625
111		-35.156250
112		-41.015625
113		-33.203125
114		-41.015625
115		-33.203125
116		-41.015625
117		-33.203125
118		-37.109375
119		-35.156250
120		-37.109375
121		-33.203125
122		-39.062500
123		-33.203125
124		-35.156250
125		-33.203125
126		-35.156250
127		-33.203125
128		-35.156250
129		-31.250000
130		-37.109375
131		-29.296875
132		-37.109375
133		-29.296875
134		-33.203125
135		-31.250000
136		-33.203125
137		-29.296875
138		-31.250000
139		-27.343750
140		-31.250000
141		-29.296875
142		-31.250000
143		-29.296875
144		-31.250000
145		-27.343750
146		-33.203125
147		-25.390625
148		-31.250000
149		-23.437500
150		-29.296875
151		-25.390625
152		-27.343750
153		-23.437500
154		-27.343750
155		-23.437500
156		-27.343750
157		-23.437500
158		-25.390625
159		-23.437500
160		-23.437500
161		-21.484375
162		-25.390625
163		-19.531250
164		-25.390625
165		-17.578125
166		-25.390625
167		-17.578125
168		-21.484375
169		-17.578125
170		-21.484375
171		-17.578125
172		-19.531250
173		-15.625000
174		-19.531250
175		-15.625000
176		-17.578125
177		-15.625000
178		-17.578125
179		-13.671875
180		-17.578125
181		-9.765625
182		-17.578125
183		-9.765625
184		-15.625000
185		-9.765625
186		-13.671875
187		-9.765625
188		-11.718750
189		-7.812500
190		-11.718750
191		-7.812500
192		-9.765625
193		-7.812500
194		-9.765625
195		-5.859375
196		-9.765625
197		-3.906250
198		-11.718750
199		-1.953125
200		-9.765625
201		-1.953125
202		-5.859375
203		-1.953125
204		-3.906250
205		-1.953125
206		-3.906250
207		0.000000
208		-1.953125
209		0.000000
210		-1.953125
211		0.000000
212		-1.953125
213		1.953125
214		-1.953125
215		5.859375
216		-1.953125
217		5.859375
218		1.953125
219		5.859375
220		1.953125
221		5.859375
222		3.906250
223		5.859375
224		3.906250
225		7.812500
226		5.859375
227		7.812500
228		3.906250
229		9.765625
230		3.906250
231		13.671875
232		3.906250
233		13.671875
234		5.859375
235		13.671875
236		9.765625
237		13.671875
238		9.765625
239		13.671875
240		9.765625
241		13.671875
242		11.718750
243		13.671875
244		11.718750
245		17.578125
246		11.718750
247		19.531250
248		11.718750
249		19.531250
250		11.718750
251		21.484375
252		15.625000
253		19.531250
254		15.625000
255		19.531250
256		17.578125
257		21.484375
258		17.578125
259		21.484375
260		19.531250
261		21.484375
262		19.531250
263		23.437500
264		17.578125
265		25.390625
266		17.578125
267		25.390625
268		19.531250
269		25.390625
270		21.484375
271		25.390625
272		21.484375
273		25.390625
274		23.437500
275		27.343750
276		23.437500
277		25.390625
278		23.437500
279		27.343750
280		21.484375
281		29.296875
282		21.484375
283		31.250000
284		23.437500
285		31.250000
286		25.390625
287		29.296875
288		27.343750
289		29.296875
290		25.390625
291		31.250000
292		27.343750
293		29.296875
294		27.343750
295		31.250000
296		27.343750
297		31.250000
298		25.390625
299		33.203125
300		25.390625
301		33.203125
302		29.296875
303		33.203125
304		29.296875
305		33.203125
306		29.296875
307		33.203125
308		27.343750
309		33.203125
310		29.296875
311		33.203125
312		29.296875
313		33.203125
314		27.343750
315		35.156250
316		27.343750
317		35.156250
318		27.343750
319		35.156250
320		31.250000
321		33.203125
322		29.296875
323		33.203125
324		29.296875
325		35.156250
326		29.296875
327		33.203125
328		31.250000
329		33.203125
330		27.343750
331		35.156250
332		27.343750
333		37.109375
334		27.343750
335		35.156250
336		29.296875
337		33.203125
338		29.296875
339		33.203125
340		29.296875
341		33.203125
342		29.296875
343		31.250000
344		29.296875
345		31.250000
346		29.296875
347		33.203125
348		27.343750
349		33.203125
350		25.390625
351		33.203125
352		27.343750
353		33.203125
354		29.296875
355		31.250000
356		27.343750
357		31.250000
358		27.343750
359		31.250000
360		27.343750
361		29.296875
362		25.390625
363		31.250000
364		23.437500
365		29.296875
366		23.437500
367		31.250000
368		23.437500
369		31.250000
370		25.390625
371		27.343750
372		23.437500
373		27.343750
374		23.437500
375		27.343750
376		23.437500
377		25.390625
378		23.437500
379		25.390625
380		21.484375
381		25.390625
382		19.531250
383		27.343750
384		17.578125
385		27.343750
386		19.531250
387		23.437500
388		19.531250
389		23.437500
390		19.531250
391		21.484375
392		17.578125
393		23.437500
394		17.578125
395		19.531250
396		15.625000
397		19.531250
398		13.671875
399		21.484375
400		11.718750
401		21.484375
402		11.718750
403		19.531250
404		13.671875
405		17.578125
406		11.718750
407		17.578125
408		11.718750
409		15.625000
410		11.718750
411		13.671875
412		7.812500
413		13.671875
414		5.859375
415		13.671875
416		5.859375
417		13.671875
418		3.906250
419		13.671875
420		5.859375
421		9.765625
422		5.859375
423		9.765625
424		3.906250
425		7.812500
426		3.906250
427		5.859375
428		1.953125
429		5.859375
430		0.000000
431		5.859375
432		0.000000
433		5.859375
434		-1.953125
435		5.859375
436		-1.953125
437		3.906250
438		-1.953125
439		1.953125
440		-3.906250
441		0.000000
442		-3.906250
443		0.000000
444		-3.906250
445		-1.953125
446		-5.859375
447		-1.953125
448		-9.765625
449		-3.906250
450		-9.765625
451		-1.953125
452		-11.718750
453		-1.953125
454		-9.765625
455		-5.859375
456		-11.718750
457		-5.859375
458		-13.671875
459		-7.812500
460		-11.718750
461		-9.765625
462		-13.671875
463		-9.765625
464		-15.625000
465		-11.718750
466		-17.578125
467		-9.765625
468		-19.531250
469		-9.765625
470		-17.578125
471		-13.671875
472		-17.578125
473		-13.671875
474		-19.531250
475		-13.671875
476		-19.531250
477		-15.625000
478		-21.484375
479		-17.578125
480		-21.484375
481		-17.578125
482		-25.390625
483		-17.578125
484		-25.390625
485		-17.578125
486		-27.343750
487		-17.578125
488		-25.390625
489		-21.484375
490		-25.390625
491		-23.437500
492		-27.343750
493		-21.484375
494		-27.343750
495		-25.390625
496		-29.296875
497		-25.390625
498		-29.296875
499		-25.390625
500		-31.250000
501		-23.437500
502		-33.203125
503		-25.390625
504		-31.250000
505		-27.343750
506		-31.250000
507		-29.296875
508		-33.203125
509		-29.296875
510		-33.203125
511		-31.250000
512		-33.203125
513		-31.250000
514		-35.156250
515		-29.296875
516		-37.109375
517		-29.296875
518		-37.109375
519		-29.296875
520		-37.109375
521		-31.250000
522		-37.109375
523		-33.203125
524		-37.109375
525		-33.203125
526		-39.062500
527		-33.203125
528		-37.109375
529		-35.156250
530		-37.109375
531		-35.156250
532		-39.062500
533		-33.203125
534		-41.015625
535		-33.203125
536		-41.015625
537		-33.203125
538		-39.062500
539		-35.156250
540		-39.062500
541		-37.109375
542		-41.015625
543		-35.156250
544		-39.062500
545		-37.109375
546		-39.062500
547		-37.109375
548		-41.015625
549		-37.109375
550		-42.968750
551		-35.156250
552		-42.968750
553		-35.156250
554		-42.968750
555		-37.109375
556		-41.015625
557		-37.109375
558		-41.015625
559		-37.109375
560		-41.015625
561		-37.109375
562		-41.015625
563		-39.062500
564		-42.968750
565		-37.109375
566		-42.968750
567		-37.109375
568		-42.968750
569		-35.156250
570		-42.968750
571		-35.156250
572		-41.015625
573		-37.109375
574		-41.015625
575		-37.109375
576		-41.015625
577		-37.109375
578		-39.062500
579		-37.109375
580		-41.015625
581		-37.109375
582		-41.015625
583		-35.156250
584		-42.968750
585		-33.203125
586		-41.015625
587		-33.203125
588		-39.062500
589		-35.156250
590		-39.062500
591		-35.156250
592		-39.062500
593		-33.203125
594		-37.109375
595		-33.203125
596		-37.109375
597		-33.203125
598		-37.109375
599		-33.203125
600		-39.062500
601		-29.296875
602		-39.062500
603		-31.250000
604		-37.109375
605		-29.296875
606		-35.156250
607		-31.250000
608		-35.156250
609		-31.250000
610		-35.156250
611		-29.296875
612		-33.203125
613		-29.296875
614		-33.203125
615		-27.343750
616		-33.203125
617		-25.390625
618		-33.203125
619		-25.390625
620		-33.203125
621		-23.437500
622		-29.296875
623		-27.343750
624		-29.296875
625		-25.390625
626		-29.296875
627		-23.437500
628		-27.343750
629		-23.437500
630		-25.390625
631		-23.437500
632		-27.343750
633		-21.484375
634		-27.343750
635		-19.531250
636		-27.343750
637		-17.578125
638		-25.390625
639		-17.578125
640		-23.437500
641		-19.531250
642		-21.484375
643		-17.578125
644		-21.484375
645		-17.578125
646		-19.531250
647		-17.578125
648		-19.531250
649		-13.671875
650		-19.531250
651		-13.671875
652		-19.531250
653		-11.718750
654		-19.531250
655		-11.718750
656		-15.625000
657		-11.718750
658		-15.625000
659		-11.718750
660		-13.671875
661		-9.765625
662		-11.718750
663		-9.765625
664		-11.718750
665		-7.812500
666		-11.718750
667		-7.812500
668		-13.671875
669		-3.906250
670		-11.718750
671		-3.906250
672		-9.765625
673		-3.906250
674		-7.812500
675		-3.906250
676		-5.859375
677		-1.953125
678		-5.859375
679		-1.953125
680		-3.906250
681		-1.953125
682		-3.906250
683		0.000000
684		-3.906250
685		3.906250
686		-3.906250
687		3.906250
688		-3.906250
689		3.906250
690		0.000000
691		3.906250
692		1.953125
693		3.906250
694		1.953125
695		5.859375
696		3.906250
697		5.859375
698		3.906250
699		7.812500
700		1.953125
701		7.812500
702		1.953125
703		11.718750
704		3.906250
705		11.718750
706		7.812500
707		11.718750
708		7.812500
709		11.718750
710		9.765625
711		11.718750
712		9.765625
713		13.671875
714		11.718750
715		13.671875
716		9.765625
717		15.625000
718		9.765625
719		17.578125
720		11.718750
721		19.531250
722		11.718750
723		19.531250
724		13.671875
725		17.578125
726		15.625000
727		19.531250
728		15.625000
729		19.531250
730		17.578125
731		19.531250
732		17.578125
733		21.484375
734		15.625000
735		23.437500
736		17.578125
737		25.390625
738		17.578125
739		25.390625
740		19.531250
741		23.437500
742		19.531250
743		23.437500
744		19.531250
745		25.390625
746		21.484375
747		25.390625
748		23.437500
749		27.343750
750		23.437500
751		27.343750
752		21.484375
753		29.296875
754		21.484375
755		29.296875
756		23.437500
757		29.296875
758		25.390625
759		29.296875
760		25.390625
761		31.250000
762		27.343750
763		29.296875
764		27.343750
765		29.296875
766		25.390625
767		31.250000
768		25.390625
769		31.250000
770		25.390625
771		33.203125
772		25.390625
773		33.203125
774		27.343750
775		31.250000
776		29.296875
777		31.250000
778		29.296875
779		31.250000
780		29.296875
781		31.250000
782		29.296875
783		33.203125
784		27.343750
785		33.203125
786		27.343750
787		35.156250
788		29.296875
789		35.156250
790		29.296875
791		33.203125
792		29.296875
793		33.203125
794		29.296875
795		33.203125
796		31.250000
797		33.203125
798		31.250000
799		33.203125
800		29.296875
801		35.156250
802		27.343750
803		35.156250
804		27.343750
805		35.156250
806		27.343750
807		35.156250
808		31.250000
809		33.203125
810		29.296875
811		33.203125
812		29.296875
813		33.203125
814		29.296875
815		33.203125
816		29.296875
817		33.203125
818		27.343750
819		33.203125
820		27.343750
821		35.156250
822		27.343750
823		35.156250
824		29.296875
825		31.250000
826		29.296875
827		31.250000
828		27.343750
829		31.250000
830		27.343750
831		31.250000
832		27.343750
833		29.296875
834		27.343750
835		31.250000
836		23.437500
837		31.250000
838		23.437500
839		31.250000
840		25.390625
841		31.250000
842		25.390625
843		29.296875
844		23.437500
845		29.296875
846		25.390625
847		27.343750
848		23.437500
849		27.343750
850		23.437500
851		27.343750
852		19.531250
853		27.343750
854		19.531250
855		27.343750
856		19.531250
857		27.343750
858		19.531250
859		23.437500
860		19.531250
861		23.437500
862		19.531250
863		23.437500
864		19.531250
865		21.484375
866		17.578125
867		21.484375
868		15.625000
869		21.484375
870		13.671875
871		21.484375
872		13.671875
873		21.484375
874		13.671875
875		21.484375
876		13.671875
877		17.578125
878		11.718750
879		17.578125
880		13.671875
881		15.625000
882		11.718750
883		15.625000
884		11.718750
885		13.671875
886		7.812500
887		15.625000
888		5.859375
889		15.625000
890		5.859375
891		13.671875
892		7.812500
893		11.718750
894		5.859375
895		9.765625
896		3.906250
897		11.718750
898		5.859375
899		7.812500
900		3.906250
901		7.812500
902		1.953125
903		7.812500
904		0.000000
905		7.812500
906		-1.953125
907		5.859375
908		0.000000
909		3.906250
910		0.000000
911		1.953125
912		-1.953125
913		1.953125
914		-1.953125
915		0.000000
916		-3.906250
917		0.000000
918		-5.859375
919		0.000000
920		-7.812500
921		0.000000
922		-9.765625
923		0.000000
924		-9.765625
925		-1.953125
926		-7.812500
927		-3.906250
928		-9.765625
929		-5.859375
930		-9.765625
931		-5.859375
932		-11.718750
933		-7.812500
934		-13.671875
935		-7.812500
936		-15.625000
937		-9.765625
938		-17.578125
939		-7.812500
940		-17.578125
941		-9.765625
942		-15.625000
943		-13.671875
944		-17.578125
945		-13.671875
946		-19.531250
947		-13.671875
948		-17.578125
949		-15.625000
950		-21.484375
951		-15.625000
952		-23.437500
953		-15.625000
954		-23.437500
955		-15.625000
956		-25.390625
957		-15.625000
958		-25.390625
959		-17.578125
960		-23.437500
961		-21.484375
962		-25.390625
963		-21.484375
964		-25.390625
965		-23.437500
966		-25.390625
967		-23.437500
968		-29.296875
969		-23.437500
970		-31.250000
971		-23.437500
972		-31.250000
973		-23.437500
974		-31.250000
975		-23.437500
976		-29.296875
977		-27.343750
978		-31.250000
979		-27.343750
980		-31.250000
981		-27.343750
982		-31.250000
983		-29.296875
984		-35.156250
985		-29.296875
986		-33.203125
987		-29.296875
988		-37.109375
989		-29.296875
990		-37.109375
991		-29.296875
992		-35.156250
993		-31.250000
994		-35.156250
995		-31.250000
996		-37.109375
997		-33.203125
998		-37.109375
999		-33.203125
1000		-37.109375
1001		-35.156250
1002		-39.062500
1003		-33.203125
1004		-41.015625
1005		-33.203125
1006		-41.015625
1007		-33.203125
1008		-41.015625
1009		-33.203125
1010		-39.062500
1011		-35.156250
1012		-39.062500
1013		-35.156250
1014		-41.015625
1015		-35.156250
1016		-39.062500
1017		-37.109375
1018		-41.015625
1019		-37.109375
1020		-42.968750
1021		-35.156250
1022		-42.968750
1023		-35.156250
1024		-42.968750
1025		-35.156250
1026		-41.015625
1027		-37.109375
1028		-41.015625
1029		-37.109375
1030		-42.968750
1031		-37.109375
1032		-41.015625
1033		-37.109375
1034		-42.968750
1035		-39.062500
1036		-41.015625
1037		-37.109375
1038		-42.968750
1039		-35.156250
1040		-42.968750
1041		-35.156250
1042		-42.968750
1043		-35.156250
1044		-41.015625
1045		-37.109375
1046		-41.015625
1047		-37.109375
1048		-41.015625
1049		-37.109375
1050		-39.062500
1051		-37.109375
1052		-41.015625
1053		-37.109375
1054		-41.015625
1055		-35.156250
1056		-42.968750
1057		-35.156250
1058		-42.968750
1059		-33.203125
1060		-39.062500
1061		-35.156250
1062		-39.062500
1063		-35.156250
1064		-39.062500
1065		-35.156250
1066		-37.109375
1067		-35.156250
1068		-39.062500
1069		-33.203125
1070		-39.062500
1071		-31.250000
1072		-39.062500
1073		-31.250000
1074		-39.062500
1075		-31.250000
1076		-35.156250
1077		-33.203125
1078		-35.156250
1079		-33.203125
1080		-35.156250
1081		-31.250000
1082		-33.203125
1083		-31.250000
1084		-33.203125
1085		-31.250000
1086		-33.203125
1087		-29.296875
1088		-35.156250
1089		-27.343750
1090		-35.156250
1091		-25.390625
1092		-33.203125
1093		-25.390625
1094		-31.250000
1095		-27.343750
1096		-29.296875
1097		-25.390625
1098		-29.296875
1099		-25.390625
1100		-27.343750
1101		-25.390625
1102		-27.343750
1103		-23.437500
1104		-29.296875
1105		-21.484375
1106		-29.296875
1107		-21.484375
1108		-29.296875
1109		-19.531250
1110		-25.390625
1111		-21.484375
1112		-23.437500
1113		-19.531250
1114		-23.437500
1115		-17.578125
1116		-21.484375
1117		-19.531250
1118		-21.484375
1119		-15.625000
1120		-21.484375
1121		-13.671875
1122		-19.531250
1123		-13.671875
1124		-19.531250
1125		-11.718750
1126		-19.531250
1127		-11.718750
1128		-17.578125
1129		-13.671875
1130		-15.625000
1131		-11.718750
1132		-15.625000
1133		-11.718750
1134		-13.671875
1135		-9.765625
1136		-13.671875
1137		-9.765625
1138		-13.671875
1139		-7.812500
1140		-13.671875
1141		-5.859375
1142		-13.671875
1143		-3.906250
1144		-9.765625
1145		-5.859375
1146		-7.812500
1147		-3.906250
1148		-7.812500
1149		-3.906250
1150		-5.859375
1151		-3.906250
1152		-5.859375
1153		-1.953125
1154		-5.859375
1155		0.000000
1156		-5.859375
1157		1.953125
1158		-5.859375
1159		3.906250
1160		-1.953125
1161		1.953125
1162		-1.953125
1163		1.953125
1164		0.000000
1165		3.906250
1166		1.953125
1167		3.906250
1168		1.953125
1169		3.906250
1170		1.953125
1171		5.859375
1172		0.000000
1173		9.765625
1174		1.953125
1175		9.765625
1176		3.906250
1177		11.718750
1178		5.859375
1179		9.765625
1180		5.859375
1181		9.765625
1182		7.812500
1183		11.718750
1184		9.765625
1185		11.718750
1186		9.765625
1187		13.671875
1188		9.765625
1189		15.625000
1190		9.765625
1191		17.578125
1192		9.765625
1193		17.578125
1194		13.671875
1195		15.625000
1196		13.671875
1197		17.578125
1198		13.671875
1199		17.578125
1200		15.625000
1201		17.578125
1202		15.625000
1203		21.484375
1204		17.578125
1205		21.484375
1206		15.625000
1207		21.484375
1208		15.625000
1209		23.437500
1210		15.625000
1211		23.437500
1212		19.531250
1213		23.437500
1214		19.531250
1215		23.437500
1216		21.484375
1217		23.437500
1218		21.484375
1219		23.437500
1220		21.484375
1221		25.390625
1222		19.531250
1223		27.343750
1224		19.531250
1225		29.296875
1226		21.484375
1227		29.296875
1228		23.437500
1229		27.343750
1230		25.390625
1231		27.343750
1232		23.437500
1233		29.296875
1234		25.390625
1235		27.343750
1236		27.343750
1237		29.296875
1238		23.437500
1239		31.250000
1240		25.390625
1241		33.203125
1242		25.390625
1243		33.203125
1244		27.343750
1245		31.250000
1246		27.343750
1247		31.250000
1248		27.343750
1249		33.203125
1250		29.296875
1251		31.250000
1252		29.296875
1253		31.250000
1254		27.343750
1255		33.203125
1256		27.343750
1257		35.156250
1258		27.343750
1259		35.156250
1260		27.343750
1261		35.156250
1262		29.296875
1263		33.203125
1264		29.296875
1265		33.203125
1266		31.250000
1267		33.203125
1268		31.250000
1269		33.203125
1270		29.296875
1271		33.203125
1272		29.296875
1273		35.156250
1274		27.343750
1275		37.109375
1276		27.343750
1277		35.156250
1278		29.296875
1279		35.156250
1280		31.250000
1281		33.203125
1282		29.296875
1283		33.203125
1284		31.250000
1285		33.203125
1286		29.296875
1287		35.156250
1288		29.296875
1289		35.156250
1290		27.343750
1291		35.156250
1292		27.343750
1293		35.156250
1294		27.343750
1295		35.156250
1296		29.296875
1297		33.203125
1298		27.343750
1299		33.203125
1300		29.296875
1301		31.250000
1302		29.296875
1303		31.250000
1304		27.343750
1305		31.250000
1306		25.390625
1307		33.203125
1308		25.390625
1309		33.203125
1310		25.390625
1311		33.203125
1312		27.343750
1313		29.296875
1314		25.390625
1315		29.296875
1316		25.390625
1317		29.296875
1318		25.390625
1319		27.343750
1320		23.437500
1321		27.343750
1322		21.484375
1323		29.296875
1324		21.484375
1325		29.296875
1326		21.484375
1327		29.296875
1328		21.484375
1329		25.390625
1330		21.484375
1331		25.390625
1332		21.484375
1333		25.390625
1334		21.484375
1335		23.437500
1336		19.531250
1337		23.437500
1338		19.531250
1339		23.437500
1340		17.578125
1341		23.437500
1342		15.625000
1343		23.437500
1344		15.625000
1345		23.437500
1346		15.625000
1347		19.531250
1348		15.625000
1349		19.531250
1350		13.671875
1351		17.578125
1352		13.671875
1353		17.578125
1354		11.718750
1355		17.578125
1356		11.718750
1357		17.578125
1358		9.765625
1359		15.625000
1360		7.812500
1361		17.578125
1362		9.765625
1363		13.671875
1364		9.765625
1365		11.718750
1366		7.812500
1367		11.718750
1368		7.812500
1369		9.765625
1370		5.859375
1371		9.765625
1372		3.906250
1373		9.765625
1374		1.953125
1375		9.765625
1376		0.000000
1377		9.765625
1378		0.000000
1379		7.812500
1380		1.953125
1381		5.859375
1382		0.000000
1383		3.906250
1384		0.000000
1385		1.953125
1386		0.000000
1387		1.953125
1388		-1.953125
1389		0.000000
1390		-5.859375
1391		1.953125
1392		-5.859375
1393		1.953125
1394		-7.812500
1395		0.000000
1396		-5.859375
1397		-1.953125
1398		-7.812500
1399		-3.906250
1400		-7.812500
1401		-3.906250
1402		-7.812500
1403		-5.859375
1404		-11.718750
1405		-5.859375
1406		-13.671875
1407		-5.859375
1408		-13.671875
1409		-5.859375
1410		-15.625000
1411		-7.812500
1412		-15.625000
1413		-7.812500
1414		-13.671875
1415		-11.718750
1416		-15.625000
1417		-11.718750
1418		-15.625000
1419		-13.671875
1420		-17.578125
1421		-13.671875
1422		-17.578125
1423		-13.671875
1424		-19.531250
1425		-13.671875
1426		-23.437500
1427		-15.625000
1428		-23.437500
1429		-15.625000
1430		-21.484375
1431		-17.578125
1432		-23.437500
1433		-19.531250
1434		-23.437500
1435		-19.531250
1436		-23.437500
1437		-21.484375
1438		-25.390625
1439		-21.484375
1440		-27.343750
1441		-19.531250
1442		-27.343750
1443		-21.484375
1444		-29.296875
1445		-21.484375
1446		-27.343750
1447		-25.390625
1448		-29.296875
1449		-25.390625
1450		-31.250000
1451		-25.390625
1452		-29.296875
1453		-27.343750
1454		-31.250000
1455		-27.343750
1456		-31.250000
1457		-27.343750
1458		-33.203125
1459		-27.343750
1460		-35.156250
1461		-27.343750
1462		-35.156250
1463		-29.296875
1464		-35.156250
1465		-31.250000
1466		-35.156250
1467		-31.250000
1468		-35.156250
1469		-33.203125
1470		-35.156250
1471		-33.203125
1472		-37.109375
1473		-31.250000
1474		-39.062500
1475		-31.250000
1476		-37.109375
1477		-35.156250
1478		-41.015625
1479		-33.203125
1480		-39.062500
1481		-35.156250
1482		-39.062500
1483		-35.156250
1484		-39.062500
1485		-35.156250
1486		-39.062500
1487		-37.109375
1488		-41.015625
1489		-35.156250
1490		-42.968750
1491		-35.156250
1492		-41.015625
1493		-35.156250
1494		-42.968750
1495		-35.156250
1496		-42.968750
1497		-35.156250
1498		-41.015625
1499		-37.109375
1500		-41.015625
1501		-37.109375
1502		-41.015625
1503		-39.062500
1504		-41.015625
1505		-39.062500
1506		-42.968750
1507		-35.156250
1508		-42.968750
1509		-35.156250
1510		-42.968750
1511		-35.156250
1512		-42.968750
1513		-35.156250
1514		-41.015625
1515		-37.109375
1516		-41.015625
1517		-37.109375
1518		-41.015625
1519		-37.109375
1520		-41.015625
1521		-39.062500
1522		-41.015625
1523		-37.109375
1524		-41.015625
1525		-35.156250
1526		-41.015625
1527		-37.109375
1528		-41.015625
1529		-35.156250
1530		-39.062500
1531		-37.109375
1532		-39.062500
1533		-37.109375
1534		-39.062500
1535		-35.156250
1536		-39.062500
1537		-37.109375
1538		-39.062500
1539		-35.156250
1540		-39.062500
1541		-33.203125
1542		-39.062500
1543		-33.203125
1544		-39.062500
1545		-31.250000
1546		-39.062500
1547		-31.250000
1548		-35.156250
1549		-33.203125
1550		-35.156250
1551		-33.203125
1552		-35.156250
1553		-31.250000
1554		-35.156250
1555		-31.250000
1556		-37.109375
1557		-29.296875
1558		-35.156250
1559		-29.296875
1560		-33.203125
1561		-29.296875
1562		-35.156250
1563		-27.343750
1564		-31.250000
1565		-27.343750
1566		-31.250000
1567		-27.343750
1568		-31.250000
1569		-27.343750
1570		-29.296875
1571		-27.343750
1572		-29.296875
1573		-25.390625
1574		-29.296875
1575		-23.437500
1576		-27.343750
1577		-23.437500
1578		-27.343750
1579		-19.531250
1580		-29.296875
1581		-21.484375
1582		-25.390625
1583		-21.484375
1584		-25.390625
1585		-19.531250
1586		-23.437500
1587		-21.484375
1588		-21.484375
1589		-19.531250
1590		-23.437500
1591		-17.578125
1592		-23.437500
1593		-15.625000
1594		-19.531250
1595		-15.625000
1596		-21.484375
1597		-13.671875
1598		-19.531250
1599		-15.625000
1600		-17.578125
1601		-13.671875
1602		-17.578125
1603		-13.671875
1604		-15.625000
1605		-13.671875
1606		-17.578125
1607		-9.765625
1608		-15.625000
1609		-9.765625
1610		-13.671875
1611		-9.765625
1612		-13.671875
1613		-5.859375
1614		-11.718750
1615		-7.812500
1616		-11.718750
1617		-7.812500
1618		-9.765625
1619		-5.859375
1620		-7.812500
1621		-5.859375
1622		-7.812500
1623		-3.906250
1624		-7.812500
1625		-1.953125
1626		-5.859375
1627		-1.953125
1628		-5.859375
1629		0.000000
1630		-5.859375
1631		0.000000
1632		-1.953125
1633		0.000000
1634		-1.953125
1635		0.000000
1636		-1.953125
1637		1.953125
1638		0.000000
1639		3.906250
1640		0.000000
1641		5.859375
1642		0.000000
1643		5.859375
1644		1.953125
1645		5.859375
1646		1.953125
1647		9.765625
1648		3.906250
1649		7.812500
1650		3.906250
1651		9.765625
1652		5.859375
1653		9.765625
1654		7.812500
1655		9.765625
1656		7.812500
1657		11.718750
1658		5.859375
1659		15.625000
1660		9.765625
1661		13.671875
1662		7.812500
1663		15.625000
1664		7.812500
1665		15.625000
1666		11.718750
1667		15.625000
1668		13.671875
1669		17.578125
1670		13.671875
1671		15.625000
1672		15.625000
1673		17.578125
1674		13.671875
1675		21.484375
1676		13.671875
1677		21.484375
1678		15.625000
1679		21.484375
1680		15.625000
1681		23.437500
1682		17.578125
1683		21.484375
1684		17.578125
1685		21.484375
1686		19.531250
1687		23.437500
1688		21.484375
1689		23.437500
1690		19.531250
1691		25.390625
1692		19.531250
1693		27.343750
1694		21.484375
1695		25.390625
1696		19.531250
1697		29.296875
1698		23.437500
1699		27.343750
1700		23.437500
1701		27.343750
1702		23.437500
1703		27.343750
1704		25.390625
1705		27.343750
1706		25.390625
1707		27.343750
1708		23.437500
1709		31.250000
1710		23.437500
1711		31.250000
1712		25.390625
1713		31.250000
1714		23.437500
1715		33.203125
1716		27.343750
1717		31.250000
1718		27.343750
1719		31.250000
1720		27.343750
1721		31.250000
1722		29.296875
1723		31.250000
1724		25.390625
1725		35.156250
1726		27.343750
1727		35.156250
1728		29.296875
1729		33.203125
1730		27.343750
1731		35.156250
1732		29.296875
1733		33.203125
1734		29.296875
1735		33.203125
1736		29.296875
1737		35.156250
1738		31.250000
1739		33.203125
1740		29.296875
1741		33.203125
1742		29.296875
1743		37.109375
1744		31.250000
1745		33.203125
1746		29.296875
1747		35.156250
1748		27.343750
1749		37.109375
1750		31.250000
1751		35.156250
1752		31.250000
1753		35.156250
1754		31.250000
1755		33.203125
1756		31.250000
1757		33.203125
1758		29.296875
1759		35.156250
1760		29.296875
1761		35.156250
1762		31.250000
1763		33.203125
1764		27.343750
1765		37.109375
1766		29.296875
1767		33.203125
1768		29.296875
1769		33.203125
1770		29.296875
1771		33.203125
1772		29.296875
1773		31.250000
1774		27.343750
1775		33.203125
1776		27.343750
1777		33.203125
1778		29.296875
1779		31.250000
1780		25.390625
1781		33.203125
1782		27.343750
1783		31.250000
1784		27.343750
1785		31.250000
1786		25.390625
1787		31.250000
1788		27.343750
1789		29.296875
1790		27.343750
1791		29.296875
1792		23.437500
1793		31.250000
1794		23.437500
1795		29.296875
1796		25.390625
1797		27.343750
1798		21.484375
1799		29.296875
1800		23.437500
1801		27.343750
1802		21.484375
1803		27.343750
1804		21.484375
1805		27.343750
1806		21.484375
1807		25.390625
1808		19.531250
1809		25.390625
1810		19.531250
1811		25.390625
1812		19.531250
1813		23.437500
1814		15.625000
1815		25.390625
1816		17.578125
1817		21.484375
1818		17.578125
1819		21.484375
1820		15.625000
1821		21.484375
1822		17.578125
1823		19.531250
1824		13.671875
1825		19.531250
1826		11.718750
1827		21.484375
1828		13.671875
1829		17.578125
1830		9.765625
1831		17.578125
1832		9.765625
1833		17.578125
1834		11.718750
1835		15.625000
1836		7.812500
1837		15.625000
1838		9.765625
1839		11.718750
1840		7.812500
1841		11.718750
1842		5.859375
1843		13.671875
1844		5.859375
1845		11.718750
1846		5.859375
1847		9.765625
1848		3.906250
1849		11.718750
1850		3.906250
1851		7.812500
1852		1.953125
1853		7.812500
1854		1.953125
1855		7.812500
1856		1.953125
1857		3.906250
1858		0.000000
1859		5.859375
1860		-1.953125
1861		3.906250
1862		-1.953125
1863		1.953125
1864		-5.859375
1865		3.906250
1866		-5.859375
1867		1.953125
1868		-5.859375
1869		1.953125
1870		-7.812500
1871		0.000000
1872		-5.859375
1873		-3.906250
1874		-7.812500
1875		-3.906250
1876		-11.718750
1877		-1.953125
1878		-11.718750
1879		-3.906250
1880		-9.765625
1881		-5.859375
1882		-13.671875
1883		-5.859375
1884		-11.718750
1885		-9.765625
1886		-15.625000
1887		-7.812500
1888		-15.625000
1889		-9.765625
1890		-13.671875
1891		-11.718750
1892		-17.578125
1893		-9.765625
1894		-19.531250
1895		-11.718750
1896		-17.578125
1897		-13.671875
1898		-21.484375
1899		-13.671875
1900		-19.531250
1901		-15.625000
1902		-21.484375
1903		-15.625000
1904		-23.437500
1905		-17.578125
1906		-21.484375
1907		-19.531250
1908		-23.437500
1909		-19.531250
1910		-27.343750
1911		-17.578125
1912		-25.390625
1913		-21.484375
1914		-27.343750
1915		-21.484375
1916		-27.343750
1917		-19.531250
1918		-27.343750
1919		-23.437500
1920		-31.250000
1921		-21.484375
1922		-27.343750
1923		-25.390625
1924		-29.296875
1925		-27.343750
1926		-31.250000
1927		-25.390625
1928		-33.203125
1929		-25.390625
1930		-31.250000
1931		-27.343750
1932		-35.156250
1933		-27.343750
1934		-33.203125
1935		-29.296875
1936		-35.156250
1937		-27.343750
1938		-35.156250
1939		-29.296875
1940		-33.203125
1941		-31.250000
1942		-37.109375
1943		-29.296875
1944		-37.109375
1945		-31.250000
1946		-37.109375
1947		-33.203125
1948		-39.062500
1949		-31.250000
1950		-39.062500
1951		-31.250000
1952		-39.062500
1953		-31.250000
1954		-41.015625
1955		-31.250000
1956		-37.109375
1957		-35.156250
1958		-37.109375
1959		-35.156250
1960		-41.015625
1961		-33.203125
1962		-41.015625
1963		-33.203125
1964		-39.062500
1965		-35.156250
1966		-41.015625
1967		-33.203125
1968		-39.062500
1969		-37.109375
1970		-42.968750
1971		-33.203125
1972		-41.015625
1973		-35.156250
1974		-39.062500
1975		-37.109375
1976		-42.968750
1977		-35.156250
1978		-42.968750
1979		-35.156250
1980		-41.015625
1981		-37.109375
1982		-41.015625
1983		-35.156250
1984		-41.015625
1985		-37.109375
1986		-42.968750
1987		-35.156250
1988		-42.968750
1989		-35.156250
1990		-41.015625
1991		-37.109375
1992		-39.062500
1993		-37.109375
1994		-42.968750
1995		-35.156250
1996		-39.062500
1997		-37.109375
1998		-41.015625
1999		-35.156250
2000		-42.968750
2001		-35.156250
2002		-39.062500
2003		-37.109375
2004		-42.968750
2005		-33.203125
2006		-39.062500
2007		-35.156250
2008		-37.109375
2009		-37.109375
2010		-39.062500
2011		-33.203125
2012		-41.015625
2013		-33.203125
2014		-37.109375
2015		-33.203125
2016		-39.062500
2017		-31.250000
2018		-37.109375
2019		-33.203125
2020		-39.062500
2021		-31.250000
2022		-39.062500
2023		-31.250000
2024		-35.156250
2025		-33.203125
2026		-35.156250
2027		-31.250000
2028		-37.109375
2029		-29.296875
2030		-33.203125
2031		-31.250000
2032		-35.156250
2033		-27.343750
2034		-35.156250
2035		-27.343750
2036		-33.203125
2037		-27.343750
2038		-33.203125
2039		-25.390625
2040		-31.250000
2041		-27.343750
2042		-29.296875
2043		-27.343750
2044		-31.250000
2045		-23.437500
2046		-31.250000
2047		-23.437500
2048		-29.296875
2049		-23.437500
2050		-29.296875
2051		-21.484375
2052		-27.343750
2053		-23.437500
2054		-29.296875
2055		-19.531250
2056		-27.343750
2057		-21.484375
2058		-23.437500
2059		-21.484375
2060		-25.390625
2061		-17.578125
2062		-25.390625
2063		-17.578125
2064		-21.484375
2065		-17.578125
2066		-23.437500
2067		-15.625000
2068		-21.484375
2069		-15.625000
2070		-21.484375
2071		-13.671875
2072		-19.531250
2073		-13.671875
2074		-17.578125
2075		-15.625000
2076		-17.578125
2077		-13.671875
2078		-17.578125
2079		-9.765625
2080		-17.578125
2081		-9.765625
2082		-13.671875
2083		-7.812500
2084		-15.625000
2085		-7.812500
2086		-11.718750
2087		-7.812500
2088		-13.671875
2089		-5.859375
2090		-11.718750
2091		-5.859375
2092		-9.765625
2093		-5.859375
2094		-9.765625
2095		-3.906250
2096		-9.765625
2097		-3.906250
2098		-5.859375
2099		-1.953125
2100		-7.812500
2101		0.000000
2102		-5.859375
2103		-1.953125
2104		-5.859375
2105		1.953125
2106		-3.906250
2107		1.953125
2108		-1.953125
2109		1.953125
2110		-1.953125
2111		3.906250
2112		-3.906250
2113		5.859375
2114		0.000000
2115		3.906250
2116		0.000000
2117		7.812500
2118		0.000000
2119		7.812500
2120		1.953125
2121		9.765625
2122		1.953125
2123		9.765625
2124		5.859375
2125		7.812500
2126		5.859375
2127		9.765625
2128		3.906250
2129		13.671875
2130		5.859375
2131		13.671875
2132		7.812500
2133		11.718750
2134		7.812500
2135		15.625000
2136		9.765625
2137		15.625000
2138		7.812500
2139		17.578125
2140		9.765625
2141		17.578125
2142		13.671875
2143		15.625000
2144		11.718750
2145		19.531250
2146		11.718750
2147		19.531250
2148		15.625000
2149		19.531250
2150		13.671875
2151		21.484375
2152		15.625000
2153		21.484375
2154		15.625000
2155		23.437500
2156		15.625000
2157		23.437500
2158		19.531250
2159		21.484375
2160		17.578125
2161		23.437500
2162		17.578125
2163		25.390625
2164		19.531250
2165		25.390625
2166		21.484375
2167		25.390625
2168		19.531250
2169		27.343750
2170		21.484375
2171		27.343750
2172		21.484375
2173		29.296875
2174		23.437500
2175		27.343750
2176		25.390625
2177		27.343750
2178		23.437500
2179		31.250000
2180		23.437500
2181		31.250000
2182		25.390625
2183		29.296875
2184		23.437500
2185		33.203125
2186		27.343750
2187		31.250000
2188		25.390625
2189		33.203125
2190		27.343750
2191		33.203125
2192		27.343750
2193		31.250000
2194		27.343750
2195		33.203125
2196		25.390625
2197		35.156250
2198		29.296875
2199		33.203125
2200		27.343750
2201		35.156250
2202		27.343750
2203		35.156250
2204		29.296875
2205		35.156250
2206		27.343750
2207		35.156250
2208		31.250000
2209		33.203125
2210		31.250000
2211		33.203125
2212		29.296875
2213		37.109375
2214		27.343750
2215		37.109375
2216		31.250000
2217		35.156250
2218		29.296875
2219		37.109375
2220		31.250000
2221		35.156250
2222		29.296875
2223		37.109375
2224		29.296875
2225		37.109375
2226		31.250000
2227		33.203125
2228		29.296875
2229		37.109375
2230		29.296875
2231		37.109375
2232		31.250000
2233		35.156250
2234		29.296875
2235		37.109375
2236		29.296875
2237		37.109375
2238		29.296875
2239		37.109375
2240		29.296875
2241		35.156250
2242		31.250000
2243		33.203125
2244		31.250000
2245		33.203125
2246		27.343750
2247		35.156250
2248		27.343750
2249		33.203125
2250		29.296875
2251		33.203125
2252		25.390625
2253		35.156250
2254		29.296875
2255		33.203125
2256		25.390625
2257		33.203125
2258		29.296875
2259		31.250000
2260		27.343750
2261		31.250000
2262		25.390625
2263		31.250000
2264		25.390625
2265		33.203125
2266		27.343750
2267		29.296875
2268		23.437500
2269		31.250000
2270		25.390625
2271		31.250000
2272		23.437500
2273		31.250000
2274		21.484375
2275		29.296875
2276		23.437500
2277		27.343750
2278		23.437500
2279		25.390625
2280		19.531250
2281		29.296875
2282		21.484375
2283		25.390625
2284		19.531250
2285		27.343750
2286		17.578125
2287		27.343750
2288		17.578125
2289		25.390625
2290		15.625000
2291		25.390625
2292		19.531250
2293		21.484375
2294		17.578125
2295		21.484375
2296		15.625000
2297		23.437500
2298		13.671875
2299		21.484375
2300		15.625000
2301		19.531250
2302		11.718750
2303		21.484375
2304		13.671875
2305		17.578125
2306		11.718750
2307		19.531250
2308		9.765625
2309		17.578125
2310		11.718750
2311		13.671875
2312		7.812500
2313		15.625000
2314		7.812500
2315		15.625000
2316		7.812500
2317		11.718750
2318		5.859375
2319		13.671875
2320		5.859375
2321		13.671875
2322		3.906250
2323		11.718750
2324		3.906250
2325		11.718750
2326		5.859375
2327		7.812500
2328		3.906250
2329		5.859375
2330		0.000000
2331		7.812500
2332		0.000000
2333		5.859375
2334		0.000000
2335		3.906250
2336		-1.953125
2337		5.859375
2338		-3.906250
2339		3.906250
2340		-3.906250
2341		3.906250
2342		-3.906250
2343		1.953125
2344		-3.906250
2345		-1.953125
2346		-7.812500
2347		0.000000
2348		-7.812500
2349		0.000000
2350		-7.812500
2351		-3.906250
2352		-11.718750
2353		-1.953125
2354		-9.765625
2355		-3.906250
2356		-13.671875
2357		-3.906250
2358		-11.718750
2359		-5.859375
2360		-11.718750
2361		-9.765625
2362		-15.625000
2363		-9.765625
2364		-15.625000
2365		-7.812500
2366		-13.671875
2367		-11.718750
2368		-19.531250
2369		-11.718750
2370		-19.531250
2371		-11.718750
2372		-19.531250
2373		-11.718750
2374		-19.531250
2375		-11.718750
2376		-19.531250
2377		-15.625000
2378		-19.531250
2379		-17.578125
2380		-23.437500
2381		-15.625000
2382		-23.437500
2383		-15.625000
2384		-23.437500
2385		-19.531250
2386		-25.390625
2387		-17.578125
2388		-23.437500
2389		-21.484375
2390		-27.343750
2391		-19.531250
2392		-27.343750
2393		-19.531250
2394		-25.390625
2395		-23.437500
2396		-29.296875
2397		-23.437500
2398		-29.296875
2399		-23.437500
2400		-29.296875
2401		-25.390625
2402		-33.203125
2403		-23.437500
2404		-31.250000
2405		-25.390625
2406		-33.203125
2407		-25.390625
2408		-33.203125
2409		-25.390625
2410		-31.250000
2411		-29.296875
2412		-31.250000
2413		-29.296875
2414		-35.156250
2415		-27.343750
2416		-35.156250
2417		-27.343750
2418		-35.156250
2419		-31.250000
2420		-37.109375
2421		-29.296875
2422		-37.109375
2423		-31.250000
2424		-39.062500
2425		-29.296875
2426		-37.109375
2427		-31.250000
2428		-37.109375
2429		-33.203125
2430		-39.062500
2431		-33.203125
2432		-39.062500
2433		-31.250000
2434		-39.062500
2435		-35.156250
2436		-39.062500
2437		-33.203125
2438		-41.015625
2439		-33.203125
2440		-41.015625
2441		-33.203125
2442		-41.015625
2443		-33.203125
2444		-39.062500
2445		-37.109375
2446		-41.015625
2447		-35.156250
2448		-42.968750
2449		-35.156250
2450		-41.015625
2451		-35.156250
2452		-41.015625
2453		-35.156250
2454		-41.015625
2455		-35.156250
2456		-41.015625
2457		-35.156250
2458		-42.968750
2459		-33.203125
2460		-39.062500
2461		-37.109375
2462		-39.062500
2463		-37.109375
2464		-41.015625
2465		-35.156250
2466		-41.015625
2467		-35.156250
2468		-41.015625
2469		-35.156250
2470		-41.015625
2471		-33.203125
2472		-41.015625
2473		-35.156250
2474		-41.015625
2475		-33.203125
2476		-41.015625
2477		-35.156250
2478		-39.062500
2479		-35.156250
2480		-39.062500
2481		-33.203125
2482		-41.015625
2483		-33.203125
2484		-39.062500
2485		-33.203125
2486		-39.062500
2487		-31.250000
2488		-39.062500
2489		-31.250000
2490		-39.062500
2491		-31.250000
2492		-39.062500
2493		-29.296875
2494		-35.156250
2495		-33.203125
2496		-35.156250
2497		-33.203125
2498		-37.109375
2499		-29.296875
2500		-37.109375
2501		-29.296875
2502		-35.156250
2503		-29.296875
2504		-35.156250
2505		-27.343750
2506		-33.203125
2507		-27.343750
2508		-35.156250
2509		-27.343750
2510		-33.203125
2511		-27.343750
2512		-31.250000
2513		-29.296875
2514		-33.203125
2515		-23.437500
2516		-31.250000
2517		-25.390625
2518		-29.296875
2519		-25.390625
2520		-29.296875
2521		-23.437500
2522		-29.296875
2523		-23.437500
2524		-29.296875
2525		-21.484375
2526		-29.296875
2527		-21.484375
2528		-25.390625
2529		-23.437500
2530		-25.390625
2531		-19.531250
2532		-27.343750
2533		-17.578125
2534		-23.437500
2535		-19.531250
2536		-21.484375
2537		-19.531250
2538		-23.437500
2539		-15.625000
2540		-23.437500
2541		-15.625000
2542		-21.484375
2543		-13.671875
2544		-17.578125
2545		-15.625000
2546		-17.578125
2547		-15.625000
2548		-19.531250
2549		-11.718750
2550		-19.531250
2551		-11.718750
2552		-15.625000
2553		-11.718750
2554		-17.578125
2555		-7.812500
2556		-13.671875
2557		-9.765625
2558		-13.671875
2559		-5.859375
2560		-13.671875
2561		-5.859375
2562		-9.765625
2563		-7.812500
2564		-11.718750
2565		-3.906250
2566		-11.718750
2567		-3.906250
2568		-7.812500
2569		-3.906250
2570		-7.812500
2571		-3.906250
2572		-7.812500
2573		-1.953125
2574		-7.812500
2575		0.000000
2576		-5.859375
2577		1.953125
2578		-3.906250
2579		0.000000
2580		-1.953125
2581		0.000000
2582		-3.906250
2583		3.906250
2584		-3.906250
2585		3.906250
2586		0.000000
2587		3.906250
2588		0.000000
2589		5.859375
2590		1.953125
2591		7.812500
2592		0.000000
2593		7.812500
2594		1.953125
2595		9.765625
2596		3.906250
2597		7.812500
2598		3.906250
2599		11.718750
2600		3.906250
2601		11.718750
2602		7.812500
2603		11.718750
2604		5.859375
2605		11.718750
2606		7.812500
2607		13.671875
2608		7.812500
2609		15.625000
2610		7.812500
2611		15.625000
2612		11.718750
2613		15.625000
2614		13.671875
2615		15.625000
2616		11.718750
2617		19.531250
2618		13.671875
2619		17.578125
2620		15.625000
2621		17.578125
2622		13.671875
2623		21.484375
2624		15.625000
2625		21.484375
2626		13.671875
2627		23.437500
2628		17.578125
2629		21.484375
2630		19.531250
2631		21.484375
2632		17.578125
2633		25.390625
2634		17.578125
2635		25.390625
2636		21.484375
2637		23.437500
2638		19.531250
2639		27.343750
2640		21.484375
2641		27.343750
2642		19.531250
2643		27.343750
2644		21.484375
2645		27.343750
2646		23.437500
2647		27.343750
2648		21.484375
2649		29.296875
2650		21.484375
2651		31.250000
2652		25.390625
2653		29.296875
2654		25.390625
2655		29.296875
2656		23.437500
2657		31.250000
2658		25.390625
2659		33.203125
2660		25.390625
2661		33.203125
2662		27.343750
2663		31.250000
2664		29.296875
2665		31.250000
2666		25.390625
2667		35.156250
2668		27.343750
2669		33.203125
2670		29.296875
2671		33.203125
2672		27.343750
2673		35.156250
2674		27.343750
2675		35.156250
2676		27.343750
2677		35.156250
2678		29.296875
2679		35.156250
2680		31.250000
2681		33.203125
2682		27.343750
2683		37.109375
2684		29.296875
2685		37.109375
2686		31.250000
2687		35.156250
2688		29.296875
2689		35.156250
2690		29.296875
2691		37.109375
2692		29.296875
2693		37.109375
2694		29.296875
2695		37.109375
2696		33.203125
2697		35.156250
2698		31.250000
2699		35.156250
2700		29.296875
2701		37.109375
2702		31.250000
2703		35.156250
2704		31.250000
2705		35.156250
2706		29.296875
2707		37.109375
2708		29.296875
2709		37.109375
2710		29.296875
2711		37.109375
2712		31.250000
2713		35.156250
2714		31.250000
2715		33.203125
2716		27.343750
2717		35.156250
2718		29.296875
2719		35.156250
2720		31.250000
2721		33.203125
2722		27.343750
2723		35.156250
2724		29.296875
2725		35.156250
2726		27.343750
2727		35.156250
2728		27.343750
2729		35.156250
2730		29.296875
2731		31.250000
2732		27.343750
2733		35.156250
2734		25.390625
2735		33.203125
2736		27.343750
2737		31.250000
2738		27.343750
2739		31.250000
2740		25.390625
2741		33.203125
2742		23.437500
2743		31.250000
2744		23.437500
2745		31.250000
2746		25.390625
2747		29.296875
2748		25.390625
2749		27.343750
2750		21.484375
2751		31.250000
2752		21.484375
2753		29.296875
2754		23.437500
2755		27.343750
2756		19.531250
2757		27.343750
2758		19.531250
2759		27.343750
2760		19.531250
2761		27.343750
2762		19.531250
2763		25.390625
2764		21.484375
2765		23.437500
2766		17.578125
2767		25.390625
2768		15.625000
2769		23.437500
2770		17.578125
2771		21.484375
2772		15.625000
2773		21.484375
2774		13.671875
2775		21.484375
2776		13.671875
2777		21.484375
2778		13.671875
2779		21.484375
2780		13.671875
2781		17.578125
2782		13.671875
2783		15.625000
2784		9.765625
2785		17.578125
2786		11.718750
2787		15.625000
2788		9.765625
2789		13.671875
2790		7.812500
2791		15.625000
2792		5.859375
2793		13.671875
2794		5.859375
2795		13.671875
2796		5.859375
2797		11.718750
2798		5.859375
2799		9.765625
2800		3.906250
2801		9.765625
2802		1.953125
2803		7.812500
2804		3.906250
2805		5.859375
2806		0.000000
2807		7.812500
2808		0.000000
2809		5.859375
2810		-1.953125
2811		5.859375
2812		-1.953125
2813		5.859375
2814		-1.953125
2815		1.953125
2816		-5.859375
2817		1.953125
2818		-5.859375
2819		1.953125
2820		-3.906250
2821		-1.953125
2822		-5.859375
2823		-1.953125
2824		-7.812500
2825		0.000000
2826		-9.765625
2827		-1.953125
2828		-9.765625
2829		-1.953125
2830		-7.812500
2831		-5.859375
2832		-9.765625
2833		-7.812500
2834		-13.671875
2835		-5.859375
2836		-13.671875
2837		-5.859375
2838		-13.671875
2839		-9.765625
2840		-15.625000
2841		-7.812500
2842		-15.625000
2843		-9.765625
2844		-17.578125
2845		-9.765625
2846		-17.578125
2847		-11.718750
2848		-17.578125
2849		-13.671875
2850		-21.484375
2851		-15.625000
2852		-21.484375
2853		-13.671875
2854		-19.531250
2855		-17.578125
2856		-21.484375
2857		-15.625000
2858		-25.390625
2859		-15.625000
2860		-25.390625
2861		-17.578125
2862		-25.390625
2863		-17.578125
2864		-23.437500
2865		-21.484375
2866		-25.390625
2867		-21.484375
2868		-27.343750
2869		-21.484375
2870		-27.343750
2871		-23.437500
2872		-27.343750
2873		-23.437500
2874		-31.250000
2875		-21.484375
2876		-31.250000
2877		-23.437500
2878		-31.250000
2879		-23.437500
2880		-29.296875
2881		-27.343750
2882		-29.296875
2883		-27.343750
2884		-33.203125
2885		-27.343750
2886		-33.203125
2887		-27.343750
2888		-33.203125
2889		-29.296875
2890		-37.109375
2891		-27.343750
2892		-35.156250
2893		-27.343750
2894		-37.109375
2895		-29.296875
2896		-35.156250
2897		-29.296875
2898		-35.156250
2899		-33.203125
2900		-35.156250
2901		-31.250000
2902		-39.062500
2903		-31.250000
2904		-37.109375
2905		-33.203125
2906		-37.109375
2907		-33.203125
2908		-39.062500
2909		-31.250000
2910		-41.015625
2911		-33.203125
2912		-41.015625
2913		-33.203125
2914		-37.109375
2915		-35.156250
2916		-37.109375
2917		-35.156250
2918		-41.015625
2919		-33.203125
2920		-41.015625
2921		-33.203125
2922		-39.062500
2923		-35.156250
2924		-41.015625
2925		-33.203125
2926		-41.015625
2927		-35.156250
2928		-41.015625
2929		-33.203125
2930		-41.015625
2931		-35.156250
2932		-39.062500
2933		-37.109375
2934		-41.015625
2935		-35.156250
2936		-41.015625
2937		-33.203125
2938		-39.062500
2939		-35.156250
2940		-39.062500
2941		-35.156250
2942		-42.968750
2943		-33.203125
2944		-41.015625
2945		-33.203125
2946		-41.015625
2947		-33.203125
2948		-39.062500
2949		-37.109375
2950		-39.062500
2951		-35.156250
2952		-41.015625
2953		-33.203125
2954		-39.062500
2955		-35.156250
2956		-37.109375
2957		-35.156250
2958		-41.015625
2959		-31.250000
2960		-39.062500
2961		-31.250000
2962		-39.062500
2963		-31.250000
2964		-37.109375
2965		-33.203125
2966		-35.156250
2967		-33.203125
2968		-37.109375
2969		-31.250000
2970		-37.109375
2971		-29.296875
2972		-35.156250
2973		-31.250000
2974		-37.109375
2975		-29.296875
2976		-35.156250
2977		-27.343750
2978		-35.156250
2979		-27.343750
2980		-35.156250
2981		-27.343750
2982		-31.250000
2983		-29.296875
2984		-33.203125
2985		-27.343750
2986		-33.203125
2987		-25.390625
2988		-29.296875
2989		-27.343750
2990		-29.296875
2991		-27.343750
2992		-31.250000
2993		-23.437500
2994		-29.296875
2995		-23.437500
2996		-29.296875
2997		-21.484375
2998		-27.343750
2999		-23.437500
3000		-25.390625
3001		-23.437500
3002		-27.343750
3003		-19.531250
3004		-27.343750
3005		-19.531250
3006		-23.437500
3007		-19.531250
3008		-25.390625
3009		-17.578125
3010		-23.437500
3011		-17.578125
3012		-23.437500
3013		-15.625000
3014		-23.437500
3015		-17.578125
3016		-19.531250
3017		-17.578125
3018		-19.531250
3019		-13.671875
3020		-19.531250
3021		-13.671875
3022		-17.578125
3023		-13.671875
3024		-15.625000
3025		-13.671875
3026		-17.578125
3027		-9.765625
3028		-15.625000
3029		-7.812500
3030		-15.625000
3031		-9.765625
3032		-13.671875
3033		-9.765625
3034		-11.718750
3035		-9.765625
3036		-13.671875
3037		-5.859375
3038		-11.718750
3039		-5.859375
3040		-9.765625
3041		-5.859375
3042		-9.765625
3043		-1.953125
3044		-9.765625
3045		-1.953125
3046		-7.812500
3047		0.000000
3048		-5.859375
3049		-1.953125
3050		-3.906250
3051		-1.953125
3052		-5.859375
3053		1.953125
3054		-3.906250
3055		1.953125
3056		-1.953125
3057		1.953125
3058		-1.953125
3059		5.859375
3060		-1.953125
3061		5.859375
3062		0.000000
3063		7.812500
3064		0.000000
3065		5.859375
3066		1.953125
3067		5.859375
3068		3.906250
3069		7.812500
3070		1.953125
3071		9.765625
3072		5.859375
3073		9.765625
3074		5.859375
3075		9.765625
3076		5.859375
3077		13.671875
3078		5.859375
3079		13.671875
3080		7.812500
3081		13.671875
3082		9.765625
3083		13.671875
3084		11.718750
3085		13.671875
3086		9.765625
3087		15.625000
3088		9.765625
3089		17.578125
3090		11.718750
3091		17.578125
3092		11.718750
3093		19.531250
3094		13.671875
3095		19.531250
3096		13.671875
3097		21.484375
3098		13.671875
3099		19.531250
3100		17.578125
3101		21.484375
3102		15.625000
3103		23.437500
3104		17.578125
3105		23.437500
3106		19.531250
3107		23.437500
3108		19.531250
3109		23.437500
3110		19.531250
3111		27.343750
3112		19.531250
3113		27.343750
3114		19.531250
3115		27.343750
3116		23.437500
3117		25.390625
3118		23.437500
3119		25.390625
3120		21.484375
3121		29.296875
3122		23.437500
3123		29.296875
3124		25.390625
3125		27.343750
3126		23.437500
3127		31.250000
3128		23.437500
3129		31.250000
3130		25.390625
3131		33.203125
3132		25.390625
3133		31.250000
3134		27.343750
3135		29.296875
3136		25.390625
3137		33.203125
3138		25.390625
3139		33.203125
3140		29.296875
3141		33.203125
3142		27.343750
3143		35.156250
3144		27.343750
3145		35.156250
3146		27.343750
3147		35.156250
3148		29.296875
3149		35.156250
3150		31.250000
3151		33.203125
3152		29.296875
3153		35.156250
3154		29.296875
3155		35.156250
3156		31.250000
3157		35.156250
3158		31.250000
3159		35.156250
3160		29.296875
3161		37.109375
3162		29.296875
3163		37.109375
3164		31.250000
3165		35.156250
3166		33.203125
3167		35.156250
3168		31.250000
3169		35.156250
3170		29.296875
3171		37.109375
3172		29.296875
3173		37.109375
3174		31.250000
3175		35.156250
3176		29.296875
3177		39.062500
3178		29.296875
3179		37.109375
3180		31.250000
3181		37.109375
3182		31.250000
3183		35.156250
3184		33.203125
3185		35.156250
3186		29.296875
3187		37.109375
3188		29.296875
3189		37.109375
3190		31.250000
3191		35.156250
3192		31.250000
3193		35.156250
3194		27.343750
3195		37.109375
3196		29.296875
3197		35.156250
3198		29.296875
3199		35.156250
3200		31.250000
3201		33.203125
3202		31.250000
3203		33.203125
3204		27.343750
3205		35.156250
3206		29.296875
3207		35.156250
3208		29.296875
3209		33.203125
3210		25.390625
3211		33.203125
3212		25.390625
3213		33.203125
3214		27.343750
3215		31.250000
3216		27.343750
3217		31.250000
3218		27.343750
3219		29.296875
3220		23.437500
3221		31.250000
3222		23.437500
3223		31.250000
3224		25.390625
3225		29.296875
3226		23.437500
3227		29.296875
3228		21.484375
3229		29.296875
3230		23.437500
3231		29.296875
3232		23.437500
3233		25.390625
3234		23.437500
3235		25.390625
3236		21.484375
3237		23.437500
3238		17.578125
3239		25.390625
3240		19.531250
3241		23.437500
3242		19.531250
3243		23.437500
3244		17.578125
3245		23.437500
3246		15.625000
3247		21.484375
3248		15.625000
3249		21.484375
3250		17.578125
3251		19.531250
3252		15.625000
3253		19.531250
3254		13.671875
3255		19.531250
3256		11.718750
3257		19.531250
3258		13.671875
3259		17.578125
3260		9.765625
3261		17.578125
3262		9.765625
3263		15.625000
3264		7.812500
3265		15.625000
3266		9.765625
3267		13.671875
3268		9.765625
3269		11.718750
3270		3.906250
3271		13.671875
3272		5.859375
3273		11.718750
3274		5.859375
3275		9.765625
3276		5.859375
3277		9.765625
3278		1.953125
3279		9.765625
3280		1.953125
3281		9.765625
3282		1.953125
3283		5.859375
3284		1.953125
3285		3.906250
3286		0.000000
3287		3.906250
3288		-1.953125
3289		3.906250
3290		-1.953125
3291		1.953125
3292		-3.906250
3293		1.953125
3294		-5.859375
3295		1.953125
3296		-5.859375
3297		0.000000
3298		-7.812500
3299		0.000000
3300		-5.859375
3301		-1.953125
3302		-7.812500
3303		-3.906250
3304		-9.765625
3305		-3.906250
3306		-9.765625
3307		-5.859375
3308		-9.765625
3309		-7.812500
3310		-11.718750
3311		-7.812500
3312		-13.671875
3313		-7.812500
3314		-13.671875
3315		-9.765625
3316		-13.671875
3317		-9.765625
3318		-13.671875
3319		-11.718750
3320		-15.625000
3321		-13.671875
3322		-19.531250
3323		-11.718750
3324		-17.578125
3325		-13.671875
3326		-17.578125
3327		-15.625000
3328		-21.484375
3329		-13.671875
3330		-23.437500
3331		-15.625000
3332		-21.484375
3333		-17.578125
3334		-21.484375
3335		-17.578125
3336		-21.484375
3337		-19.531250
3338		-25.390625
3339		-19.531250
3340		-23.437500
3341		-21.484375
3342		-25.390625
3343		-21.484375
3344		-27.343750
3345		-21.484375
3346		-29.296875
3347		-21.484375
3348		-29.296875
3349		-21.484375
3350		-29.296875
3351		-23.437500
3352		-29.296875
3353		-25.390625
3354		-31.250000
3355		-25.390625
3356		-31.250000
3357		-25.390625
3358		-31.250000
3359		-27.343750
3360		-31.250000
3361		-27.343750
3362		-33.203125
3363		-27.343750
3364		-33.203125
3365		-27.343750
3366		-33.203125
3367		-29.296875
3368		-33.203125
3369		-31.250000
3370		-33.203125
3371		-31.250000
3372		-37.109375
3373		-29.296875
3374		-35.156250
3375		-31.250000
3376		-35.156250
3377		-31.250000
3378		-39.062500
3379		-31.250000
3380		-39.062500
3381		-31.250000
3382		-37.109375
3383		-31.250000
3384		-37.109375
3385		-35.156250
3386		-37.109375
3387		-35.156250
3388		-39.062500
3389		-33.203125
3390		-37.109375
3391		-35.156250
3392		-39.062500
3393		-35.156250
3394		-37.109375
3395		-35.156250
3396		-41.015625
3397		-33.203125
3398		-41.015625
3399		-33.203125
3400		-39.062500
3401		-35.156250
3402		-39.062500
3403		-37.109375
3404		-39.062500
3405		-35.156250
3406		-41.015625
3407		-35.156250
3408		-39.062500
3409		-37.109375
3410		-39.062500
3411		-35.156250
3412		-41.015625
3413		-33.203125
3414		-41.015625
3415		-33.203125
3416		-39.062500
3417		-35.156250
3418		-39.062500
3419		-35.156250
3420		-37.109375
3421		-35.156250
3422		-39.062500
3423		-33.203125
3424		-39.062500
3425		-35.156250
3426		-37.109375
3427		-35.156250
3428		-41.015625
3429		-31.250000
3430		-41.015625
3431		-31.250000
3432		-39.062500
3433		-31.250000
3434		-37.109375
3435		-33.203125
3436		-35.156250
3437		-33.203125
3438		-37.109375
3439		-31.250000
3440		-37.109375
3441		-33.203125
3442		-35.156250
3443		-33.203125
3444		-35.156250
3445		-31.250000
3446		-37.109375
3447		-29.296875
3448		-35.156250
3449		-29.296875
3450		-33.203125
3451		-29.296875
3452		-33.203125
3453		-29.296875
3454		-33.203125
3455		-29.296875
3456		-35.156250
3457		-29.296875
3458		-31.250000
3459		-29.296875
3460		-31.250000
3461		-27.343750
3462		-33.203125
3463		-23.437500
3464		-31.250000
3465		-23.437500
3466		-31.250000
3467		-25.390625
3468		-29.296875
3469		-23.437500
3470		-27.343750
3471		-25.390625
3472		-29.296875
3473		-21.484375
3474		-25.390625
3475		-23.437500
3476		-25.390625
3477		-21.484375
3478		-25.390625
3479		-19.531250
3480		-27.343750
3481		-17.578125
3482		-25.390625
3483		-17.578125
3484		-23.437500
3485		-17.578125
3486		-21.484375
3487		-17.578125
3488		-19.531250
3489		-17.578125
3490		-21.484375
3491		-13.671875
3492		-19.531250
3493		-15.625000
3494		-17.578125
3495		-13.671875
3496		-19.531250
3497		-11.718750
3498		-19.531250
3499		-9.765625
3500		-15.625000
3501		-11.718750
3502		-15.625000
3503		-11.718750
3504		-13.671875
3505		-11.718750
3506		-13.671875
3507		-7.812500
3508		-11.718750
3509		-7.812500
3510		-11.718750
3511		-7.812500
3512		-11.718750
3513		-3.906250
3514		-11.718750
3515		-3.906250
3516		-9.765625
3517		-3.906250
3518		-7.812500
3519		-3.906250
3520		-5.859375
3521		-3.906250
3522		-5.859375
3523		0.000000
3524		-3.906250
3525		-1.953125
3526		-3.906250
3527		0.000000
3528		-1.953125
3529		1.953125
3530		-3.906250
3531		3.906250
3532		-3.906250
3533		3.906250
3534		0.000000
3535		3.906250
3536		1.953125
3537		3.906250
3538		1.953125
3539		5.859375
3540		0.000000
3541		7.812500
3542		3.906250
3543		5.859375
3544		3.906250
3545		7.812500
3546		3.906250
3547		11.718750
3548		3.906250
3549		11.718750
3550		5.859375
3551		11.718750
3552		7.812500
3553		11.718750
3554		9.765625
3555		11.718750
3556		7.812500
3557		15.625000
3558		9.765625
3559		13.671875
3560		11.718750
3561		15.625000
3562		11.718750
3563		15.625000
3564		11.718750
3565		19.531250
3566		11.718750
3567		19.531250
3568		15.625000
3569		19.531250
3570		15.625000
3571		19.531250
3572		17.578125
3573		19.531250
3574		15.625000
3575		23.437500
3576		17.578125
3577		21.484375
3578		19.531250
3579		21.484375
3580		17.578125
3581		25.390625
3582		17.578125
3583		25.390625
3584		21.484375
3585		23.437500
3586		21.484375
3587		25.390625
3588		23.437500
3589		25.390625
3590		21.484375
3591		29.296875
3592		23.437500
3593		27.343750
3594		23.437500
3595		27.343750
3596		23.437500
3597		31.250000
3598		23.437500
3599		31.250000
3600		23.437500
3601		29.296875
3602		25.390625
3603		29.296875
3604		25.390625
3605		29.296875
3606		27.343750
3607		31.250000
3608		27.343750
3609		31.250000
3610		29.296875
3611		31.250000
3612		27.343750
3613		31.250000
3614		25.390625
3615		35.156250
3616		27.343750
3617		35.156250
3618		29.296875
3619		33.203125
3620		31.250000
3621		33.203125
3622		31.250000
3623		33.203125
3624		29.296875
3625		35.156250
3626		31.250000
3627		35.156250
3628		31.250000
3629		35.156250
3630		29.296875
3631		37.109375
3632		29.296875
3633		37.109375
3634		29.296875
3635		37.109375
3636		31.250000
3637		35.156250
3638		31.250000
3639		35.156250
3640		31.250000
3641		35.156250
3642		33.203125
3643		35.156250
3644		33.203125
3645		35.156250
3646		31.250000
3647		35.156250
3648		29.296875
3649		37.109375
3650		31.250000
3651		39.062500
3652		31.250000
3653		37.109375
3654		33.203125
3655		35.156250
3656		33.203125
3657		35.156250
3658		31.250000
3659		37.109375
3660		31.250000
3661		35.156250
3662		31.250000
3663		35.156250
3664		29.296875
3665		37.109375
3666		29.296875
3667		37.109375
3668		31.250000
3669		35.156250
3670		31.250000
3671		35.156250
3672		31.250000
3673		33.203125
3674		31.250000
3675		35.156250
3676		31.250000
3677		33.203125
3678		29.296875
3679		33.203125
3680		27.343750
3681		33.203125
3682		27.343750
3683		35.156250
3684		27.343750
3685		33.203125
3686		27.343750
3687		33.203125
3688		29.296875
3689		31.250000
3690		27.343750
3691		31.250000
3692		27.343750
3693		31.250000
3694		25.390625
3695		29.296875
3696		25.390625
3697		29.296875
3698		23.437500
3699		31.250000
3700		23.437500
3701		31.250000
3702		23.437500
3703		29.296875
3704		25.390625
3705		27.343750
3706		23.437500
3707		25.390625
3708		21.484375
3709		27.343750
3710		21.484375
3711		25.390625
3712		21.484375
3713		25.390625
3714		19.531250
3715		27.343750
3716		17.578125
3717		25.390625
3718		17.578125
3719		25.390625
3720		19.531250
3721		23.437500
3722		17.578125
3723		19.531250
3724		15.625000
3725		21.484375
3726		15.625000
3727		19.531250
3728		15.625000
3729		19.531250
3730		13.671875
3731		17.578125
3732		11.718750
3733		19.531250
3734		9.765625
3735		17.578125
3736		9.765625
3737		15.625000
3738		11.718750
3739		13.671875
3740		9.765625
3741		13.671875
3742		9.765625
3743		13.671875
3744		7.812500
3745		11.718750
3746		7.812500
3747		11.718750
3748		3.906250
3749		11.718750
3750		3.906250
3751		11.718750
3752		3.906250
3753		7.812500
3754		1.953125
3755		7.812500
3756		3.906250
3757		5.859375
3758		1.953125
3759		3.906250
3760		1.953125
3761		3.906250
3762		0.000000
3763		3.906250
3764		-3.906250
3765		3.906250
3766		-3.906250
3767		3.906250
3768		-3.906250
3769		1.953125
3770		-3.906250
3771		0.000000
3772		-3.906250
3773		-1.953125
3774		-5.859375
3775		-1.953125
3776		-7.812500
3777		-3.906250
3778		-7.812500
3779		-3.906250
3780		-9.765625
3781		-3.906250
3782		-11.718750
3783		-3.906250
3784		-13.671875
3785		-5.859375
3786		-11.718750
3787		-7.812500
3788		-11.718750
3789		-9.765625
3790		-13.671875
3791		-9.765625
3792		-15.625000
3793		-9.765625
3794		-15.625000
3795		-11.718750
3796		-15.625000
3797		-11.718750
3798		-17.578125
3799		-11.718750
3800		-21.484375
3801		-11.718750
3802		-21.484375
3803		-13.671875
3804		-19.531250
3805		-15.625000
3806		-19.531250
3807		-17.578125
3808		-21.484375
3809		-17.578125
3810		-21.484375
3811		-19.531250
3812		-23.437500
3813		-19.531250
3814		-25.390625
3815		-19.531250
3816		-27.343750
3817		-19.531250
3818		-27.343750
3819		-19.531250
3820		-27.343750
3821		-23.437500
3822		-27.343750
3823		-23.437500
3824		-27.343750
3825		-25.390625
3826		-27.343750
3827		-25.390625
3828		-29.296875
3829		-25.390625
3830		-29.296875
3831		-25.390625
3832		-33.203125
3833		-25.390625
3834		-33.203125
3835		-25.390625
3836		-33.203125
3837		-27.343750
3838		-33.203125
3839		-27.343750
3840		-31.250000
3841		-29.296875
3842		-33.203125
3843		-29.296875
3844		-35.156250
3845		-29.296875
3846		-33.203125
3847		-31.250000
3848		-35.156250
3849		-29.296875
3850		-37.109375
3851		-29.296875
3852		-37.109375
3853		-29.296875
3854		-35.156250
3855		-31.250000
3856		-35.156250
3857		-33.203125
3858		-37.109375
3859		-33.203125
3860		-37.109375
3861		-33.203125
3862		-37.109375
3863		-33.203125
3864		-37.109375
3865		-33.203125
3866		-41.015625
3867		-33.203125
3868		-41.015625
3869		-33.203125
3870		-39.062500
3871		-35.156250
3872		-37.109375
3873		-35.156250
3874		-37.109375
3875		-35.156250
3876		-39.062500
3877		-35.156250
3878		-39.062500
3879		-35.156250
3880		-39.062500
3881		-35.156250
3882		-39.062500
3883		-35.156250
3884		-41.015625
3885		-33.203125
3886		-41.015625
3887		-33.203125
3888		-39.062500
3889		-35.156250
3890		-37.109375
3891		-35.156250
3892		-39.062500
3893		-35.156250
3894		-39.062500
3895		-35.156250
3896		-37.109375
3897		-35.156250
3898		-37.109375
3899		-35.156250
3900		-41.015625
3901		-31.250000
3902		-41.015625
3903		-31.250000
3904		-37.109375
3905		-33.203125
3906		-37.109375
3907		-35.156250
3908		-37.109375
3909		-33.203125
3910		-37.109375
3911		-33.203125
3912		-37.109375
3913		-33.203125
3914		-35.156250
3915		-31.250000
3916		-37.109375
3917		-29.296875
3918		-37.109375
3919		-29.296875
3920		-37.109375
3921		-29.296875
3922		-35.156250
3923		-29.296875
3924		-33.203125
3925		-31.250000
3926		-33.203125
3927		-29.296875
3928		-33.203125
3929		-29.296875
3930		-31.250000
3931		-29.296875
3932		-31.250000
3933		-27.343750
3934		-33.203125
3935		-25.390625
3936		-33.203125
3937		-25.390625
3938		-29.296875
3939		-27.343750
3940		-29.296875
3941		-25.390625
3942		-27.343750
3943		-25.390625
3944		-27.343750
3945		-23.437500
3946		-27.343750
3947		-23.437500
3948		-27.343750
3949		-23.437500
3950		-27.343750
3951		-19.531250
3952		-27.343750
3953		-19.531250
3954		-23.437500
3955		-19.531250
3956		-25.390625
3957		-19.531250
3958		-21.484375
3959		-19.531250
3960		-21.484375
3961		-17.578125
3962		-21.484375
3963		-17.578125
3964		-19.531250
3965		-15.625000
3966		-19.531250
3967		-15.625000
3968		-21.484375
3969		-11.718750
3970		-21.484375
3971		-11.718750
3972		-17.578125
3973		-11.718750
3974		-15.625000
3975		-11.718750
3976		-15.625000
3977		-9.765625
3978		-13.671875
3979		-9.765625
3980		-11.718750
3981		-9.765625
3982		-11.718750
3983		-7.812500
3984		-11.718750
3985		-5.859375
3986		-13.671875
3987		-3.906250
3988		-9.765625
3989		-3.906250
3990		-7.812500
3991		-5.859375
3992		-5.859375
3993		-3.906250
3994		-7.812500
3995		-1.953125
3996		-5.859375
3997		-1.953125
3998		-3.906250
3999		0.000000
4000		-5.859375
4001		1.953125
4002		-3.906250
4003		3.906250
4004		-1.953125
4005		3.906250
4006		-1.953125
4007		1.953125
4008		0.000000
4009		3.906250
4010		1.953125
4011		5.859375
4012		1.953125
4013		5.859375
4014		3.906250
4015		7.812500
4016		3.906250
4017		7.812500
4018		1.953125
4019		9.765625
4020		3.906250
4021		11.718750
4022		5.859375
4023		11.718750
4024		7.812500
4025		9.765625
4026		7.812500
4027		11.718750
4028		9.765625
4029		13.671875
4030		9.765625
4031		13.671875
4032		11.718750
4033		13.671875
4034		9.765625
4035		17.578125
4036		9.765625
4037		19.531250
4038		13.671875
4039		17.578125
4040		13.671875
4041		17.578125
4042		15.625000
4043		17.578125
4044		15.625000
4045		19.531250
4046		15.625000
4047		19.531250
4048		17.578125
4049		19.531250
4050		17.578125
4051		21.484375
4052		17.578125
4053		23.437500
4054		17.578125
4055		25.390625
4056		19.531250
4057		25.390625
4058		21.484375
4059		23.437500
4060		21.484375
4061		25.390625
4062		23.437500
4063		25.390625
4064		23.437500
4065		25.390625
4066		23.437500
4067		27.343750
4068		21.484375
4069		31.250000
4070		23.437500
4071		31.250000
4072		25.390625
4073		29.296875
4074		27.343750
4075		29.296875
4076		27.343750
4077		29.296875
4078		27.343750
4079		31.250000
4080		27.343750
4081		31.250000
4082		27.343750
4083		31.250000
4084		27.343750
4085		33.203125
4086		27.343750
4087		35.156250
4088		29.296875
4089		33.203125
4090		29.296875
4091		33.203125
4092		31.250000
4093		33.203125
4094		29.296875
4095		35.156250
4096		31.250000
4097		35.156250
4098		31.250000
4099		35.156250
4100		31.250000
4101		35.156250
4102		29.296875
4103		37.109375
4104		29.296875
4105		37.109375
4106		31.250000
4107		35.156250
4108		33.203125
4109		35.156250
4110		33.203125
4111		35.156250
4112		33.203125
4113		37.109375
4114		33.203125
4115		37.109375
4116		33.203125
4117		37.109375
4118		31.250000
4119		37.109375
4120		31.250000
4121		39.062500
4122		33.203125
4123		35.156250
4124		33.203125
4125		37.109375
4126		33.203125
4127		35.156250
4128		33.203125
4129		37.109375
4130		33.203125
4131		37.109375
4132		33.203125
4133		35.156250
4134		33.203125
4135		35.156250
4136		29.296875
4137		39.062500
4138		29.296875
4139		37.109375
4140		31.250000
4141		35.156250
4142		33.203125
4143		35.156250
4144		31.250000
4145		35.156250
4146		33.203125
4147		35.156250
4148		31.250000
4149		33.203125
4150		31.250000
4151		33.203125
4152		29.296875
4153		35.156250
4154		29.296875
4155		35.156250
4156		29.296875
4157		33.203125
4158		31.250000
4159		33.203125
4160		29.296875
4161		33.203125
4162		27.343750
4163		33.203125
4164		29.296875
4165		31.250000
4166		27.343750
4167		31.250000
4168		25.390625
4169		31.250000
4170		23.437500
4171		33.203125
4172		25.390625
4173		31.250000
4174		25.390625
4175		29.296875
4176		25.390625
4177		27.343750
4178		25.390625
4179		27.343750
4180		23.437500
4181		27.343750
4182		23.437500
4183		27.343750
4184		23.437500
4185		25.390625
4186		19.531250
4187		27.343750
4188		19.531250
4189		27.343750
4190		19.531250
4191		23.437500
4192		21.484375
4193		23.437500
4194		19.531250
4195		21.484375
4196		17.578125
4197		23.437500
4198		17.578125
4199		21.484375
4200		15.625000
4201		19.531250
4202		13.671875
4203		21.484375
4204		13.671875
4205		21.484375
4206		13.671875
4207		17.578125
4208		13.671875
4209		17.578125
4210		13.671875
4211		15.625000
4212		11.718750
4213		15.625000
4214		11.718750
4215		13.671875
4216		9.765625
4217		13.671875
4218		9.765625
4219		13.671875
4220		5.859375
4221		13.671875
4222		5.859375
4223		13.671875
4224		5.859375
4225		9.765625
4226		5.859375
4227		7.812500
4228		3.906250
4229		9.765625
4230		3.906250
4231		7.812500
4232		3.906250
4233		5.859375
4234		1.953125
4235		5.859375
4236		-1.953125
4237		5.859375
4238		-3.906250
4239		5.859375
4240		-1.953125
4241		3.906250
4242		-1.953125
4243		1.953125
4244		-1.953125
4245		0.000000
4246		-3.906250
4247		0.000000
4248		-3.906250
4249		-1.953125
4250		-5.859375
4251		-1.953125
4252		-9.765625
4253		-1.953125
4254		-9.765625
4255		-1.953125
4256		-9.765625
4257		-3.906250
4258		-9.765625
4259		-5.859375
4260		-9.765625
4261		-7.812500
4262		-11.718750
4263		-7.812500
4264		-11.718750
4265		-9.765625
4266		-13.671875
4267		-9.765625
4268		-13.671875
4269		-9.765625
4270		-17.578125
4271		-9.765625
4272		-19.531250
4273		-9.765625
4274		-17.578125
4275		-13.671875
4276		-17.578125
4277		-15.625000
4278		-17.578125
4279		-15.625000
4280		-19.531250
4281		-15.625000
4282		-21.484375
4283		-17.578125
4284		-21.484375
4285		-17.578125
4286		-25.390625
4287		-17.578125
4288		-25.390625
4289		-17.578125
4290		-23.437500
4291		-19.531250
4292		-23.437500
4293		-21.484375
4294		-25.390625
4295		-21.484375
4296		-27.343750
4297		-21.484375
4298		-27.343750
4299		-23.437500
4300		-27.343750
4301		-23.437500
4302		-29.296875
4303		-23.437500
4304		-31.250000
4305		-23.437500
4306		-31.250000
4307		-23.437500
4308		-31.250000
4309		-25.390625
4310		-29.296875
4311		-27.343750
4312		-31.250000
4313		-27.343750
4314		-33.203125
4315		-29.296875
4316		-33.203125
4317		-29.296875
4318		-33.203125
4319		-29.296875
4320		-35.156250
4321		-27.343750
4322		-37.109375
4323		-29.296875
4324		-35.156250
4325		-31.250000
4326		-35.156250
4327		-31.250000
4328		-35.156250
4329		-31.250000
4330		-35.156250
4331		-33.203125
4332		-35.156250
4333		-33.203125
4334		-37.109375
4335		-33.203125
4336		-37.109375
4337		-31.250000
4338		-39.062500
4339		-31.250000
4340		-39.062500
4341		-31.250000
4342		-37.109375
4343		-33.203125
4344		-37.109375
4345		-35.156250
4346		-39.062500
4347		-33.203125
4348		-37.109375
4349		-35.156250
4350		-37.109375
4351		-35.156250
4352		-39.062500
4353		-33.203125
4354		-41.015625
4355		-33.203125
4356		-41.015625
4357		-33.203125
4358		-39.062500
4359		-35.156250
4360		-37.109375
4361		-35.156250
4362		-37.109375
4363		-35.156250
4364		-39.062500
4365		-35.156250
4366		-37.109375
4367		-35.156250
4368		-37.109375
4369		-35.156250
4370		-39.062500
4371		-33.203125
4372		-41.015625
4373		-31.250000
4374		-37.109375
4375		-33.203125
4376		-37.109375
4377		-33.203125
4378		-37.109375
4379		-35.156250
4380		-37.109375
4381		-33.203125
4382		-37.109375
4383		-33.203125
4384		-37.109375
4385		-33.203125
4386		-35.156250
4387		-33.203125
4388		-37.109375
4389		-29.296875
4390		-37.109375
4391		-29.296875
4392		-35.156250
4393		-31.250000
4394		-33.203125
4395		-29.296875
4396		-33.203125
4397		-31.250000
4398		-35.156250
4399		-29.296875
4400		-33.203125
4401		-29.296875
4402		-33.203125
4403		-27.343750
4404		-33.203125
4405		-27.343750
4406		-33.203125
4407		-25.390625
4408		-31.250000
4409		-25.390625
4410		-29.296875
4411		-27.343750
4412		-29.296875
4413		-27.343750
4414		-29.296875
4415		-25.390625
4416		-27.343750
4417		-25.390625
4418		-27.343750
4419		-23.437500
4420		-25.390625
4421		-23.437500
4422		-29.296875
4423		-21.484375
4424		-27.343750
4425		-19.531250
4426		-25.390625
4427		-21.484375
4428		-23.437500
4429		-21.484375
4430		-23.437500
4431		-19.531250
4432		-21.484375
4433		-19.531250
4434		-21.484375
4435		-17.578125
4436		-19.531250
4437		-17.578125
4438		-21.484375
4439		-13.671875
4440		-21.484375
4441		-13.671875
4442		-17.578125
4443		-15.625000
4444		-17.578125
4445		-13.671875
4446		-15.625000
4447		-13.671875
4448		-15.625000
4449		-11.718750
4450		-13.671875
4451		-11.718750
4452		-13.671875
4453		-9.765625
4454		-15.625000
4455		-7.812500
4456		-13.671875
4457		-5.859375
4458		-11.718750
4459		-7.812500
4460		-11.718750
4461		-5.859375
4462		-9.765625
4463		-5.859375
4464		-7.812500
4465		-5.859375
4466		-7.812500
4467		-3.906250
4468		-5.859375
4469		-1.953125
4470		-5.859375
4471		-1.953125
4472		-5.859375
4473		1.953125
4474		-5.859375
4475		1.953125
4476		-1.953125
4477		1.953125
4478		-1.953125
4479		1.953125
4480		0.000000
4481		1.953125
4482		0.000000
4483		3.906250
4484		0.000000
4485		3.906250
4486		1.953125
4487		5.859375
4488		0.000000
4489		7.812500
4490		1.953125
4491		9.765625
4492		3.906250
4493		9.765625
4494		5.859375
4495		7.812500
4496		7.812500
4497		9.765625
4498		5.859375
4499		11.718750
4500		7.812500
4501		11.718750
4502		9.765625
4503		11.718750
4504		9.765625
4505		13.671875
4506		9.765625
4507		17.578125
4508		9.765625
4509		15.625000
4510		11.718750
4511		15.625000
4512		13.671875
4513		15.625000
4514		13.671875
4515		19.531250
4516		15.625000
4517		17.578125
4518		15.625000
4519		19.531250
4520		15.625000
4521		19.531250
4522		15.625000
4523		23.437500
4524		15.625000
4525		23.437500
4526		17.578125
4527		23.437500
4528		19.531250
4529		21.484375
4530		19.531250
4531		23.437500
4532		21.484375
4533		25.390625
4534		21.484375
4535		25.390625
4536		21.484375
4537		25.390625
4538		21.484375
4539		29.296875
4540		21.484375
4541		29.296875
4542		21.484375
4543		27.343750
4544		23.437500
4545		29.296875
4546		25.390625
4547		29.296875
4548		25.390625
4549		29.296875
4550		27.343750
4551		29.296875
4552		27.343750
4553		31.250000
4554		27.343750
4555		31.250000
4556		25.390625
4557		33.203125
4558		25.390625
4559		33.203125
4560		29.296875
4561		33.203125
4562		29.296875
4563		31.250000
4564		29.296875
4565		33.203125
4566		29.296875
4567		33.203125
4568		29.296875
4569		33.203125
4570		31.250000
4571		33.203125
4572		29.296875
4573		37.109375
4574		29.296875
4575		37.109375
4576		31.250000
4577		35.156250
4578		31.250000
4579		35.156250
4580		33.203125
4581		35.156250
4582		31.250000
4583		37.109375
4584		33.203125
4585		37.109375
4586		33.203125
4587		37.109375
4588		33.203125
4589		37.109375
4590		31.250000
4591		39.062500
4592		31.250000
4593		37.109375
4594		33.203125
4595		37.109375
4596		33.203125
4597		35.156250
4598		33.203125
4599		35.156250
4600		33.203125
4601		37.109375
4602		33.203125
4603		37.109375
4604		33.203125
4605		37.109375
4606		31.250000
4607		39.062500
4608		31.250000
4609		39.062500
4610		33.203125
4611		37.109375
4612		33.203125
4613		35.156250
4614		33.203125
4615		35.156250
4616		31.250000
4617		35.156250
4618		31.250000
4619		35.156250
4620		31.250000
4621		35.156250
4622		29.296875
4623		37.109375
4624		29.296875
4625		37.109375
4626		29.296875
4627		37.109375
4628		31.250000
4629		35.156250
4630		31.250000
4631		33.203125
4632		29.296875
4633		33.203125
4634		29.296875
4635		33.203125
4636		29.296875
4637		33.203125
4638		29.296875
4639		33.203125
4640		25.390625
4641		33.203125
4642		25.390625
4643		33.203125
4644		27.343750
4645		31.250000
4646		27.343750
4647		29.296875
4648		27.343750
4649		29.296875
4650		25.390625
4651		31.250000
4652		25.390625
4653		29.296875
4654		25.390625
4655		27.343750
4656		21.484375
4657		29.296875
4658		21.484375
4659		29.296875
4660		23.437500
4661		25.390625
4662		21.484375
4663		25.390625
4664		21.484375
4665		23.437500
4666		19.531250
4667		23.437500
4668		19.531250
4669		23.437500
4670		19.531250
4671		23.437500
4672		17.578125
4673		21.484375
4674		15.625000
4675		23.437500
4676		13.671875
4677		23.437500
4678		15.625000
4679		19.531250
4680		15.625000
4681		17.578125
4682		13.671875
4683		17.578125
4684		13.671875
4685		17.578125
4686		11.718750
4687		15.625000
4688		11.718750
4689		15.625000
4690		7.812500
4691		15.625000
4692		7.812500
4693		15.625000
4694		9.765625
4695		13.671875
4696		7.812500
4697		11.718750
4698		7.812500
4699		9.765625
4700		5.859375
4701		11.718750
4702		5.859375
4703		9.765625
4704		3.906250
4705		7.812500
4706		1.953125
4707		7.812500
4708		0.000000
4709		7.812500
4710		0.000000
4711		7.812500
4712		0.000000
4713		3.906250
4714		0.000000
4715		3.906250
4716		-1.953125
4717		1.953125
4718		-1.953125
4719		0.000000
4720		-3.906250
4721		0.000000
4722		-3.906250
4723		0.000000
4724		-7.812500
4725		0.000000
4726		-7.812500
4727		0.000000
4728		-7.812500
4729		-3.906250
4730		-7.812500
4731		-5.859375
4732		-7.812500
4733		-5.859375
4734		-9.765625
4735		-5.859375
4736		-11.718750
4737		-5.859375
4738		-11.718750
4739		-9.765625
4740		-15.625000
4741		-7.812500
4742		-15.625000
4743		-7.812500
4744		-13.671875
4745		-11.718750
4746		-15.625000
4747		-11.718750
4748		-15.625000
4749		-13.671875
4750		-17.578125
4751		-13.671875
4752		-17.578125
4753		-15.625000
4754		-19.531250
4755		-15.625000
4756		-19.531250
4757		-15.625000
4758		-23.437500
4759		-15.625000
4760		-23.437500
4761		-15.625000
4762		-21.484375
4763		-19.531250
4764		-23.437500
4765		-19.531250
4766		-25.390625
4767		-19.531250
4768		-25.390625
4769		-21.484375
4770		-25.390625
4771		-21.484375
4772		-25.390625
4773		-23.437500
4774		-29.296875
4775		-21.484375
4776		-29.296875
4777		-21.484375
4778		-29.296875
4779		-25.390625
4780		-29.296875
4781		-25.390625
4782		-29.296875
4783		-27.343750
4784		-31.250000
4785		-25.390625
4786		-31.250000
4787		-27.343750
4788		-31.250000
4789		-27.343750
4790		-33.203125
4791		-29.296875
4792		-35.156250
4793		-27.343750
4794		-35.156250
4795		-27.343750
4796		-35.156250
4797		-29.296875
4798		-33.203125
4799		-31.250000
4800		-35.156250
4801		-31.250000
4802		-35.156250
4803		-31.250000
4804		-35.156250
4805		-31.250000
4806		-35.156250
4807		-33.203125
4808		-39.062500
4809		-31.250000
4810		-39.062500
4811		-31.250000
4812		-37.109375
4813		-33.203125
4814		-37.109375
4815		-33.203125
4816		-37.109375
4817		-35.156250
4818		-39.062500
4819		-33.203125
4820		-37.109375
4821		-35.156250
4822		-39.062500
4823		-35.156250
4824		-41.015625
4825		-33.203125
4826		-41.015625
4827		-33.203125
4828		-39.062500
4829		-35.156250
4830		-39.062500
4831		-35.156250
4832		-37.109375
4833		-35.156250
4834		-39.062500
4835		-35.156250
4836		-39.062500
4837		-35.156250
4838		-37.109375
4839		-35.156250
4840		-39.062500
4841		-33.203125
4842		-41.015625
4843		-33.203125
4844		-41.015625
4845		-31.250000
4846		-37.109375
4847		-35.156250
4848		-37.109375
4849		-35.156250
4850		-39.062500
4851		-33.203125
4852		-37.109375
4853		-33.203125
4854		-37.109375
4855		-33.203125
4856		-37.109375
4857		-33.203125
4858		-37.109375
4859		-31.250000
4860		-39.062500
4861		-31.250000
4862		-37.109375
4863		-31.250000
4864		-35.156250
4865		-33.203125
4866		-35.156250
4867		-33.203125
4868		-35.156250
4869		-31.250000
4870		-33.203125
4871		-31.250000
4872		-33.203125
4873		-29.296875
4874		-33.203125
4875		-29.296875
4876		-35.156250
4877		-27.343750
4878		-35.156250
4879		-27.343750
4880		-33.203125
4881		-27.343750
4882		-29.296875
4883		-27.343750
4884		-29.296875
4885		-27.343750
4886		-29.296875
4887		-25.390625
4888		-29.296875
4889		-25.390625
4890		-27.343750
4891		-25.390625
4892		-29.296875
4893		-21.484375
4894		-29.296875
4895		-21.484375
4896		-27.343750
4897		-21.484375
4898		-25.390625
4899		-23.437500
4900		-25.390625
4901		-21.484375
4902		-25.390625
4903		-21.484375
4904		-23.437500
4905		-19.531250
4906		-21.484375
4907		-19.531250
4908		-23.437500
4909		-15.625000
4910		-23.437500
4911		-15.625000
4912		-19.531250
4913		-17.578125
4914		-19.531250
4915		-15.625000
4916		-17.578125
4917		-15.625000
4918		-17.578125
4919		-13.671875
4920		-17.578125
4921		-13.671875
4922		-15.625000
4923		-13.671875
4924		-15.625000
4925		-11.718750
4926		-15.625000
4927		-7.812500
4928		-15.625000
4929		-7.812500
4930		-13.671875
4931		-9.765625
4932		-11.718750
4933		-7.812500
4934		-9.765625
4935		-5.859375
4936		-9.765625
4937		-5.859375
4938		-9.765625
4939		-5.859375
4940		-7.812500
4941		-3.906250
4942		-5.859375
4943		-3.906250
4944		-9.765625
4945		0.000000
4946		-5.859375
4947		0.000000
4948		-3.906250
4949		-1.953125
4950		-1.953125
4951		0.000000
4952		-1.953125
4953		1.953125
4954		-1.953125
4955		1.953125
4956		0.000000
4957		3.906250
4958		0.000000
4959		3.906250
4960		0.000000
4961		7.812500
4962		0.000000
4963		7.812500
4964		1.953125
4965		7.812500
4966		3.906250
4967		7.812500
4968		3.906250
4969		7.812500
4970		5.859375
4971		9.765625
4972		5.859375
4973		11.718750
4974		7.812500
4975		11.718750
4976		7.812500
4977		11.718750
4978		7.812500
4979		15.625000
4980		9.765625
4981		13.671875
4982		11.718750
4983		13.671875
4984		11.718750
4985		15.625000
4986		11.718750
4987		17.578125
4988		13.671875
4989		15.625000
4990		15.625000
4991		17.578125
4992		15.625000
4993		17.578125
4994		15.625000
4995		21.484375
4996		17.578125
4997		19.531250
4998		17.578125
4999		19.531250
5000		19.531250
5001		21.484375
5002		17.578125
5003		23.437500
5004		19.531250
5005		23.437500
5006		19.531250
5007		23.437500
5008		21.484375
5009		25.390625
5010		19.531250
5011		27.343750
5012		19.531250
5013		27.343750
5014		23.437500
5015		27.343750
5016		23.437500
5017		27.343750
5018		23.437500
5019		27.343750
5020		25.390625
5021		29.296875
5022		25.390625
5023		29.296875
5024		25.390625
5025		29.296875
5026		27.343750
5027		29.296875
5028		25.390625
5029		33.203125
5030		27.343750
5031		31.250000
5032		29.296875
5033		31.250000
5034		29.296875
5035		31.250000
5036		29.296875
5037		31.250000
5038		29.296875
5039		33.203125
5040		29.296875
5041		33.203125
5042		31.250000
5043		33.203125
5044		29.296875
5045		35.156250
5046		29.296875
5047		37.109375
5048		31.250000
5049		35.156250
5050		31.250000
5051		35.156250
5052		31.250000
5053		35.156250
5054		31.250000
5055		35.156250
5056		31.250000
5057		35.156250
5058		33.203125
5059		35.156250
5060		33.203125
5061		37.109375
5062		31.250000
5063		39.062500
5064		33.203125
5065		37.109375
5066		33.203125
5067		35.156250
5068		33.203125
5069		37.109375
5070		31.250000
5071		37.109375
5072		33.203125
5073		37.109375
5074		33.203125
5075		37.109375
5076		33.203125
5077		37.109375
5078		31.250000
5079		39.062500
5080		33.203125
5081		37.109375
5082		33.203125
5083		37.109375
5084		33.203125
5085		35.156250
5086		33.203125
5087		35.156250
5088		33.203125
5089		35.156250
5090		33.203125
5091		35.156250
5092		31.250000
5093		37.109375
5094		31.250000
5095		35.156250
5096		29.296875
5097		37.109375
5098		31.250000
5099		35.156250
5100		31.250000
5101		33.203125
5102		31.250000
5103		33.203125
5104		29.296875
5105		35.156250
5106		29.296875
5107		33.203125
5108		29.296875
5109		33.203125
5110		29.296875
5111		33.203125
5112		27.343750
5113		33.203125
5114		29.296875
5115		33.203125
5116		29.296875
5117		31.250000
5118		27.343750
5119		31.250000
5120		27.343750
5121		31.250000
5122		27.343750
5123		29.296875
5124		25.390625
5125		29.296875
5126		25.390625
5127		29.296875
5128		23.437500
5129		29.296875
5130		23.437500
5131		29.296875
5132		23.437500
5133		27.343750
5134		23.437500
5135		25.390625
5136		21.484375
5137		25.390625
5138		21.484375
5139		25.390625
5140		21.484375
5141		23.437500
5142		19.531250
5143		23.437500
5144		19.531250
5145		23.437500
5146		17.578125
5147		25.390625
5148		17.578125
5149		21.484375
5150		17.578125
5151		19.531250
5152		17.578125
5153		19.531250
5154		13.671875
5155		19.531250
5156		15.625000
5157		17.578125
5158		13.671875
5159		17.578125
5160		13.671875
5161		17.578125
5162		9.765625
5163		17.578125
5164		9.765625
5165		15.625000
5166		9.765625
5167		13.671875
5168		9.765625
5169		13.671875
5170		7.812500
5171		11.718750
5172		7.812500
5173		11.718750
5174		5.859375
5175		9.765625
5176		5.859375
5177		9.765625
5178		3.906250
5179		9.765625
5180		1.953125
5181		9.765625
5182		1.953125
5183		7.812500
5184		1.953125
5185		5.859375
5186		1.953125
5187		3.906250
5188		0.000000
5189		3.906250
5190		-1.953125
5191		1.953125
5192		-1.953125
5193		1.953125
5194		-3.906250
5195		0.000000
5196		-5.859375
5197		0.000000
5198		-5.859375
5199		0.000000
5200		-5.859375
5201		-1.953125
5202		-5.859375
5203		-3.906250
5204		-7.812500
5205		-3.906250
5206		-7.812500
5207		-5.859375
5208		-9.765625
5209		-5.859375
5210		-11.718750
5211		-7.812500
5212		-13.671875
5213		-5.859375
5214		-13.671875
5215		-7.812500
5216		-13.671875
5217		-9.765625
5218		-13.671875
5219		-11.718750
5220		-15.625000
5221		-11.718750
5222		-15.625000
5223		-11.718750
5224		-17.578125
5225		-13.671875
5226		-17.578125
5227		-13.671875
5228		-17.578125
5229		-15.625000
5230		-21.484375
5231		-13.671875
5232		-21.484375
5233		-15.625000
5234		-21.484375
5235		-17.578125
5236		-21.484375
5237		-19.531250
5238		-23.437500
5239		-19.531250
5240		-23.437500
5241		-19.531250
5242		-25.390625
5243		-21.484375
5244		-25.390625
5245		-21.484375
5246		-29.296875
5247		-21.484375
5248		-27.343750
5249		-21.484375
5250		-27.343750
5251		-23.437500
5252		-27.343750
5253		-25.390625
5254		-31.250000
5255		-25.390625
5256		-29.296875
5257		-25.390625
5258		-31.250000
5259		-25.390625
5260		-31.250000
5261		-27.343750
5262		-31.250000
5263		-27.343750
5264		-33.203125
5265		-27.343750
5266		-33.203125
5267		-29.296875
5268		-33.203125
5269		-31.250000
5270		-33.203125
5271		-31.250000
5272		-35.156250
5273		-29.296875
5274		-35.156250
5275		-31.250000
5276		-35.156250
5277		-31.250000
5278		-35.156250
5279		-31.250000
5280		-37.109375
5281		-29.296875
5282		-37.109375
5283		-31.250000
5284		-37.109375
5285		-33.203125
5286		-35.156250
5287		-33.203125
5288		-37.109375
5289		-33.203125
5290		-37.109375
5291		-33.203125
5292		-37.109375
5293		-35.156250
5294		-37.109375
5295		-35.156250
5296		-39.062500
5297		-31.250000
5298		-41.015625
5299		-33.203125
5300		-39.062500
5301		-35.156250
5302		-37.109375
5303		-35.156250
5304		-37.109375
5305		-35.156250
5306		-39.062500
5307		-35.156250
5308		-37.109375
5309		-35.156250
5310		-39.062500
5311		-35.156250
5312		-39.062500
5313		-33.203125
5314		-41.015625
5315		-33.203125
5316		-39.062500
5317		-33.203125
5318		-37.109375
5319		-35.156250
5320		-37.109375
5321		-35.156250
5322		-39.062500
5323		-35.156250
5324		-37.109375
5325		-33.203125
5326		-37.109375
5327		-33.203125
5328		-37.109375
5329		-33.203125
5330		-39.062500
5331		-31.250000
5332		-39.062500
5333		-33.203125
5334		-35.156250
5335		-31.250000
5336		-35.156250
5337		-33.203125
5338		-37.109375
5339		-31.250000
5340		-35.156250
5341		-31.250000
5342		-35.156250
5343		-31.250000
5344		-35.156250
5345		-31.250000
5346		-33.203125
5347		-29.296875
5348		-35.156250
5349		-27.343750
5350		-33.203125
5351		-29.296875
5352		-31.250000
5353		-29.296875
5354		-31.250000
5355		-29.296875
5356		-31.250000
5357		-27.343750
5358		-31.250000
5359		-27.343750
5360		-29.296875
5361		-27.343750
5362		-29.296875
5363		-25.390625
5364		-29.296875
5365		-21.484375
5366		-29.296875
5367		-23.437500
5368		-27.343750
5369		-23.437500
5370		-25.390625
5371		-23.437500
5372		-25.390625
5373		-23.437500
5374		-25.390625
5375		-21.484375
5376		-25.390625
5377		-21.484375
5378		-23.437500
5379		-19.531250
5380		-23.437500
5381		-17.578125
5382		-23.437500
5383		-17.578125
5384		-21.484375
5385		-17.578125
5386		-19.531250
5387		-17.578125
5388		-19.531250
5389		-15.625000
5390		-19.531250
5391		-15.625000
5392		-17.578125
5393		-15.625000
5394		-17.578125
5395		-13.671875
5396		-15.625000
5397		-11.718750
5398		-17.578125
5399		-9.765625
5400		-13.671875
5401		-9.765625
5402		-13.671875
5403		-11.718750
5404		-11.718750
5405		-9.765625
5406		-13.671875
5407		-7.812500
5408		-9.765625
5409		-5.859375
5410		-9.765625
5411		-5.859375
5412		-7.812500
5413		-5.859375
5414		-9.765625
5415		-1.953125
5416		-9.765625
5417		-1.953125
5418		-7.812500
5419		-3.906250
5420		-5.859375
5421		-1.953125
5422		-5.859375
5423		0.000000
5424		-3.906250
5425		0.000000
5426		-1.953125
5427		1.953125
5428		-1.953125
5429		1.953125
5430		-1.953125
5431		3.906250
5432		-1.953125
5433		5.859375
5434		0.000000
5435		5.859375
5436		1.953125
5437		5.859375
5438		3.906250
5439		5.859375
5440		3.906250
5441		7.812500
5442		3.906250
5443		7.812500
5444		5.859375
5445		7.812500
5446		5.859375
5447		9.765625
5448		5.859375
5449		13.671875
5450		7.812500
5451		11.718750
5452		7.812500
5453		13.671875
5454		9.765625
5455		13.671875
5456		11.718750
5457		13.671875
5458		11.718750
5459		15.625000
5460		13.671875
5461		15.625000
5462		13.671875
5463		17.578125
5464		13.671875
5465		19.531250
5466		13.671875
5467		19.531250
5468		15.625000
5469		19.531250
5470		17.578125
5471		19.531250
5472		17.578125
5473		21.484375
5474		17.578125
5475		21.484375
5476		19.531250
5477		21.484375
5478		19.531250
5479		23.437500
5480		21.484375
5481		23.437500
5482		19.531250
5483		25.390625
5484		21.484375
5485		25.390625
5486		23.437500
5487		25.390625
5488		23.437500
5489		25.390625
5490		23.437500
5491		27.343750
5492		25.390625
5493		27.343750
5494		23.437500
5495		27.343750
5496		25.390625
5497		29.296875
5498		25.390625
5499		31.250000
5500		25.390625
5501		31.250000
5502		25.390625
5503		31.250000
5504		27.343750
5505		31.250000
5506		27.343750
5507		31.250000
5508		29.296875
5509		31.250000
5510		29.296875
5511		33.203125
5512		29.296875
5513		31.250000
5514		29.296875
5515		33.203125
5516		27.343750
5517		35.156250
5518		29.296875
5519		35.156250
5520		31.250000
5521		33.203125
5522		31.250000
5523		33.203125
5524		31.250000
5525		35.156250
5526		31.250000
5527		35.156250
5528		31.250000
5529		35.156250
5530		31.250000
5531		35.156250
5532		29.296875
5533		39.062500
5534		33.203125
5535		35.156250
5536		33.203125
5537		37.109375
5538		33.203125
5539		35.156250
5540		31.250000
5541		37.109375
5542		33.203125
5543		37.109375
5544		33.203125
5545		37.109375
5546		33.203125
5547		37.109375
5548		33.203125
5549		37.109375
5550		31.250000
5551		37.109375
5552		33.203125
5553		35.156250
5554		33.203125
5555		37.109375
5556		33.203125
5557		37.109375
5558		33.203125
5559		37.109375
5560		33.203125
5561		37.109375
5562		33.203125
5563		35.156250
5564		33.203125
5565		35.156250
5566		29.296875
5567		37.109375
5568		31.250000
5569		35.156250
5570		33.203125
5571		35.156250
5572		31.250000
5573		35.156250
5574		31.250000
5575		35.156250
5576		31.250000
5577		35.156250
5578		31.250000
5579		35.156250
5580		29.296875
5581		33.203125
5582		27.343750
5583		35.156250
5584		29.296875
5585		35.156250
5586		27.343750
5587		33.203125
5588		29.296875
5589		31.250000
5590		27.343750
5591		31.250000
5592		27.343750
5593		31.250000
5594		27.343750
5595		31.250000
5596		27.343750
5597		29.296875
5598		25.390625
5599		29.296875
5600		23.437500
5601		31.250000
5602		25.390625
5603		29.296875
5604		25.390625
5605		27.343750
5606		23.437500
5607		27.343750
5608		21.484375
5609		27.343750
5610		21.484375
5611		25.390625
5612		21.484375
5613		25.390625
5614		21.484375
5615		25.390625
5616		17.578125
5617		25.390625
5618		19.531250
5619		23.437500
5620		19.531250
5621		21.484375
5622		17.578125
5623		21.484375
5624		15.625000
5625		21.484375
5626		17.578125
5627		19.531250
5628		15.625000
5629		19.531250
5630		13.671875
5631		19.531250
5632		13.671875
5633		17.578125
5634		11.718750
5635		19.531250
5636		11.718750
5637		15.625000
5638		11.718750
5639		13.671875
5640		9.765625
5641		13.671875
5642		9.765625
5643		13.671875
5644		7.812500
5645		11.718750
5646		7.812500
5647		11.718750
5648		7.812500
5649		9.765625
5650		3.906250
5651		11.718750
5652		3.906250
5653		7.812500
5654		3.906250
5655		7.812500
5656		3.906250
5657		5.859375
5658		1.953125
5659		5.859375
5660		1.953125
5661		3.906250
5662		0.000000
5663		3.906250
5664		0.000000
5665		3.906250
5666		-1.953125
5667		3.906250
5668		-3.906250
5669		1.953125
5670		-3.906250
5671		0.000000
5672		-3.906250
5673		-1.953125
5674		-5.859375
5675		-1.953125
5676		-5.859375
5677		-1.953125
5678		-7.812500
5679		-3.906250
5680		-7.812500
5681		-3.906250
5682		-9.765625
5683		-5.859375
5684		-11.718750
5685		-5.859375
5686		-11.718750
5687		-7.812500
5688		-11.718750
5689		-9.765625
5690		-11.718750
5691		-9.765625
5692		-15.625000
5693		-9.765625
5694		-15.625000
5695		-11.718750
5696		-15.625000
5697		-11.718750
5698		-15.625000
5699		-13.671875
5700		-19.531250
5701		-13.671875
5702		-19.531250
5703		-15.625000
5704		-19.531250
5705		-15.625000
5706		-19.531250
5707		-17.578125
5708		-21.484375
5709		-17.578125
5710		-21.484375
5711		-17.578125
5712		-23.437500
5713		-17.578125
5714		-23.437500
5715		-19.531250
5716		-25.390625
5717		-19.531250
5718		-27.343750
5719		-19.531250
5720		-27.343750
5721		-21.484375
5722		-25.390625
5723		-23.437500
5724		-27.343750
5725		-25.390625
5726		-27.343750
5727		-25.390625
5728		-29.296875
5729		-23.437500
5730		-29.296875
5731		-25.390625
5732		-31.250000
5733		-25.390625
5734		-31.250000
5735		-25.390625
5736		-31.250000
5737		-27.343750
5738		-31.250000
5739		-29.296875
5740		-31.250000
5741		-29.296875
5742		-33.203125
5743		-29.296875
5744		-33.203125
5745		-29.296875
5746		-33.203125
5747		-29.296875
5748		-35.156250
5749		-29.296875
5750		-35.156250
5751		-29.296875
5752		-35.156250
5753		-31.250000
5754		-35.156250
5755		-31.250000
5756		-35.156250
5757		-33.203125
5758		-37.109375
5759		-31.250000
5760		-37.109375
5761		-31.250000
5762		-37.109375
5763		-31.250000
5764		-37.109375
5765		-33.203125
5766		-39.062500
5767		-33.203125
5768		-39.062500
5769		-31.250000
5770		-39.062500
5771		-33.203125
5772		-37.109375
5773		-35.156250
5774		-37.109375
5775		-35.156250
5776		-39.062500
5777		-33.203125
5778		-39.062500
5779		-33.203125
5780		-39.062500
5781		-33.203125
5782		-39.062500
5783		-33.203125
5784		-41.015625
5785		-33.203125
5786		-39.062500
5787		-33.203125
5788		-39.062500
5789		-33.203125
5790		-37.109375
5791		-35.156250
5792		-39.062500
5793		-33.203125
5794		-39.062500
5795		-33.203125
5796		-39.062500
5797		-33.203125
5798		-39.062500
5799		-33.203125
5800		-39.062500
5801		-33.203125
5802		-39.062500
5803		-31.250000
5804		-37.109375
5805		-33.203125
5806		-35.156250
5807		-33.203125
5808		-35.156250
5809		-33.203125
5810		-37.109375
5811		-31.250000
5812		-37.109375
5813		-31.250000
5814		-35.156250
5815		-31.250000
5816		-35.156250
5817		-31.250000
5818		-35.156250
5819		-29.296875
5820		-35.156250
5821		-29.296875
5822		-33.203125
5823		-29.296875
5824		-33.203125
5825		-29.296875
5826		-33.203125
5827		-27.343750
5828		-31.250000
5829		-29.296875
5830		-31.250000
5831		-29.296875
5832		-31.250000
5833		-27.343750
5834		-31.250000
5835		-27.343750
5836		-29.296875
5837		-27.343750
5838		-29.296875
5839		-25.390625
5840		-27.343750
5841		-25.390625
5842		-27.343750
5843		-23.437500
5844		-27.343750
5845		-23.437500
5846		-25.390625
5847		-23.437500
5848		-25.390625
5849		-23.437500
5850		-23.437500
5851		-21.484375
5852		-23.437500
5853		-21.484375
5854		-23.437500
5855		-19.531250
5856		-21.484375
5857		-19.531250
5858		-21.484375
5859		-17.578125
5860		-19.531250
5861		-17.578125
5862		-19.531250
5863		-17.578125
5864		-19.531250
5865		-15.625000
5866		-17.578125
5867		-15.625000
5868		-17.578125
5869		-13.671875
5870		-17.578125
5871		-13.671875
5872		-15.625000
5873		-13.671875
5874		-13.671875
5875		-11.718750
5876		-13.671875
5877		-11.718750
5878		-11.718750
5879		-9.765625
5880		-11.718750
5881		-7.812500
5882		-11.718750
5883		-7.812500
5884		-9.765625
5885		-7.812500
5886		-7.812500
5887		-5.859375
5888		-7.812500
5889		-5.859375
5890		-7.812500
5891		-3.906250
5892		-5.859375
5893		-3.906250
5894		-5.859375
5895		-1.953125
5896		-3.906250
5897		-1.953125
5898		-3.906250
5899		-1.953125
5900		-1.953125
5901		0.000000
5902		-1.953125
5903		1.953125
5904		-1.953125
5905		1.953125
5906		0.000000
5907		1.953125
5908		1.953125
5909		3.906250
5910		1.953125
5911		3.906250
5912		1.953125
5913		5.859375
5914		3.906250
5915		5.859375
5916		5.859375
5917		7.812500
5918		5.859375
5919		7.812500
5920		5.859375
5921		9.765625
5922		7.812500
5923		9.765625
5924		7.812500
5925		11.718750
5926		5.859375
5927		15.625000
5928		7.812500
5929		17.578125
5930		7.812500
5931		17.578125
5932		7.812500
5933		17.578125
5934		13.671875
5935		15.625000
5936		13.671875
5937		15.625000
5938		13.671875
5939		17.578125
5940		15.625000
5941		17.578125
5942		15.625000
5943		17.578125
5944		13.671875
5945		23.437500
5946		15.625000
5947		23.437500
5948		15.625000
5949		23.437500
5950		17.578125
5951		21.484375
5952		19.531250
5953		21.484375
5954		21.484375
5955		23.437500
5956		21.484375
5957		23.437500
5958		21.484375
5959		23.437500
5960		19.531250
5961		29.296875
5962		19.531250
5963		29.296875
5964		21.484375
5965		31.250000
5966		21.484375
5967		29.296875
5968		25.390625
5969		27.343750
5970		25.390625
5971		27.343750
5972		25.390625
5973		29.296875
5974		27.343750
5975		29.296875
5976		27.343750
5977		31.250000
5978		23.437500
5979		35.156250
5980		25.390625
5981		35.156250
5982		25.390625
5983		35.156250
5984		29.296875
5985		31.250000
5986		29.296875
5987		31.250000
5988		29.296875
5989		33.203125
5990		31.250000
5991		33.203125
5992		31.250000
5993		33.203125
5994		27.343750
5995		37.109375
5996		27.343750
5997		37.109375
5998		29.296875
5999		37.109375
6000		31.250000
6001		33.203125
6002		33.203125
6003		35.156250
6004		33.203125
6005		35.156250
6006		33.203125
6007		35.156250
6008		33.203125
6009		35.156250
6010		29.296875
6011		39.062500
6012		29.296875
6013		39.062500
6014		29.296875
6015		39.062500
6016		29.296875
6017		39.062500
6018		33.203125
6019		35.156250
6020		33.203125
6021		35.156250
6022		33.203125
6023		35.156250
6024		33.203125
6025		35.156250
6026		33.203125
6027		35.156250
6028		29.296875
6029		39.062500
6030		31.250000
6031		39.062500
6032		29.296875
6033		39.062500
6034		33.203125
6035		35.156250
6036		33.203125
6037		35.156250
6038		33.203125
6039		35.156250
6040		33.203125
6041		35.156250
6042		33.203125
6043		35.156250
6044		29.296875
6045		39.062500
6046		29.296875
6047		39.062500
6048		29.296875
6049		37.109375
6050		27.343750
6051		37.109375
6052		31.250000
6053		33.203125
6054		31.250000
6055		33.203125
6056		31.250000
6057		33.203125
6058		29.296875
6059		33.203125
6060		29.296875
6061		31.250000
6062		27.343750
6063		35.156250
6064		25.390625
6065		35.156250
6066		25.390625
6067		35.156250
6068		27.343750
6069		29.296875
6070		27.343750
6071		29.296875
6072		27.343750
6073		29.296875
6074		25.390625
6075		29.296875
6076		25.390625
6077		27.343750
6078		21.484375
6079		31.250000
6080		21.484375
6081		31.250000
6082		19.531250
6083		29.296875
6084		23.437500
6085		25.390625
6086		21.484375
6087		25.390625
6088		21.484375
6089		23.437500
6090		21.484375
6091		23.437500
6092		19.531250
6093		23.437500
6094		17.578125
6095		25.390625
6096		13.671875
6097		25.390625
6098		13.671875
6099		25.390625
6100		13.671875
6101		23.437500
6102		17.578125
6103		19.531250
6104		15.625000
6105		17.578125
6106		13.671875
6107		17.578125
6108		13.671875
6109		15.625000
6110		13.671875
6111		15.625000
6112		11.718750
6113		15.625000
6114		7.812500
6115		17.578125
6116		7.812500
6117		15.625000
6118		9.765625
6119		11.718750
6120		7.812500
6121		11.718750
6122		7.812500
6123		9.765625
6124		7.812500
6125		9.765625
6126		5.859375
6127		7.812500
6128		5.859375
6129		7.812500
6130		1.953125
6131		9.765625
6132		0.000000
6133		9.765625
6134		1.953125
6135		3.906250
6136		1.953125
6137		3.906250
6138		0.000000
6139		1.953125
6140		0.000000
6141		1.953125
6142		-1.953125
6143		1.953125
6144		-1.953125
6145		0.000000
6146		-3.906250
6147		0.000000
6148		-5.859375
6149		1.953125
6150		-5.859375
6151		0.000000
6152		-5.859375
6153		-3.906250
6154		-7.812500
6155		-5.859375
6156		-9.765625
6157		-5.859375
6158		-9.765625
6159		-5.859375
6160		-9.765625
6161		-7.812500
6162		-11.718750
6163		-9.765625
6164		-11.718750
6165		-9.765625
6166		-13.671875
6167		-9.765625
6168		-13.671875
6169		-11.718750
6170		-15.625000
6171		-11.718750
6172		-15.625000
6173		-13.671875
6174		-17.578125
6175		-13.671875
6176		-17.578125
6177		-15.625000
6178		-19.531250
6179		-15.625000
6180		-19.531250
6181		-17.578125
6182		-19.531250
6183		-17.578125
6184		-21.484375
6185		-17.578125
6186		-21.484375
6187		-19.531250
6188		-23.437500
6189		-19.531250
6190		-23.437500
6191		-21.484375
6192		-23.437500
6193		-21.484375
6194		-25.390625
6195		-21.484375
6196		-25.390625
6197		-23.437500
6198		-27.343750
6199		-23.437500
6200		-27.343750
6201		-25.390625
6202		-27.343750
6203		-25.390625
6204		-29.296875
6205		-25.390625
6206		-29.296875
6207		-25.390625
6208		-29.296875
6209		-27.343750
6210		-31.250000
6211		-27.343750
6212		-31.250000
6213		-27.343750
6214		-33.203125
6215		-29.296875
6216		-31.250000
6217		-29.296875
6218		-33.203125
6219		-29.296875
6220		-33.203125
6221		-29.296875
6222		-33.203125
6223		-31.250000
6224		-33.203125
6225		-31.250000
6226		-35.156250
6227		-33.203125
6228		-35.156250
6229		-33.203125
6230		-37.109375
6231		-31.250000
6232		-37.109375
6233		-33.203125
6234		-35.156250
6235		-33.203125
6236		-37.109375
6237		-33.203125
6238		-37.109375
6239		-33.203125
6240		-37.109375
6241		-35.156250
6242		-37.109375
6243		-35.156250
6244		-37.109375
6245		-35.156250
6246		-39.062500
6247		-33.203125
6248		-39.062500
6249		-35.156250
6250		-37.109375
6251		-35.156250
6252		-39.062500
6253		-35.156250
6254		-39.062500
6255		-35.156250
6256		-37.109375
6257		-35.156250
6258		-37.109375
6259		-35.156250
6260		-37.109375
6261		-35.156250
6262		-39.062500
6263		-33.203125
6264		-39.062500
6265		-35.156250
6266		-37.109375
6267		-35.156250
6268		-37.109375
6269		-35.156250
6270		-39.062500
6271		-35.156250
6272		-37.109375
6273		-35.156250
6274		-37.109375
6275		-35.156250
6276		-37.109375
6277		-33.203125
6278		-37.109375
6279		-35.156250
6280		-39.062500
6281		-33.203125
6282		-37.109375
6283		-33.203125
6284		-35.156250
6285		-33.203125
6286		-37.109375
6287		-31.250000
6288		-35.156250
6289		-31.250000
6290		-35.156250
6291		-33.203125
6292		-33.203125
6293		-31.250000
6294		-33.203125
6295		-31.250000
6296		-33.203125
6297		-29.296875
6298		-33.203125
6299		-29.296875
6300		-33.203125
6301		-29.296875
6302		-31.250000
6303		-29.296875
6304		-33.203125
6305		-27.343750
6306		-31.250000
6307		-27.343750
6308		-29.296875
6309		-27.343750
6310		-29.296875
6311		-27.343750
6312		-29.296875
6313		-25.390625
6314		-31.250000
6315		-23.437500
6316		-29.296875
6317		-23.437500
6318		-27.343750
6319		-25.390625
6320		-27.343750
6321		-23.437500
6322		-27.343750
6323		-21.484375
6324		-25.390625
6325		-21.484375
6326		-23.437500
6327		-21.484375
6328		-23.437500
6329		-21.484375
6330		-25.390625
6331		-17.578125
6332		-23.437500
6333		-17.578125
6334		-21.484375
6335		-17.578125
6336		-19.531250
6337		-15.625000
6338		-19.531250
6339		-15.625000
6340		-17.578125
6341		-15.625000
6342		-17.578125
6343		-15.625000
6344		-17.578125
6345		-13.671875
6346		-17.578125
6347		-11.718750
6348		-15.625000
6349		-11.718750
6350		-15.625000
6351		-11.718750
6352		-13.671875
6353		-11.718750
6354		-13.671875
6355		-7.812500
6356		-11.718750
6357		-7.812500
6358		-9.765625
6359		-7.812500
6360		-9.765625
6361		-5.859375
6362		-7.812500
6363		-5.859375
6364		-7.812500
6365		-3.906250
6366		-7.812500
6367		-3.906250
6368		-5.859375
6369		-3.906250
6370		-5.859375
6371		-1.953125
6372		-3.906250
6373		0.000000
6374		-3.906250
6375		0.000000
6376		-1.953125
6377		0.000000
6378		-1.953125
6379		1.953125
6380		0.000000
6381		3.906250
6382		0.000000
6383		3.906250
6384		1.953125
6385		3.906250
6386		1.953125
6387		3.906250
6388		1.953125
6389		7.812500
6390		3.906250
6391		5.859375
6392		5.859375
6393		7.812500
6394		5.859375
6395		7.812500
6396		5.859375
6397		9.765625
6398		7.812500
6399		11.718750
6400		7.812500
6401		11.718750
6402		9.765625
6403		11.718750
6404		9.765625
6405		13.671875
6406		11.718750
6407		13.671875
6408		11.718750
6409		13.671875
6410		13.671875
6411		15.625000
6412		13.671875
6413		15.625000
6414		13.671875
6415		17.578125
6416		15.625000
6417		17.578125
6418		15.625000
6419		19.531250
6420		17.578125
6421		19.531250
6422		17.578125
6423		19.531250
6424		17.578125
6425		21.484375
6426		19.531250
6427		21.484375
6428		19.531250
6429		23.437500
6430		19.531250
6431		23.437500
6432		21.484375
6433		23.437500
6434		21.484375
6435		23.437500
6436		21.484375
6437		25.390625
6438		23.437500
6439		25.390625
6440		23.437500
6441		25.390625
6442		23.437500
6443		27.343750
6444		25.390625
6445		27.343750
6446		25.390625
6447		27.343750
6448		25.390625
6449		29.296875
6450		27.343750
6451		29.296875
6452		27.343750
6453		29.296875
6454		27.343750
6455		29.296875
6456		29.296875
6457		31.250000
6458		29.296875
6459		31.250000
6460		29.296875
6461		31.250000
6462		29.296875
6463		31.250000
6464		29.296875
6465		31.250000
6466		29.296875
6467		33.203125
6468		31.250000
6469		33.203125
6470		31.250000
6471		33.203125
6472		31.250000
6473		33.203125
6474		31.250000
6475		33.203125
6476		31.250000
6477		35.156250
6478		31.250000
6479		35.156250
6480		33.203125
6481		35.156250
6482		33.203125
6483		35.156250
6484		33.203125
6485		35.156250
6486		33.203125
6487		35.156250
6488		33.203125
6489		35.156250
6490		33.203125
6491		35.156250
6492		33.203125
6493		35.156250
6494		33.203125
6495		35.156250
6496		33.203125
6497		35.156250
6498		33.203125
6499		35.156250
6500		33.203125
6501		37.109375
6502		33.203125
6503		35.156250
6504		33.203125
6505		35.156250
6506		33.203125
6507		35.156250
6508		33.203125
6509		35.156250
6510		33.203125
6511		35.156250
6512		33.203125
6513		35.156250
6514		31.250000
6515		37.109375
6516		33.203125
6517		35.156250
6518		33.203125
6519		35.156250
6520		31.250000
6521		33.203125
6522		31.250000
6523		33.203125
6524		31.250000
6525		33.203125
6526		31.250000
6527		33.203125
6528		31.250000
6529		33.203125
6530		31.250000
6531		33.203125
6532		27.343750
6533		33.203125
6534		29.296875
6535		31.250000
6536		29.296875
6537		31.250000
6538		29.296875
6539		31.250000
6540		29.296875
6541		31.250000
6542		27.343750
6543		29.296875
6544		27.343750
6545		29.296875
6546		27.343750
6547		29.296875
6548		25.390625
6549		29.296875
6550		23.437500
6551		29.296875
6552		25.390625
6553		27.343750
6554		25.390625
6555		27.343750
6556		23.437500
6557		25.390625
6558		23.437500
6559		25.390625
6560		23.437500
6561		25.390625
6562		21.484375
6563		23.437500
6564		21.484375
6565		23.437500
6566		17.578125
6567		25.390625
6568		17.578125
6569		23.437500
6570		19.531250
6571		21.484375
6572		17.578125
6573		21.484375
6574		17.578125
6575		19.531250
6576		17.578125
6577		19.531250
6578		15.625000
6579		17.578125
6580		13.671875
6581		17.578125
6582		11.718750
6583		17.578125
6584		11.718750
6585		17.578125
6586		11.718750
6587		15.625000
6588		11.718750
6589		13.671875
6590		9.765625
6591		13.671875
6592		9.765625
6593		11.718750
6594		9.765625
6595		11.718750
6596		7.812500
6597		9.765625
6598		5.859375
6599		9.765625
6600		3.906250
6601		11.718750
6602		3.906250
6603		9.765625
6604		3.906250
6605		7.812500
6606		1.953125
6607		5.859375
6608		1.953125
6609		3.906250
6610		0.000000
6611		3.906250
6612		0.000000
6613		1.953125
6614		0.000000
6615		1.953125
6616		-3.906250
6617		1.953125
6618		-3.906250
6619		1.953125
6620		-3.906250
6621		-1.953125
6622		-3.906250
6623		-1.953125
6624		-5.859375
6625		-3.906250
6626		-5.859375
6627		-3.906250
6628		-7.812500
6629		-5.859375
6630		-7.812500
6631		-5.859375
6632		-11.718750
6633		-5.859375
6634		-11.718750
6635		-5.859375
6636		-11.718750
6637		-7.812500
6638		-11.718750
6639		-9.765625
6640		-13.671875
6641		-9.765625
6642		-13.671875
6643		-11.718750
6644		-15.625000
6645		-11.718750
6646		-15.625000
6647		-13.671875
6648		-17.578125
6649		-13.671875
6650		-19.531250
6651		-11.718750
6652		-19.531250
6653		-13.671875
6654		-19.531250
6655		-17.578125
6656		-19.531250
6657		-17.578125
6658		-21.484375
6659		-19.531250
6660		-21.484375
6661		-19.531250
6662		-23.437500
6663		-19.531250
6664		-23.437500
6665		-21.484375
6666		-25.390625
6667		-19.531250
6668		-27.343750
6669		-21.484375
6670		-25.390625
6671		-23.437500
6672		-27.343750
6673		-23.437500
6674		-27.343750
6675		-25.390625
6676		-27.343750
6677		-25.390625
6678		-29.296875
6679		-25.390625
6680		-29.296875
6681		-27.343750
6682		-29.296875
6683		-27.343750
6684		-33.203125
6685		-25.390625
6686		-31.250000
6687		-27.343750
6688		-31.250000
6689		-29.296875
6690		-31.250000
6691		-29.296875
6692		-33.203125
6693		-31.250000
6694		-33.203125
6695		-31.250000
6696		-33.203125
6697		-31.250000
6698		-33.203125
6699		-31.250000
6700		-37.109375
6701		-29.296875
6702		-37.109375
6703		-31.250000
6704		-35.156250
6705		-33.203125
6706		-37.109375
6707		-33.203125
6708		-37.109375
6709		-33.203125
6710		-37.109375
6711		-35.156250
6712		-37.109375
6713		-35.156250
6714		-37.109375
6715		-35.156250
6716		-39.062500
6717		-33.203125
6718		-41.015625
6719		-33.203125
6720		-39.062500
6721		-33.203125
6722		-37.109375
6723		-35.156250
6724		-37.109375
6725		-35.156250
6726		-37.109375
6727		-35.156250
6728		-37.109375
6729		-37.109375
6730		-39.062500
6731		-35.156250
6732		-39.062500
6733		-37.109375
6734		-39.062500
6735		-35.156250
6736		-39.062500
6737		-37.109375
6738		-39.062500
6739		-37.109375
6740		-39.062500
6741		-35.156250
6742		-37.109375
6743		-35.156250
6744		-39.062500
6745		-35.156250
6746		-37.109375
6747		-35.156250
6748		-37.109375
6749		-35.156250
6750		-39.062500
6751		-33.203125
6752		-37.109375
6753		-35.156250
6754		-37.109375
6755		-35.156250
6756		-37.109375
6757		-35.156250
6758		-37.109375
6759		-35.156250
6760		-35.156250
6761		-33.203125
6762		-35.156250
6763		-33.203125
6764		-35.156250
6765		-33.203125
6766		-35.156250
6767		-33.203125
6768		-35.156250
6769		-31.250000
6770		-33.203125
6771		-31.250000
6772		-33.203125
6773		-31.250000
6774		-33.203125
6775		-29.296875
6776		-33.203125
6777		-29.296875
6778		-31.250000
6779		-29.296875
6780		-31.250000
6781		-29.296875
6782		-31.250000
6783		-29.296875
6784		-29.296875
6785		-27.343750
6786		-29.296875
6787		-27.343750
6788		-29.296875
6789		-27.343750
6790		-29.296875
6791		-25.390625
6792		-27.343750
6793		-25.390625
6794		-27.343750
6795		-25.390625
6796		-27.343750
6797		-23.437500
6798		-25.390625
6799		-23.437500
6800		-25.390625
6801		-21.484375
6802		-23.437500
6803		-21.484375
6804		-23.437500
6805		-21.484375
6806		-23.437500
6807		-19.531250
6808		-21.484375
6809		-19.531250
6810		-21.484375
6811		-17.578125
6812		-19.531250
6813		-17.578125
6814		-19.531250
6815		-17.578125
6816		-17.578125
6817		-15.625000
6818		-17.578125
6819		-15.625000
6820		-17.578125
6821		-13.671875
6822		-15.625000
6823		-13.671875
6824		-15.625000
6825		-11.718750
6826		-13.671875
6827		-11.718750
6828		-13.671875
6829		-9.765625
6830		-13.671875
6831		-9.765625
6832		-11.718750
6833		-9.765625
6834		-9.765625
6835		-7.812500
6836		-9.765625
6837		-5.859375
6838		-7.812500
6839		-5.859375
6840		-7.812500
6841		-5.859375
6842		-5.859375
6843		-3.906250
6844		-5.859375
6845		-3.906250
6846		-5.859375
6847		-1.953125
6848		-3.906250
6849		-1.953125
6850		-3.906250
6851		0.000000
6852		-1.953125
6853		0.000000
6854		-1.953125
6855		1.953125
6856		0.000000
6857		1.953125
6858		0.000000
6859		3.906250
6860		1.953125
6861		3.906250
6862		1.953125
6863		5.859375
6864		3.906250
6865		5.859375
6866		3.906250
6867		7.812500
6868		5.859375
6869		7.812500
6870		5.859375
6871		7.812500
6872		7.812500
6873		9.765625
6874		7.812500
6875		9.765625
6876		9.765625
6877		11.718750
6878		9.765625
6879		11.718750
6880		9.765625
6881		13.671875
6882		11.718750
6883		13.671875
6884		11.718750
6885		13.671875
6886		13.671875
6887		15.625000
6888		13.671875
6889		17.578125
6890		15.625000
6891		17.578125
6892		15.625000
6893		17.578125
6894		15.625000
6895		19.531250
6896		17.578125
6897		19.531250
6898		17.578125
6899		19.531250
6900		19.531250
6901		21.484375
6902		19.531250
6903		21.484375
6904		19.531250
6905		21.484375
6906		21.484375
6907		23.437500
6908		21.484375
6909		23.437500
6910		21.484375
6911		25.390625
6912		23.437500
6913		25.390625
6914		23.437500
6915		25.390625
6916		23.437500
6917		25.390625
6918		25.390625
6919		27.343750
6920		25.390625
6921		27.343750
6922		25.390625
6923		27.343750
6924		25.390625
6925		29.296875
6926		27.343750
6927		29.296875
6928		27.343750
6929		29.296875
6930		27.343750
6931		29.296875
6932		27.343750
6933		31.250000
6934		29.296875
6935		31.250000
6936		29.296875
6937		31.250000
6938		29.296875
6939		31.250000
6940		29.296875
6941		31.250000
6942		29.296875
6943		33.203125
6944		31.250000
6945		33.203125
6946		31.250000
6947		33.203125
6948		31.250000
6949		33.203125
6950		31.250000
6951		33.203125
6952		31.250000
6953		33.203125
6954		31.250000
6955		35.156250
6956		31.250000
6957		35.156250
6958		33.203125
6959		35.156250
6960		33.203125
6961		35.156250
6962		33.203125
6963		35.156250
6964		33.203125
6965		35.156250
6966		33.203125
6967		35.156250
6968		33.203125
6969		35.156250
6970		33.203125
6971		35.156250
6972		33.203125
6973		35.156250
6974		33.203125
6975		35.156250
6976		33.203125
6977		35.156250
6978		33.203125
6979		35.156250
6980		33.203125
6981		35.156250
6982		33.203125
6983		35.156250
6984		33.203125
6985		35.156250
6986		31.250000
6987		35.156250
6988		31.250000
6989		35.156250
6990		31.250000
6991		35.156250
6992		31.250000
6993		33.203125
6994		31.250000
6995		33.203125
6996		31.250000
6997		33.203125
6998		31.250000
6999		33.203125
7000		31.250000
7001		33.203125
7002		31.250000
7003		33.203125
7004		31.250000
7005		33.203125
7006		29.296875
7007		31.250000
7008		29.296875
7009		31.250000
7010		29.296875
7011		31.250000
7012		29.296875
7013		31.250000
7014		27.343750
7015		29.296875
7016		27.343750
7017		29.296875
7018		27.343750
7019		29.296875
7020		27.343750
7021		29.296875
7022		25.390625
7023		29.296875
7024		25.390625
7025		27.343750
7026		25.390625
7027		27.343750
7028		23.437500
7029		27.343750
7030		23.437500
7031		27.343750
7032		23.437500
7033		25.390625
7034		21.484375
7035		25.390625
7036		21.484375
7037		23.437500
7038		21.484375
7039		23.437500
7040		19.531250
7041		21.484375
7042		19.531250
7043		21.484375
7044		19.531250
7045		21.484375
7046		17.578125
7047		19.531250
7048		17.578125
7049		19.531250
7050		15.625000
7051		19.531250
7052		15.625000
7053		17.578125
7054		13.671875
7055		17.578125
7056		13.671875
7057		15.625000
7058		13.671875
7059		15.625000
7060		11.718750
7061		13.671875
7062		11.718750
7063		13.671875
7064		9.765625
7065		13.671875
7066		9.765625
7067		11.718750
7068		7.812500
7069		11.718750
7070		7.812500
7071		9.765625
7072		5.859375
7073		9.765625
7074		5.859375
7075		7.812500
7076		3.906250
7077		7.812500
7078		3.906250
7079		5.859375
7080		1.953125
7081		5.859375
7082		1.953125
7083		3.906250
7084		1.953125
7085		3.906250
7086		0.000000
7087		1.953125
7088		-1.953125
7089		1.953125
7090		-1.953125
7091		0.000000
7092		-1.953125
7093		0.000000
7094		-3.906250
7095		-1.953125
7096		-3.906250
7097		-1.953125
7098		-5.859375
7099		-3.906250
7100		-5.859375
7101		-3.906250
7102		-7.812500
7103		-5.859375
7104		-7.812500
7105		-5.859375
7106		-9.765625
7107		-7.812500
7108		-11.718750
7109		-7.812500
7110		-11.718750
7111		-7.812500
7112		-11.718750
7113		-9.765625
7114		-13.671875
7115		-11.718750
7116		-13.671875
7117		-11.718750
7118		-15.625000
7119		-13.671875
7120		-17.578125
7121		-13.671875
7122		-17.578125
7123		-13.671875
7124		-17.578125
7125		-15.625000
7126		-19.531250
7127		-15.625000
7128		-19.531250
7129		-17.578125
7130		-21.484375
7131		-17.578125
7132		-21.484375
7133		-17.578125
7134		-21.484375
7135		-19.531250
7136		-23.437500
7137		-21.484375
7138		-23.437500
7139		-21.484375
7140		-25.390625
7141		-21.484375
7142		-25.390625
7143		-23.437500
7144		-25.390625
7145		-23.437500
7146		-27.343750
7147		-23.437500
7148		-27.343750
7149		-25.390625
7150		-29.296875
7151		-25.390625
7152		-29.296875
7153		-27.343750
7154		-29.296875
7155		-27.343750
7156		-29.296875
7157		-27.343750
7158		-31.250000
7159		-29.296875
7160		-31.250000
7161		-29.296875
7162		-31.250000
7163		-29.296875
7164		-33.203125
7165		-31.250000
7166		-33.203125
7167		-31.250000
7168		-33.203125
7169		-31.250000
7170		-35.156250
7171		-31.250000
7172		-35.156250
7173		-33.203125
7174		-35.156250
7175		-33.203125
7176		-35.156250
7177		-33.203125
7178		-35.156250
7179		-33.203125
7180		-37.109375
7181		-33.203125
7182		-37.109375
7183		-35.156250
7184		-37.109375
7185		-35.156250
7186		-37.109375
7187		-35.156250
7188		-37.109375
7189		-35.156250
7190		-37.109375
7191		-35.156250
7192		-37.109375
7193		-35.156250
7194		-37.109375
7195		-37.109375
7196		-39.062500
7197		-37.109375
7198		-39.062500
7199		-35.156250
7200		-39.062500
7201		-37.109375
7202		-39.062500
7203		-37.109375
7204		-39.062500
7205		-37.109375
7206		-39.062500
7207		-37.109375
7208		-39.062500
7209		-37.109375
7210		-39.062500
7211		-35.156250
7212		-39.062500
7213		-37.109375
7214		-39.062500
7215		-37.109375
7216		-39.062500
7217		-37.109375
7218		-39.062500
7219		-37.109375
7220		-39.062500
7221		-35.156250
7222		-37.109375
7223		-35.156250
7224		-37.109375
7225		-35.156250
7226		-37.109375
7227		-35.156250
7228		-37.109375
7229		-35.156250
7230		-37.109375
7231		-35.156250
7232		-37.109375
7233		-35.156250
7234		-37.109375
7235		-35.156250
7236		-35.156250
7237		-35.156250
7238		-35.156250
7239		-33.203125
7240		-35.156250
7241		-33.203125
7242		-35.156250
7243		-33.203125
7244		-35.156250
7245		-33.203125
7246		-35.156250
7247		-31.250000
7248		-33.203125
7249		-31.250000
7250		-33.203125
7251		-31.250000
7252		-33.203125
7253		-29.296875
7254		-31.250000
7255		-29.296875
7256		-31.250000
7257		-29.296875
7258		-31.250000
7259		-29.296875
7260		-31.250000
7261		-27.343750
7262		-29.296875
7263		-27.343750
7264		-29.296875
7265		-27.343750
7266		-29.296875
7267		-25.390625
7268		-27.343750
7269		-25.390625
7270		-27.343750
7271		-25.390625
7272		-27.343750
7273		-23.437500
7274		-25.390625
7275		-23.437500
7276		-25.390625
7277		-21.484375
7278		-23.437500
7279		-21.484375
7280		-23.437500
7281		-21.484375
7282		-23.437500
7283		-19.531250
7284		-21.484375
7285		-19.531250
7286		-21.484375
7287		-17.578125
7288		-21.484375
7289		-17.578125
7290		-19.531250
7291		-17.578125
7292		-19.531250
7293		-15.625000
7294		-17.578125
7295		-13.671875
7296		-17.578125
7297		-13.671875
7298		-15.625000
7299		-13.671875
7300		-15.625000
7301		-11.718750
7302		-13.671875
7303		-11.718750
7304		-13.671875
7305		-9.765625
7306		-13.671875
7307		-9.765625
7308		-11.718750
7309		-7.812500
7310		-11.718750
7311		-7.812500
7312		-9.765625
7313		-5.859375
7314		-9.765625
7315		-5.859375
7316		-7.812500
7317		-5.859375
7318		-7.812500
7319		-3.906250
7320		-5.859375
7321		-1.953125
7322		-5.859375
7323		-1.953125
7324		-3.906250
7325		-1.953125
7326		-3.906250
7327		0.000000
7328		-1.953125
7329		0.000000
7330		-1.953125
7331		1.953125
7332		0.000000
7333		1.953125
7334		0.000000
7335		3.906250
7336		1.953125
7337		3.906250
7338		1.953125
7339		5.859375
7340		3.906250
7341		5.859375
7342		3.906250
7343		7.812500
7344		5.859375
7345		7.812500
7346		5.859375
7347		9.765625
7348		5.859375
7349		9.765625
7350		7.812500
7351		11.718750
7352		7.812500
7353		11.718750
7354		9.765625
7355		11.718750
7356		9.765625
7357		13.671875
7358		11.718750
7359		13.671875
7360		11.718750
7361		15.625000
7362		11.718750
7363		15.625000
7364		13.671875
7365		15.625000
7366		13.671875
7367		17.578125
7368		15.625000
7369		17.578125
7370		15.625000
7371		19.531250
7372		15.625000
7373		19.531250
7374		17.578125
7375		19.531250
7376		17.578125
7377		21.484375
7378		19.531250
7379		21.484375
7380		19.531250
7381		21.484375
7382		19.531250
7383		23.437500
7384		21.484375
7385		23.437500
7386		21.484375
7387		23.437500
7388		21.484375
7389		25.390625
7390		23.437500
7391		25.390625
7392		23.437500
7393		25.390625
7394		23.437500
7395		27.343750
7396		25.390625
7397		27.343750
7398		25.390625
7399		27.343750
7400		25.390625
7401		27.343750
7402		27.343750
7403		29.296875
7404		27.343750
7405		29.296875
7406		27.343750
7407		29.296875
7408		27.343750
7409		29.296875
7410		27.343750
7411		31.250000
7412		29.296875
7413		31.250000
7414		29.296875
7415		31.250000
7416		29.296875
7417		33.203125
7418		29.296875
7419		31.250000
7420		29.296875
7421		33.203125
7422		31.250000
7423		33.203125
7424		31.250000
7425		33.203125
7426		31.250000
7427		33.203125
7428		31.250000
7429		33.203125
7430		31.250000
7431		33.203125
7432		31.250000
7433		33.203125
7434		31.250000
7435		33.203125
7436		31.250000
7437		33.203125
7438		31.250000
7439		35.156250
7440		33.203125
7441		33.203125
7442		31.250000
7443		35.156250
7444		33.203125
7445		35.156250
7446		33.203125
7447		35.156250
7448		31.250000
7449		35.156250
7450		33.203125
7451		35.156250
7452		33.203125
7453		35.156250
7454		33.203125
7455		35.156250
7456		33.203125
7457		35.156250
7458		31.250000
7459		35.156250
7460		31.250000
7461		35.156250
7462		31.250000
7463		33.203125
7464		31.250000
7465		33.203125
7466		31.250000
7467		33.203125
7468		31.250000
7469		33.203125
7470		31.250000
7471		33.203125
7472		31.250000
7473		33.203125
7474		31.250000
7475		33.203125
7476		29.296875
7477		33.203125
7478		29.296875
7479		31.250000
7480		29.296875
7481		31.250000
7482		29.296875
7483		31.250000
7484		29.296875
7485		31.250000
7486		27.343750
7487		29.296875
7488		27.343750
7489		29.296875
7490		27.343750
7491		29.296875
7492		25.390625
7493		29.296875
7494		25.390625
7495		29.296875
7496		25.390625
7497		27.343750
7498		25.390625
7499		27.343750
7500		23.437500
7501		27.343750
7502		23.437500
7503		27.343750
7504		23.437500
7505		25.390625
7506		23.437500
7507		25.390625
7508		21.484375
7509		23.437500
7510		21.484375
7511		23.437500
7512		19.531250
7513		23.437500
7514		19.531250
7515		21.484375
7516		19.531250
7517		21.484375
7518		17.578125
7519		21.484375
7520		17.578125
7521		19.531250
7522		17.578125
7523		19.531250
7524		15.625000
7525		19.531250
7526		15.625000
7527		17.578125
7528		13.671875
7529		17.578125
7530		13.671875
7531		15.625000
7532		11.718750
7533		15.625000
7534		11.718750
7535		13.671875
7536		11.718750
7537		13.671875
7538		9.765625
7539		11.718750
7540		9.765625
7541		11.718750
7542		7.812500
7543		9.765625
7544		7.812500
7545		9.765625
7546		5.859375
7547		9.765625
7548		5.859375
7549		7.812500
7550		3.906250
7551		7.812500
7552		3.906250
7553		5.859375
7554		1.953125
7555		5.859375
7556		1.953125
7557		5.859375
7558		0.000000
7559		3.906250
7560		0.000000
7561		1.953125
7562		0.000000
7563		1.953125
7564		-1.953125
7565		0.000000
7566		-3.906250
7567		0.000000
7568		-3.906250
7569		-1.953125
7570		-5.859375
7571		-1.953125
7572		-5.859375
7573		-3.906250
7574		-7.812500
7575		-3.906250
7576		-9.765625
7577		-5.859375
7578		-11.718750
7579		-3.906250
7580		-9.765625
7581		-7.812500
7582		-13.671875
7583		-5.859375
7584		-11.718750
7585		-9.765625
7586		-11.718750
7587		-9.765625
7588		-13.671875
7589		-11.718750
7590		-13.671875
7591		-11.718750
7592		-15.625000
7593		-13.671875
7594		-17.578125
7595		-11.718750
7596		-17.578125
7597		-13.671875
7598		-19.531250
7599		-15.625000
7600		-21.484375
7601		-13.671875
7602		-23.437500
7603		-13.671875
7604		-21.484375
7605		-17.578125
7606		-21.484375
7607		-19.531250
7608		-23.437500
7609		-19.531250
7610		-23.437500
7611		-21.484375
7612		-25.390625
7613		-17.578125
7614		-25.390625
7615		-21.484375
7616		-27.343750
7617		-19.531250
7618		-25.390625
7619		-23.437500
7620		-29.296875
7621		-21.484375
7622		-27.343750
7623		-25.390625
7624		-29.296875
7625		-25.390625
7626		-29.296875
7627		-25.390625
7628		-31.250000
7629		-23.437500
7630		-31.250000
7631		-27.343750
7632		-33.203125
7633		-27.343750
7634		-31.250000
7635		-27.343750
7636		-33.203125
7637		-27.343750
7638		-33.203125
7639		-31.250000
7640		-33.203125
7641		-31.250000
7642		-35.156250
7643		-29.296875
7644		-37.109375
7645		-29.296875
7646		-37.109375
7647		-31.250000
7648		-37.109375
7649		-33.203125
7650		-37.109375
7651		-31.250000
7652		-37.109375
7653		-33.203125
7654		-39.062500
7655		-33.203125
7656		-37.109375
7657		-35.156250
7658		-39.062500
7659		-33.203125
7660		-41.015625
7661		-31.250000
7662		-41.015625
7663		-33.203125
7664		-39.062500
7665		-35.156250
7666		-41.015625
7667		-33.203125
7668		-42.968750
7669		-33.203125
7670		-42.968750
7671		-33.203125
7672		-39.062500
7673		-37.109375
7674		-39.062500
7675		-37.109375
7676		-41.015625
7677		-35.156250
7678		-41.015625
7679		-33.203125
7680		-41.015625
7681		-37.109375
7682		-41.015625
7683		-35.156250
7684		-42.968750
7685		-33.203125
7686		-41.015625
7687		-33.203125
7688		-39.062500
7689		-37.109375
7690		-39.062500
7691		-37.109375
7692		-41.015625
7693		-35.156250
7694		-41.015625
7695		-33.203125
7696		-41.015625
7697		-33.203125
7698		-39.062500
7699		-37.109375
7700		-41.015625
7701		-31.250000
7702		-41.015625
7703		-33.203125
7704		-41.015625
7705		-33.203125
7706		-37.109375
7707		-35.156250
7708		-39.062500
7709		-33.203125
7710		-39.062500
7711		-31.250000
7712		-39.062500
7713		-31.250000
7714		-37.109375
7715		-33.203125
7716		-37.109375
7717		-33.203125
7718		-39.062500
7719		-29.296875
7720		-37.109375
7721		-29.296875
7722		-35.156250
7723		-31.250000
7724		-35.156250
7725		-31.250000
7726		-35.156250
7727		-29.296875
7728		-35.156250
7729		-27.343750
7730		-35.156250
7731		-27.343750
7732		-31.250000
7733		-29.296875
7734		-33.203125
7735		-25.390625
7736		-33.203125
7737		-25.390625
7738		-33.203125
7739		-23.437500
7740		-29.296875
7741		-27.343750
7742		-29.296875
7743		-25.390625
7744		-31.250000
7745		-21.484375
7746		-29.296875
7747		-21.484375
7748		-25.390625
7749		-23.437500
7750		-27.343750
7751		-19.531250
7752		-27.343750
7753		-19.531250
7754		-27.343750
7755		-17.578125
7756		-23.437500
7757		-21.484375
7758		-23.437500
7759		-19.531250
7760		-23.437500
7761		-17.578125
7762		-23.437500
7763		-15.625000
7764		-21.484375
7765		-15.625000
7766		-19.531250
7767		-15.625000
7768		-21.484375
7769		-11.718750
7770		-19.531250
7771		-11.718750
7772		-15.625000
7773		-13.671875
7774		-15.625000
7775		-13.671875
7776		-15.625000
7777		-9.765625
7778		-15.625000
7779		-7.812500
7780		-13.671875
7781		-9.765625
7782		-11.718750
7783		-9.765625
7784		-13.671875
7785		-3.906250
7786		-13.671875
7787		-3.906250
7788		-9.765625
7789		-3.906250
7790		-7.812500
7791		-5.859375
7792		-7.812500
7793		-3.906250
7794		-9.765625
7795		0.000000
7796		-7.812500
7797		0.000000
7798		-5.859375
7799		-1.953125
7800		-3.906250
7801		0.000000
7802		-5.859375
7803		3.906250
7804		-3.906250
7805		3.906250
7806		-1.953125
7807		1.953125
7808		0.000000
7809		1.953125
7810		0.000000
7811		5.859375
7812		-1.953125
7813		7.812500
7814		0.000000
7815		7.812500
7816		3.906250
7817		5.859375
7818		1.953125
7819		11.718750
7820		1.953125
7821		11.718750
7822		3.906250
7823		11.718750
7824		7.812500
7825		9.765625
7826		7.812500
7827		11.718750
7828		7.812500
7829		13.671875
7830		7.812500
7831		15.625000
7832		9.765625
7833		13.671875
7834		9.765625
7835		17.578125
7836		7.812500
7837		17.578125
7838		9.765625
7839		19.531250
7840		13.671875
7841		15.625000
7842		13.671875
7843		17.578125
7844		13.671875
7845		21.484375
7846		13.671875
7847		21.484375
7848		15.625000
7849		19.531250
7850		17.578125
7851		21.484375
7852		17.578125
7853		21.484375
7854		17.578125
7855		25.390625
7856		19.531250
7857		21.484375
7858		21.484375
7859		23.437500
7860		21.484375
7861		23.437500
7862		19.531250
7863		27.343750
7864		19.531250
7865		25.390625
7866		23.437500
7867		25.390625
7868		21.484375
7869		27.343750
7870		25.390625
7871		27.343750
7872		25.390625
7873		27.343750
7874		25.390625
7875		27.343750
7876		25.390625
7877		27.343750
7878		25.390625
7879		29.296875
7880		25.390625
7881		31.250000
7882		25.390625
7883		31.250000
7884		27.343750
7885		31.250000
7886		25.390625
7887		33.203125
7888		29.296875
7889		31.250000
7890		29.296875
7891		31.250000
7892		29.296875
7893		31.250000
7894		29.296875
7895		33.203125
7896		29.296875
7897		33.203125
7898		31.250000
7899		33.203125
7900		31.250000
7901		33.203125
7902		31.250000
7903		33.203125
7904		31.250000
7905		33.203125
7906		31.250000
7907		33.203125
7908		31.250000
7909		33.203125
7910		31.250000
7911		35.156250
7912		31.250000
7913		33.203125
7914		31.250000
7915		33.203125
7916		31.250000
7917		35.156250
7918		31.250000
7919		35.156250
7920		33.203125
7921		33.203125
7922		31.250000
7923		35.156250
7924		31.250000
7925		33.203125
7926		33.203125
7927		35.156250
7928		31.250000
7929		37.109375
7930		27.343750
7931		37.109375
7932		31.250000
7933		35.156250
7934		29.296875
7935		37.109375
7936		29.296875
7937		35.156250
7938		29.296875
7939		35.156250
7940		31.250000
7941		35.156250
7942		31.250000
7943		33.203125
7944		29.296875
7945		35.156250
7946		27.343750
7947		35.156250
7948		27.343750
7949		35.156250
7950		29.296875
7951		35.156250
7952		27.343750
7953		33.203125
7954		27.343750
7955		33.203125
7956		27.343750
7957		33.203125
7958		27.343750
7959		31.250000
7960		27.343750
7961		31.250000
7962		25.390625
7963		31.250000
7964		25.390625
7965		33.203125
7966		23.437500
7967		31.250000
7968		25.390625
7969		31.250000
7970		23.437500
7971		29.296875
7972		23.437500
7973		29.296875
7974		25.390625
7975		27.343750
7976		23.437500
7977		25.390625
7978		21.484375
7979		27.343750
7980		19.531250
7981		27.343750
7982		19.531250
7983		27.343750
7984		19.531250
7985		27.343750
7986		19.531250
7987		25.390625
7988		19.531250
7989		23.437500
7990		19.531250
7991		23.437500
7992		17.578125
7993		21.484375
7994		17.578125
7995		21.484375
7996		13.671875
7997		21.484375
7998		13.671875
7999		21.484375
8000		13.671875
8001		19.531250
8002		13.671875
8003		19.531250
8004		13.671875
8005		17.578125
8006		11.718750
8007		17.578125
8008		11.718750
8009		15.625000
8010		11.718750
8011		13.671875
8012		9.765625
8013		13.671875
8014		5.859375
8015		15.625000
8016		7.812500
8017		11.718750
8018		5.859375
8019		13.671875
8020		5.859375
8021		9.765625
8022		3.906250
8023		9.765625
8024		3.906250
8025		7.812500
8026		3.906250
8027		5.859375
8028		1.953125
8029		5.859375
8030		-1.953125
8031		7.812500
8032		-1.953125
8033		5.859375
8034		-1.953125
8035		3.906250
8036		-1.953125
8037		3.906250
8038		-1.953125
8039		1.953125
8040		-3.906250
8041		1.953125
8042		-3.906250
8043		-1.953125
8044		-5.859375
8045		-1.953125
8046		-5.859375
8047		-1.953125
8048		-9.765625
8049		-1.953125
8050		-9.765625
8051		-3.906250
8052		-9.765625
8053		-3.906250
8054		-9.765625
8055		-5.859375
8056		-11.718750
8057		-7.812500
8058		-11.718750
8059		-7.812500
8060		-11.718750
8061		-9.765625
8062		-13.671875
8063		-9.765625
8064		-17.578125
8065		-7.812500
8066		-17.578125
8067		-9.765625
8068		-17.578125
8069		-11.718750
8070		-17.578125
8071		-13.671875
8072		-17.578125
8073		-15.625000
8074		-19.531250
8075		-15.625000
8076		-19.531250
8077		-17.578125
8078		-21.484375
8079		-17.578125
8080		-21.484375
8081		-17.578125
8082		-25.390625
8083		-17.578125
8084		-25.390625
8085		-19.531250
8086		-25.390625
8087		-21.484375
8088		-25.390625
8089		-21.484375
8090		-27.343750
8091		-21.484375
8092		-25.390625
8093		-23.437500
8094		-27.343750
8095		-25.390625
8096		-29.296875
8097		-23.437500
8098		-31.250000
8099		-23.437500
8100		-29.296875
8101		-25.390625
8102		-31.250000
8103		-27.343750
8104		-31.250000
8105		-27.343750
8106		-31.250000
8107		-27.343750
8108		-33.203125
8109		-29.296875
8110		-33.203125
8111		-29.296875
8112		-33.203125
8113		-29.296875
8114		-37.109375
8115		-29.296875
8116		-37.109375
8117		-29.296875
8118		-35.156250
8119		-31.250000
8120		-35.156250
8121		-31.250000
8122		-35.156250
8123		-33.203125
8124		-37.109375
8125		-33.203125
8126		-37.109375
8127		-33.203125
8128		-37.109375
8129		-35.156250
8130		-39.062500
8131		-35.156250
8132		-41.015625
8133		-31.250000
8134		-39.062500
8135		-33.203125
8136		-39.062500
8137		-35.156250
8138		-39.062500
8139		-35.156250
8140		-39.062500
8141		-35.156250
8142		-39.062500
8143		-37.109375
8144		-39.062500
8145		-35.156250
8146		-41.015625
8147		-35.156250
8148		-42.968750
8149		-33.203125
8150		-41.015625
8151		-35.156250
8152		-41.015625
8153		-35.156250
8154		-41.015625
8155		-37.109375
8156		-39.062500
8157		-35.156250
8158		-41.015625
8159		-35.156250
8160		-39.062500
8161		-37.109375
8162		-39.062500
8163		-37.109375
8164		-42.968750
8165		-35.156250
8166		-42.968750
8167		-33.203125
8168		-41.015625
8169		-35.156250
8170		-39.062500
8171		-37.109375
8172		-39.062500
8173		-35.156250
8174		-41.015625
8175		-35.156250
8176		-39.062500
8177		-37.109375
8178		-39.062500
8179		-35.156250
8180		-39.062500
8181		-35.156250
8182		-41.015625
8183		-33.203125
8184		-41.015625
8185		-33.203125
8186		-37.109375
8187		-33.203125
8188		-37.109375
8189		-33.203125
8190		-37.109375
8191		-33.203125
8192		-37.109375
8193		-31.250000
8194		-35.156250
8195		-33.203125
8196		-35.156250
8197		-31.250000
8198		-37.109375
8199		-29.296875
8200		-37.109375
8201		-29.296875
8202		-35.156250
8203		-29.296875
8204		-33.203125
8205		-29.296875
8206		-33.203125
8207		-29.296875
8208		-31.250000
8209		-27.343750
8210		-31.250000
8211		-27.343750
8212		-29.296875
8213		-27.343750
8214		-31.250000
8215		-25.390625
8216		-31.250000
8217		-23.437500
8218		-31.250000
8219		-23.437500
8220		-27.343750
8221		-23.437500
8222		-27.343750
8223		-23.437500
8224		-27.343750
8225		-23.437500
8226		-27.343750
8227		-23.437500
8228		-25.390625
8229		-21.484375
8230		-25.390625
8231		-19.531250
8232		-27.343750
8233		-17.578125
8234		-25.390625
8235		-17.578125
8236		-21.484375
8237		-17.578125
8238		-21.484375
8239		-17.578125
8240		-19.531250
8241		-17.578125
8242		-19.531250
8243		-15.625000
8244		-19.531250
8245		-15.625000
8246		-17.578125
8247		-13.671875
8248		-19.531250
8249		-11.718750
8250		-19.531250
8251		-9.765625
8252		-17.578125
8253		-9.765625
8254		-13.671875
8255		-11.718750
8256		-13.671875
8257		-9.765625
8258		-11.718750
8259		-7.812500
8260		-11.718750
8261		-7.812500
8262		-9.765625
8263		-7.812500
8264		-9.765625
8265		-5.859375
8266		-11.718750
8267		-1.953125
8268		-9.765625
8269		-1.953125
8270		-7.812500
8271		-1.953125
8272		-5.859375
8273		-1.953125
8274		-5.859375
8275		-1.953125
8276		-3.906250
8277		0.000000
8278		-1.953125
8279		0.000000
8280		-3.906250
8281		1.953125
8282		-1.953125
8283		3.906250
8284		-3.906250
8285		5.859375
8286		-1.953125
8287		5.859375
8288		1.953125
8289		5.859375
8290		1.953125
8291		5.859375
8292		1.953125
8293		7.812500
8294		3.906250
8295		7.812500
8296		5.859375
8297		7.812500
8298		5.859375
8299		9.765625
8300		3.906250
8301		13.671875
8302		5.859375
8303		13.671875
8304		9.765625
8305		11.718750
8306		9.765625
8307		13.671875
8308		9.765625
8309		13.671875
8310		9.765625
8311		15.625000
8312		11.718750
8313		15.625000
8314		13.671875
8315		17.578125
8316		11.718750
8317		19.531250
8318		11.718750
8319		21.484375
8320		15.625000
8321		19.531250
8322		15.625000
8323		19.531250
8324		15.625000
8325		19.531250
8326		17.578125
8327		21.484375
8328		19.531250
8329		21.484375
8330		19.531250
8331		21.484375
8332		19.531250
8333		25.390625
8334		17.578125
8335		25.390625
8336		19.531250
8337		25.390625
8338		21.484375
8339		25.390625
8340		21.484375
8341		25.390625
8342		23.437500
8343		25.390625
8344		23.437500
8345		25.390625
8346		23.437500
8347		27.343750
8348		23.437500
8349		29.296875
8350		21.484375
8351		31.250000
8352		23.437500
8353		29.296875
8354		25.390625
8355		29.296875
8356		27.343750
8357		31.250000
8358		27.343750
8359		31.250000
8360		27.343750
8361		31.250000
8362		29.296875
8363		31.250000
8364		27.343750
8365		33.203125
8366		25.390625
8367		33.203125
8368		27.343750
8369		33.203125
8370		27.343750
8371		35.156250
8372		29.296875
8373		33.203125
8374		29.296875
8375		33.203125
8376		29.296875
8377		33.203125
8378		31.250000
8379		33.203125
8380		31.250000
8381		33.203125
8382		31.250000
8383		33.203125
8384		27.343750
8385		37.109375
8386		29.296875
8387		37.109375
8388		31.250000
8389		35.156250
8390		31.250000
8391		35.156250
8392		31.250000
8393		35.156250
8394		29.296875
8395		35.156250
8396		31.250000
8397		33.203125
8398		31.250000
8399		35.156250
8400		29.296875
8401		37.109375
8402		29.296875
8403		37.109375
8404		29.296875
8405		35.156250
8406		31.250000
8407		35.156250
8408		31.250000
8409		35.156250
8410		31.250000
8411		35.156250
8412		31.250000
8413		33.203125
8414		29.296875
8415		35.156250
8416		29.296875
8417		33.203125
8418		27.343750
8419		35.156250
8420		27.343750
8421		35.156250
8422		29.296875
8423		33.203125
8424		29.296875
8425		33.203125
8426		29.296875
8427		31.250000
8428		29.296875
8429		31.250000
8430		29.296875
8431		31.250000
8432		27.343750
8433		31.250000
8434		25.390625
8435		33.203125
8436		25.390625
8437		33.203125
8438		25.390625
8439		29.296875
8440		25.390625
8441		29.296875
8442		25.390625
8443		29.296875
8444		23.437500
8445		29.296875
8446		25.390625
8447		27.343750
8448		23.437500
8449		27.343750
8450		21.484375
8451		29.296875
8452		19.531250
8453		27.343750
8454		19.531250
8455		27.343750
8456		21.484375
8457		25.390625
8458		21.484375
8459		23.437500
8460		19.531250
8461		23.437500
8462		19.531250
8463		21.484375
8464		17.578125
8465		21.484375
8466		17.578125
8467		21.484375
8468		15.625000
8469		23.437500
8470		13.671875
8471		21.484375
8472		15.625000
8473		19.531250
8474		15.625000
8475		17.578125
8476		13.671875
8477		17.578125
8478		13.671875
8479		17.578125
8480		13.671875
8481		15.625000
8482		9.765625
8483		15.625000
8484		7.812500
8485		15.625000
8486		7.812500
8487		15.625000
8488		7.812500
8489		15.625000
8490		7.812500
8491		11.718750
8492		7.812500
8493		11.718750
8494		7.812500
8495		9.765625
8496		5.859375
8497		7.812500
8498		3.906250
8499		7.812500
8500		3.906250
8501		7.812500
8502		0.000000
8503		9.765625
8504		0.000000
8505		7.812500
8506		1.953125
8507		3.906250
8508		0.000000
8509		3.906250
8510		-3.906250
8511		1.953125
8512		-1.953125
8513		0.000000
8514		-3.906250
8515		0.000000
8516		-3.906250
8517		0.000000
8518		-7.812500
8519		0.000000
8520		-7.812500
8521		0.000000
8522		-7.812500
8523		-3.906250
8524		-7.812500
8525		-3.906250
8526		-7.812500
8527		-5.859375
8528		-9.765625
8529		-5.859375
8530		-11.718750
8531		-7.812500
8532		-11.718750
8533		-7.812500
8534		-15.625000
8535		-7.812500
8536		-17.578125
8537		-7.812500
8538		-17.578125
8539		-9.765625
8540		-15.625000
8541		-11.718750
8542		-15.625000
8543		-13.671875
8544		-17.578125
8545		-13.671875
8546		-17.578125
8547		-15.625000
8548		-19.531250
8549		-15.625000
8550		-21.484375
8551		-15.625000
8552		-23.437500
8553		-15.625000
8554		-23.437500
8555		-15.625000
8556		-23.437500
8557		-19.531250
8558		-23.437500
8559		-19.531250
8560		-25.390625
8561		-21.484375
8562		-25.390625
8563		-21.484375
8564		-25.390625
8565		-23.437500
8566		-27.343750
8567		-21.484375
8568		-31.250000
8569		-23.437500
8570		-29.296875
8571		-23.437500
8572		-31.250000
8573		-23.437500
8574		-29.296875
8575		-25.390625
8576		-31.250000
8577		-27.343750
8578		-31.250000
8579		-27.343750
8580		-31.250000
8581		-29.296875
8582		-33.203125
8583		-29.296875
8584		-33.203125
8585		-29.296875
8586		-35.156250
8587		-27.343750
8588		-35.156250
8589		-29.296875
8590		-35.156250
8591		-31.250000
8592		-35.156250
8593		-31.250000
8594		-37.109375
8595		-31.250000
8596		-35.156250
8597		-33.203125
8598		-37.109375
8599		-33.203125
8600		-39.062500
8601		-33.203125
8602		-41.015625
8603		-31.250000
8604		-41.015625
8605		-33.203125
8606		-39.062500
8607		-35.156250
8608		-39.062500
8609		-35.156250
8610		-39.062500
8611		-35.156250
8612		-39.062500
8613		-35.156250
8614		-39.062500
8615		-37.109375
8616		-41.015625
8617		-37.109375
8618		-42.968750
8619		-35.156250
8620		-42.968750
8621		-33.203125
8622		-42.968750
8623		-35.156250
8624		-41.015625
8625		-37.109375
8626		-39.062500
8627		-37.109375
8628		-41.015625
8629		-37.109375
8630		-39.062500
8631		-37.109375
8632		-39.062500
8633		-37.109375
8634		-41.015625
8635		-37.109375
8636		-42.968750
8637		-35.156250
8638		-42.968750
8639		-35.156250
8640		-41.015625
8641		-37.109375
8642		-41.015625
8643		-37.109375
8644		-39.062500
8645		-37.109375
8646		-41.015625
8647		-37.109375
8648		-39.062500
8649		-37.109375
8650		-41.015625
8651		-35.156250
8652		-41.015625
8653		-33.203125
8654		-41.015625
8655		-33.203125
8656		-41.015625
8657		-33.203125
8658		-37.109375
8659		-35.156250
8660		-37.109375
8661		-35.156250
8662		-39.062500
8663		-33.203125
8664		-37.109375
8665		-35.156250
8666		-37.109375
8667		-33.203125
8668		-37.109375
8669		-33.203125
8670		-39.062500
8671		-31.250000
8672		-37.109375
8673		-31.250000
8674		-35.156250
8675		-31.250000
8676		-33.203125
8677		-31.250000
8678		-35.156250
8679		-29.296875
8680		-33.203125
8681		-29.296875
8682		-31.250000
8683		-29.296875
8684		-33.203125
8685		-29.296875
8686		-33.203125
8687		-25.390625
8688		-33.203125
8689		-25.390625
8690		-31.250000
8691		-27.343750
8692		-29.296875
8693		-25.390625
8694		-29.296875
8695		-25.390625
8696		-27.343750
8697		-23.437500
8698		-27.343750
8699		-23.437500
8700		-27.343750
8701		-21.484375
8702		-27.343750
8703		-19.531250
8704		-27.343750
8705		-19.531250
8706		-27.343750
8707		-19.531250
8708		-23.437500
8709		-19.531250
8710		-21.484375
8711		-19.531250
8712		-21.484375
8713		-17.578125
8714		-21.484375
8715		-17.578125
8716		-19.531250
8717		-17.578125
8718		-19.531250
8719		-15.625000
8720		-21.484375
8721		-11.718750
8722		-19.531250
8723		-11.718750
8724		-15.625000
8725		-13.671875
8726		-15.625000
8727		-11.718750
8728		-13.671875
8729		-9.765625
8730		-15.625000
8731		-9.765625
8732		-11.718750
8733		-9.765625
8734		-11.718750
8735		-7.812500
8736		-13.671875
8737		-5.859375
8738		-13.671875
8739		-3.906250
8740		-11.718750
8741		-3.906250
8742		-7.812500
8743		-5.859375
8744		-7.812500
8745		-3.906250
8746		-7.812500
8747		-1.953125
8748		-5.859375
8749		-1.953125
8750		-3.906250
8751		-1.953125
8752		-5.859375
8753		0.000000
8754		-5.859375
8755		3.906250
8756		-3.906250
8757		3.906250
8758		0.000000
8759		3.906250
8760		0.000000
8761		3.906250
8762		1.953125
8763		5.859375
8764		1.953125
8765		5.859375
8766		3.906250
8767		5.859375
8768		3.906250
8769		7.812500
8770		3.906250
8771		9.765625
8772		3.906250
8773		9.765625
8774		7.812500
8775		9.765625
8776		7.812500
8777		9.765625
8778		7.812500
8779		11.718750
8780		7.812500
8781		11.718750
8782		9.765625
8783		13.671875
8784		9.765625
8785		15.625000
8786		9.765625
8787		17.578125
8788		9.765625
8789		17.578125
8790		9.765625
8791		17.578125
8792		13.671875
8793		17.578125
8794		13.671875
8795		17.578125
8796		15.625000
8797		19.531250
8798		15.625000
8799		19.531250
8800		17.578125
8801		19.531250
8802		17.578125
8803		21.484375
8804		15.625000
8805		23.437500
8806		15.625000
8807		25.390625
8808		19.531250
8809		23.437500
8810		19.531250
8811		23.437500
8812		21.484375
8813		23.437500
8814		19.531250
8815		25.390625
8816		21.484375
8817		25.390625
8818		21.484375
8819		25.390625
8820		21.484375
8821		29.296875
8822		21.484375
8823		29.296875
8824		23.437500
8825		29.296875
8826		25.390625
8827		27.343750
8828		25.390625
8829		29.296875
8830		25.390625
8831		29.296875
8832		27.343750
8833		29.296875
8834		27.343750
8835		29.296875
8836		25.390625
8837		31.250000
8838		25.390625
8839		33.203125
8840		25.390625
8841		35.156250
8842		29.296875
8843		31.250000
8844		29.296875
8845		31.250000
8846		29.296875
8847		33.203125
8848		29.296875
8849		31.250000
8850		29.296875
8851		33.203125
8852		29.296875
8853		33.203125
8854		27.343750
8855		35.156250
8856		27.343750
8857		35.156250
8858		31.250000
8859		33.203125
8860		31.250000
8861		33.203125
8862		31.250000
8863		33.203125
8864		29.296875
8865		35.156250
8866		31.250000
8867		33.203125
8868		31.250000
8869		35.156250
8870		29.296875
8871		37.109375
8872		29.296875
8873		37.109375
8874		29.296875
8875		37.109375
8876		31.250000
8877		35.156250
8878		31.250000
8879		35.156250
8880		29.296875
8881		35.156250
8882		31.250000
8883		33.203125
8884		31.250000
8885		33.203125
8886		29.296875
8887		33.203125
8888		27.343750
8889		35.156250
8890		27.343750
8891		35.156250
8892		29.296875
8893		35.156250
8894		29.296875
8895		33.203125
8896		29.296875
8897		33.203125
8898		29.296875
8899		33.203125
8900		29.296875
8901		31.250000
8902		27.343750
8903		31.250000
8904		25.390625
8905		33.203125
8906		25.390625
8907		33.203125
8908		25.390625
8909		33.203125
8910		25.390625
8911		29.296875
8912		27.343750
8913		29.296875
8914		25.390625
8915		29.296875
8916		25.390625
8917		27.343750
8918		25.390625
8919		27.343750
8920		23.437500
8921		29.296875
8922		21.484375
8923		29.296875
8924		21.484375
8925		29.296875
8926		23.437500
8927		25.390625
8928		21.484375
8929		25.390625
8930		21.484375
8931		25.390625
8932		19.531250
8933		23.437500
8934		19.531250
8935		23.437500
8936		17.578125
8937		23.437500
8938		15.625000
8939		23.437500
8940		15.625000
8941		23.437500
8942		15.625000
8943		21.484375
8944		15.625000
8945		19.531250
8946		15.625000
8947		19.531250
8948		13.671875
8949		17.578125
8950		13.671875
8951		17.578125
8952		13.671875
8953		17.578125
8954		11.718750
8955		17.578125
8956		9.765625
8957		17.578125
8958		7.812500
8959		15.625000
8960		9.765625
8961		13.671875
8962		7.812500
8963		13.671875
8964		7.812500
8965		11.718750
8966		7.812500
8967		9.765625
8968		5.859375
8969		9.765625
8970		3.906250
8971		9.765625
8972		1.953125
8973		9.765625
8974		1.953125
8975		9.765625
8976		1.953125
8977		5.859375
8978		1.953125
8979		5.859375
8980		0.000000
8981		3.906250
8982		0.000000
8983		3.906250
8984		-1.953125
8985		1.953125
8986		-3.906250
8987		1.953125
8988		-5.859375
8989		0.000000
8990		-5.859375
8991		1.953125
8992		-7.812500
8993		0.000000
8994		-5.859375
8995		-1.953125
8996		-5.859375
8997		-3.906250
8998		-9.765625
8999		-3.906250
9000		-7.812500
9001		-5.859375
9002		-9.765625
9003		-7.812500
9004		-11.718750
9005		-5.859375
9006		-13.671875
9007		-5.859375
9008		-15.625000
9009		-7.812500
9010		-13.671875
9011		-9.765625
9012		-15.625000
9013		-11.718750
9014		-15.625000
9015		-11.718750
9016		-17.578125
9017		-11.718750
9018		-17.578125
9019		-13.671875
9020		-17.578125
9021		-13.671875
9022		-21.484375
9023		-13.671875
9024		-23.437500
9025		-13.671875
9026		-21.484375
9027		-15.625000
9028		-21.484375
9029		-19.531250
9030		-23.437500
9031		-17.578125
9032		-25.390625
9033		-19.531250
9034		-23.437500
9035		-21.484375
9036		-27.343750
9037		-23.437500
9038		-27.343750
9039		-21.484375
9040		-29.296875
9041		-21.484375
9042		-29.296875
9043		-21.484375
9044		-29.296875
9045		-25.390625
9046		-29.296875
9047		-25.390625
9048		-29.296875
9049		-25.390625
9050		-29.296875
9051		-27.343750
9052		-31.250000
9053		-27.343750
9054		-33.203125
9055		-27.343750
9056		-35.156250
9057		-27.343750
9058		-35.156250
9059		-27.343750
9060		-35.156250
9061		-29.296875
9062		-35.156250
9063		-31.250000
9064		-35.156250
9065		-31.250000
9066		-35.156250
9067		-31.250000
9068		-35.156250
9069		-33.203125
9070		-37.109375
9071		-33.203125
9072		-39.062500
9073		-31.250000
9074		-41.015625
9075		-31.250000
9076		-39.062500
9077		-33.203125
9078		-39.062500
9079		-35.156250
9080		-39.062500
9081		-35.156250
9082		-39.062500
9083		-35.156250
9084		-39.062500
9085		-37.109375
9086		-39.062500
9087		-37.109375
9088		-39.062500
9089		-37.109375
9090		-42.968750
9091		-33.203125
9092		-42.968750
9093		-35.156250
9094		-41.015625
9095		-37.109375
9096		-41.015625
9097		-37.109375
9098		-41.015625
9099		-37.109375
9100		-41.015625
9101		-37.109375
9102		-41.015625
9103		-37.109375
9104		-42.968750
9105		-37.109375
9106		-42.968750
9107		-35.156250
9108		-42.968750
9109		-35.156250
9110		-42.968750
9111		-35.156250
9112		-41.015625
9113		-37.109375
9114		-41.015625
9115		-37.109375
9116		-41.015625
9117		-37.109375
9118		-39.062500
9119		-37.109375
9120		-41.015625
9121		-35.156250
9122		-41.015625
9123		-37.109375
9124		-42.968750
9125		-35.156250
9126		-42.968750
9127		-33.203125
9128		-39.062500
9129		-37.109375
9130		-39.062500
9131		-37.109375
9132		-39.062500
9133		-35.156250
9134		-37.109375
9135		-37.109375
9136		-39.062500
9137		-35.156250
9138		-39.062500
9139		-33.203125
9140		-39.062500
9141		-31.250000
9142		-39.062500
9143		-31.250000
9144		-39.062500
9145		-31.250000
9146		-35.156250
9147		-33.203125
9148		-35.156250
9149		-31.250000
9150		-35.156250
9151		-31.250000
9152		-35.156250
9153		-31.250000
9154		-35.156250
9155		-31.250000
9156		-35.156250
9157		-27.343750
9158		-35.156250
9159		-27.343750
9160		-35.156250
9161		-27.343750
9162		-31.250000
9163		-29.296875
9164		-31.250000
9165		-27.343750
9166		-31.250000
9167		-25.390625
9168		-29.296875
9169		-27.343750
9170		-29.296875
9171		-25.390625
9172		-29.296875
9173		-25.390625
9174		-29.296875
9175		-21.484375
9176		-29.296875
9177		-21.484375
9178		-27.343750
9179		-21.484375
9180		-25.390625
9181		-21.484375
9182		-25.390625
9183		-21.484375
9184		-23.437500
9185		-19.531250
9186		-23.437500
9187		-19.531250
9188		-23.437500
9189		-17.578125
9190		-23.437500
9191		-15.625000
9192		-23.437500
9193		-15.625000
9194		-21.484375
9195		-13.671875
9196		-17.578125
9197		-15.625000
9198		-17.578125
9199		-13.671875
9200		-17.578125
9201		-13.671875
9202		-15.625000
9203		-13.671875
9204		-15.625000
9205		-9.765625
9206		-13.671875
9207		-9.765625
9208		-15.625000
9209		-7.812500
9210		-15.625000
9211		-5.859375
9212		-11.718750
9213		-7.812500
9214		-9.765625
9215		-5.859375
9216		-9.765625
9217		-5.859375
9218		-7.812500
9219		-5.859375
9220		-7.812500
9221		-3.906250
9222		-7.812500
9223		-3.906250
9224		-7.812500
9225		0.000000
9226		-7.812500
9227		0.000000
9228		-5.859375
9229		1.953125
9230		-3.906250
9231		1.953125
9232		-1.953125
9233		1.953125
9234		-1.953125
9235		3.906250
9236		0.000000
9237		1.953125
9238		1.953125
9239		3.906250
9240		0.000000
9241		7.812500
9242		0.000000
9243		7.812500
9244		1.953125
9245		9.765625
9246		3.906250
9247		7.812500
9248		5.859375
9249		7.812500
9250		5.859375
9251		11.718750
9252		7.812500
9253		9.765625
9254		7.812500
9255		9.765625
9256		7.812500
9257		11.718750
9258		7.812500
9259		15.625000
9260		7.812500
9261		15.625000
9262		9.765625
9263		15.625000
9264		11.718750
9265		15.625000
9266		11.718750
9267		15.625000
9268		13.671875
9269		17.578125
9270		13.671875
9271		17.578125
9272		15.625000
9273		19.531250
9274		13.671875
9275		19.531250
9276		13.671875
9277		21.484375
9278		13.671875
9279		23.437500
9280		17.578125
9281		21.484375
9282		17.578125
9283		23.437500
9284		19.531250
9285		23.437500
9286		19.531250
9287		23.437500
9288		21.484375
9289		25.390625
9290		21.484375
9291		25.390625
9292		19.531250
9293		27.343750
9294		19.531250
9295		27.343750
9296		23.437500
9297		25.390625
9298		23.437500
9299		27.343750
9300		23.437500
9301		29.296875
9302		25.390625
9303		27.343750
9304		25.390625
9305		29.296875
9306		25.390625
9307		29.296875
9308		23.437500
9309		31.250000
9310		23.437500
9311		31.250000
9312		23.437500
9313		31.250000
9314		27.343750
9315		31.250000
9316		27.343750
9317		31.250000
9318		27.343750
9319		31.250000
9320		29.296875
9321		31.250000
9322		27.343750
9323		33.203125
9324		25.390625
9325		33.203125
9326		27.343750
9327		35.156250
9328		27.343750
9329		35.156250
9330		29.296875
9331		33.203125
9332		29.296875
9333		33.203125
9334		29.296875
9335		33.203125
9336		31.250000
9337		33.203125
9338		31.250000
9339		33.203125
9340		29.296875
9341		33.203125
9342		27.343750
9343		35.156250
9344		27.343750
9345		35.156250
9346		27.343750
9347		35.156250
9348		29.296875
9349		33.203125
9350		29.296875
9351		33.203125
9352		29.296875
9353		33.203125
9354		31.250000
9355		33.203125
9356		29.296875
9357		33.203125
9358		27.343750
9359		33.203125
9360		27.343750
9361		35.156250
9362		27.343750
9363		35.156250
9364		29.296875
9365		33.203125
9366		29.296875
9367		33.203125
9368		27.343750
9369		33.203125
9370		29.296875
9371		31.250000
9372		29.296875
9373		31.250000
9374		29.296875
9375		31.250000
9376		25.390625
9377		33.203125
9378		25.390625
9379		33.203125
9380		27.343750
9381		31.250000
9382		27.343750
9383		29.296875
9384		25.390625
9385		31.250000
9386		25.390625
9387		29.296875
9388		25.390625
9389		29.296875
9390		23.437500
9391		27.343750
9392		21.484375
9393		29.296875
9394		21.484375
9395		29.296875
9396		21.484375
9397		29.296875
9398		23.437500
9399		27.343750
9400		21.484375
9401		25.390625
9402		21.484375
9403		25.390625
9404		21.484375
9405		23.437500
9406		19.531250
9407		25.390625
9408		17.578125
9409		23.437500
9410		15.625000
9411		25.390625
9412		15.625000
9413		23.437500
9414		17.578125
9415		21.484375
9416		17.578125
9417		19.531250
9418		15.625000
9419		19.531250
9420		15.625000
9421		17.578125
9422		13.671875
9423		17.578125
9424		13.671875
9425		17.578125
9426		9.765625
9427		17.578125
9428		9.765625
9429		17.578125
9430		9.765625
9431		15.625000
9432		9.765625
9433		13.671875
9434		9.765625
9435		13.671875
9436		7.812500
9437		13.671875
9438		7.812500
9439		11.718750
9440		5.859375
9441		9.765625
9442		3.906250
9443		9.765625
9444		1.953125
9445		11.718750
9446		1.953125
9447		9.765625
9448		3.906250
9449		7.812500
9450		1.953125
9451		5.859375
9452		1.953125
9453		5.859375
9454		0.000000
9455		3.906250
9456		0.000000
9457		1.953125
9458		-1.953125
9459		3.906250
9460		-5.859375
9461		3.906250
9462		-5.859375
9463		3.906250
9464		-3.906250
9465		0.000000
9466		-5.859375
9467		-1.953125
9468		-5.859375
9469		-1.953125
9470		-7.812500
9471		-3.906250
9472		-7.812500
9473		-5.859375
9474		-9.765625
9475		-5.859375
9476		-11.718750
9477		-5.859375
9478		-13.671875
9479		-5.859375
9480		-13.671875
9481		-5.859375
9482		-13.671875
9483		-9.765625
9484		-13.671875
9485		-9.765625
9486		-15.625000
9487		-11.718750
9488		-15.625000
9489		-13.671875
9490		-15.625000
9491		-13.671875
9492		-19.531250
9493		-13.671875
9494		-21.484375
9495		-13.671875
9496		-21.484375
9497		-13.671875
9498		-21.484375
9499		-15.625000
9500		-21.484375
9501		-17.578125
9502		-23.437500
9503		-17.578125
9504		-23.437500
9505		-19.531250
9506		-23.437500
9507		-21.484375
9508		-25.390625
9509		-21.484375
9510		-27.343750
9511		-21.484375
9512		-29.296875
9513		-19.531250
9514		-29.296875
9515		-21.484375
9516		-27.343750
9517		-25.390625
9518		-29.296875
9519		-25.390625
9520		-29.296875
9521		-25.390625
9522		-29.296875
9523		-27.343750
9524		-31.250000
9525		-27.343750
9526		-33.203125
9527		-27.343750
9528		-35.156250
9529		-25.390625
9530		-35.156250
9531		-27.343750
9532		-33.203125
9533		-29.296875
9534		-33.203125
9535		-31.250000
9536		-35.156250
9537		-31.250000
9538		-35.156250
9539		-31.250000
9540		-35.156250
9541		-33.203125
9542		-37.109375
9543		-31.250000
9544		-39.062500
9545		-31.250000
9546		-41.015625
9547		-31.250000
9548		-37.109375
9549		-33.203125
9550		-39.062500
9551		-35.156250
9552		-39.062500
9553		-35.156250
9554		-39.062500
9555		-35.156250
9556		-39.062500
9557		-37.109375
9558		-39.062500
9559		-35.156250
9560		-41.015625
9561		-35.156250
9562		-42.968750
9563		-35.156250
9564		-42.968750
9565		-35.156250
9566		-41.015625
9567		-37.109375
9568		-41.015625
9569		-37.109375
9570		-41.015625
9571		-37.109375
9572		-41.015625
9573		-39.062500
9574		-41.015625
9575		-37.109375
9576		-42.968750
9577		-37.109375
9578		-42.968750
9579		-35.156250
9580		-42.968750
9581		-35.156250
9582		-42.968750
9583		-37.109375
9584		-41.015625
9585		-37.109375
9586		-41.015625
9587		-37.109375
9588		-41.015625
9589		-39.062500
9590		-41.015625
9591		-39.062500
9592		-41.015625
9593		-37.109375
9594		-42.968750
9595		-35.156250
9596		-42.968750
9597		-35.156250
9598		-42.968750
9599		-35.156250
9600		-41.015625
9601		-37.109375
9602		-39.062500
9603		-37.109375
9604		-39.062500
9605		-35.156250
9606		-39.062500
9607		-37.109375
9608		-39.062500
9609		-35.156250
9610		-39.062500
9611		-35.156250
9612		-39.062500
9613		-33.203125
9614		-39.062500
9615		-33.203125
9616		-37.109375
9617		-35.156250
9618		-37.109375
9619		-33.203125
9620		-37.109375
9621		-33.203125
9622		-35.156250
9623		-33.203125
9624		-35.156250
9625		-33.203125
9626		-37.109375
9627		-31.250000
9628		-37.109375
9629		-29.296875
9630		-37.109375
9631		-27.343750
9632		-33.203125
9633		-29.296875
9634		-33.203125
9635		-29.296875
9636		-31.250000
9637		-29.296875
9638		-33.203125
9639		-27.343750
9640		-29.296875
9641		-27.343750
9642		-31.250000
9643		-27.343750
9644		-31.250000
9645		-23.437500
9646		-31.250000
9647		-23.437500
9648		-29.296875
9649		-23.437500
9650		-27.343750
9651		-23.437500
9652		-27.343750
9653		-23.437500
9654		-27.343750
9655		-21.484375
9656		-25.390625
9657		-21.484375
9658		-25.390625
9659		-21.484375
9660		-23.437500
9661		-17.578125
9662		-25.390625
9663		-17.578125
9664		-23.437500
9665		-15.625000
9666		-21.484375
9667		-15.625000
9668		-19.531250
9669		-15.625000
9670		-19.531250
9671		-13.671875
9672		-17.578125
9673		-15.625000
9674		-17.578125
9675		-13.671875
9676		-17.578125
9677		-13.671875
9678		-17.578125
9679		-9.765625
9680		-17.578125
9681		-7.812500
9682		-15.625000
9683		-7.812500
9684		-13.671875
9685		-9.765625
9686		-11.718750
9687		-7.812500
9688		-11.718750
9689		-7.812500
9690		-9.765625
9691		-7.812500
9692		-9.765625
9693		-3.906250
9694		-9.765625
9695		-3.906250
9696		-9.765625
9697		-1.953125
9698		-7.812500
9699		0.000000
9700		-5.859375
9701		0.000000
9702		-3.906250
9703		0.000000
9704		-3.906250
9705		0.000000
9706		-1.953125
9707		0.000000
9708		-1.953125
9709		1.953125
9710		0.000000
9711		3.906250
9712		-1.953125
9713		5.859375
9714		-1.953125
9715		7.812500
9716		0.000000
9717		7.812500
9718		3.906250
9719		7.812500
9720		3.906250
9721		7.812500
9722		3.906250
9723		7.812500
9724		5.859375
9725		7.812500
9726		5.859375
9727		9.765625
9728		5.859375
9729		11.718750
9730		5.859375
9731		13.671875
9732		5.859375
9733		15.625000
9734		9.765625
9735		13.671875
9736		11.718750
9737		13.671875
9738		11.718750
9739		15.625000
9740		13.671875
9741		15.625000
9742		11.718750
9743		17.578125
9744		13.671875
9745		19.531250
9746		11.718750
9747		21.484375
9748		13.671875
9749		21.484375
9750		13.671875
9751		21.484375
9752		17.578125
9753		19.531250
9754		17.578125
9755		21.484375
9756		17.578125
9757		21.484375
9758		19.531250
9759		21.484375
9760		19.531250
9761		23.437500
9762		17.578125
9763		25.390625
9764		19.531250
9765		25.390625
9766		19.531250
9767		27.343750
9768		21.484375
9769		25.390625
9770		23.437500
9771		27.343750
9772		23.437500
9773		27.343750
9774		23.437500
9775		27.343750
9776		23.437500
9777		29.296875
9778		23.437500
9779		29.296875
9780		23.437500
9781		31.250000
9782		23.437500
9783		31.250000
9784		25.390625
9785		29.296875
9786		27.343750
9787		29.296875
9788		25.390625
9789		29.296875
9790		27.343750
9791		29.296875
9792		27.343750
9793		31.250000
9794		27.343750
9795		31.250000
9796		25.390625
9797		33.203125
9798		25.390625
9799		33.203125
9800		27.343750
9801		33.203125
9802		29.296875
9803		33.203125
9804		29.296875
9805		33.203125
9806		29.296875
9807		33.203125
9808		31.250000
9809		33.203125
9810		29.296875
9811		33.203125
9812		29.296875
9813		35.156250
9814		27.343750
9815		35.156250
9816		27.343750
9817		35.156250
9818		29.296875
9819		33.203125
9820		29.296875
9821		33.203125
9822		29.296875
9823		33.203125
9824		31.250000
9825		33.203125
9826		29.296875
9827		35.156250
9828		29.296875
9829		33.203125
9830		27.343750
9831		35.156250
9832		27.343750
9833		35.156250
9834		29.296875
9835		35.156250
9836		29.296875
9837		33.203125
9838		27.343750
9839		33.203125
9840		29.296875
9841		31.250000
9842		29.296875
9843		31.250000
9844		29.296875
9845		33.203125
9846		25.390625
9847		33.203125
9848		25.390625
9849		33.203125
9850		25.390625
9851		33.203125
9852		27.343750
9853		31.250000
9854		27.343750
9855		31.250000
9856		25.390625
9857		31.250000
9858		27.343750
9859		29.296875
9860		25.390625
9861		29.296875
9862		23.437500
9863		29.296875
9864		23.437500
9865		31.250000
9866		21.484375
9867		29.296875
9868		21.484375
9869		29.296875
9870		23.437500
9871		27.343750
9872		21.484375
9873		27.343750
9874		23.437500
9875		25.390625
9876		21.484375
9877		23.437500
9878		21.484375
9879		25.390625
9880		19.531250
9881		25.390625
9882		17.578125
9883		25.390625
9884		17.578125
9885		25.390625
9886		19.531250
9887		21.484375
9888		17.578125
9889		21.484375
9890		17.578125
9891		21.484375
9892		17.578125
9893		19.531250
9894		15.625000
9895		19.531250
9896		13.671875
9897		19.531250
9898		11.718750
9899		19.531250
9900		11.718750
9901		19.531250
9902		11.718750
9903		15.625000
9904		11.718750
9905		15.625000
9906		9.765625
9907		13.671875
9908		9.765625
9909		13.671875
9910		9.765625
9911		11.718750
9912		7.812500
9913		13.671875
9914		3.906250
9915		13.671875
9916		3.906250
9917		11.718750
9918		3.906250
9919		11.718750
9920		3.906250
9921		9.765625
9922		1.953125
9923		7.812500
9924		3.906250
9925		5.859375
9926		1.953125
9927		3.906250
9928		1.953125
9929		3.906250
9930		-1.953125
9931		5.859375
9932		-3.906250
9933		3.906250
9934		-3.906250
9935		3.906250
9936		-3.906250
9937		0.000000
9938		-3.906250
9939		0.000000
9940		-5.859375
9941		0.000000
9942		-5.859375
9943		-3.906250
9944		-7.812500
9945		-3.906250
9946		-9.765625
9947		-1.953125
9948		-9.765625
9949		-1.953125
9950		-11.718750
9951		-3.906250
9952		-9.765625
9953		-3.906250
9954		-11.718750
9955		-7.812500
9956		-13.671875
9957		-7.812500
9958		-13.671875
9959		-9.765625
9960		-13.671875
9961		-11.718750
9962		-15.625000
9963		-9.765625
9964		-17.578125
9965		-9.765625
9966		-19.531250
9967		-11.718750
9968		-19.531250
9969		-11.718750
9970		-19.531250
9971		-15.625000
9972		-19.531250
9973		-15.625000
9974		-21.484375
9975		-17.578125
9976		-21.484375
9977		-19.531250
9978		-23.437500
9979		-19.531250
9980		-25.390625
9981		-19.531250
9982		-27.343750
9983		-19.531250
9984		-27.343750
9985		-19.531250
9986		-27.343750
9987		-23.437500
9988		-27.343750
9989		-23.437500
9990		-27.343750
9991		-23.437500
9992		-27.343750
9993		-25.390625
9994		-29.296875
9995		-25.390625
9996		-29.296875
9997		-25.390625
9998		-33.203125
9999		-25.390625
10000		-35.156250
