Channel              :		CH1
Frequency            :		1.061kHz
Period               :		0.943ms
PK-PK                :		76.17mV
Probe attenuation    :		1X
Voltage per ADC value:		0.122070mV
Time interval        :		2.00000us

index		CH1_Voltage(mV)
1		3.906250
2		3.906250
3		0.000000
4		3.906250
5		-1.953125
6		3.906250
7		-1.953125
8		1.953125
9		-1.953125
10		1.953125
11		-1.953125
12		0.000000
13		-3.906250
14		0.000000
15		-3.906250
16		-1.953125
17		-5.859375
18		-1.953125
19		-5.859375
20		-3.906250
21		-7.812500
22		-3.906250
23		-7.812500
24		-3.906250
25		-9.765625
26		-5.859375
27		-9.765625
28		-5.859375
29		-9.765625
30		-7.812500
31		-11.718750
32		-7.812500
33		-11.718750
34		-7.812500
35		-13.671875
36		-9.765625
37		-13.671875
38		-9.765625
39		-13.671875
40		-9.765625
41		-15.625000
42		-11.718750
43		-17.578125
44		-11.718750
45		-17.578125
46		-13.671875
47		-17.578125
48		-13.671875
49		-17.578125
50		-13.671875
51		-19.531250
52		-15.625000
53		-19.531250
54		-15.625000
55		-19.531250
56		-17.578125
57		-21.484375
58		-17.578125
59		-21.484375
60		-17.578125
61		-21.484375
62		-19.531250
63		-23.437500
64		-19.531250
65		-23.437500
66		-19.531250
67		-23.437500
68		-19.531250
69		-25.390625
70		-21.484375
71		-25.390625
72		-21.484375
73		-25.390625
74		-21.484375
75		-25.390625
76		-23.437500
77		-27.343750
78		-23.437500
79		-27.343750
80		-23.437500
81		-27.343750
82		-23.437500
83		-27.343750
84		-23.437500
85		-29.296875
86		-25.390625
87		-29.296875
88		-23.437500
89		-29.296875
90		-23.437500
91		-29.296875
92		-25.390625
93		-29.296875
94		-25.390625
95		-29.296875
96		-25.390625
97		-29.296875
98		-27.343750
99		-29.296875
100		-27.343750
101		-31.250000
102		-27.343750
103		-31.250000
104		-27.343750
105		-31.250000
106		-27.343750
107		-31.250000
108		-27.343750
109		-31.250000
110		-27.343750
111		-31.250000
112		-27.343750
113		-31.250000
114		-27.343750
115		-31.250000
116		-27.343750
117		-31.250000
118		-27.343750
119		-31.250000
120		-27.343750
121		-31.250000
122		-27.343750
123		-31.250000
124		-27.343750
125		-31.250000
126		-27.343750
127		-31.250000
128		-27.343750
129		-31.250000
130		-27.343750
131		-31.250000
132		-27.343750
133		-31.250000
134		-27.343750
135		-31.250000
136		-27.343750
137		-31.250000
138		-27.343750
139		-29.296875
140		-25.390625
141		-29.296875
142		-27.343750
143		-29.296875
144		-25.390625
145		-29.296875
146		-25.390625
147		-29.296875
148		-25.390625
149		-29.296875
150		-25.390625
151		-27.343750
152		-25.390625
153		-27.343750
154		-23.437500
155		-27.343750
156		-23.437500
157		-27.343750
158		-23.437500
159		-25.390625
160		-23.437500
161		-25.390625
162		-21.484375
163		-25.390625
164		-21.484375
165		-25.390625
166		-21.484375
167		-23.437500
168		-21.484375
169		-23.437500
170		-19.531250
171		-23.437500
172		-19.531250
173		-21.484375
174		-17.578125
175		-21.484375
176		-19.531250
177		-21.484375
178		-17.578125
179		-21.484375
180		-17.578125
181		-19.531250
182		-17.578125
183		-19.531250
184		-15.625000
185		-19.531250
186		-13.671875
187		-17.578125
188		-13.671875
189		-17.578125
190		-13.671875
191		-17.578125
192		-13.671875
193		-15.625000
194		-13.671875
195		-15.625000
196		-11.718750
197		-13.671875
198		-11.718750
199		-13.671875
200		-9.765625
201		-13.671875
202		-9.765625
203		-11.718750
204		-7.812500
205		-11.718750
206		-7.812500
207		-11.718750
208		-7.812500
209		-9.765625
210		-5.859375
211		-9.765625
212		-3.906250
213		-7.812500
214		-5.859375
215		-7.812500
216		-3.906250
217		-5.859375
218		-3.906250
219		-5.859375
220		-1.953125
221		-3.906250
222		0.000000
223		-3.906250
224		0.000000
225		-3.906250
226		0.000000
227		-1.953125
228		1.953125
229		-1.953125
230		1.953125
231		0.000000
232		1.953125
233		0.000000
234		3.906250
235		1.953125
236		3.906250
237		1.953125
238		5.859375
239		1.953125
240		5.859375
241		1.953125
242		7.812500
243		5.859375
244		7.812500
245		5.859375
246		9.765625
247		5.859375
248		9.765625
249		5.859375
250		9.765625
251		7.812500
252		11.718750
253		7.812500
254		11.718750
255		9.765625
256		13.671875
257		9.765625
258		13.671875
259		9.765625
260		13.671875
261		11.718750
262		15.625000
263		11.718750
264		15.625000
265		13.671875
266		17.578125
267		13.671875
268		17.578125
269		15.625000
270		19.531250
271		15.625000
272		19.531250
273		17.578125
274		19.531250
275		17.578125
276		21.484375
277		17.578125
278		21.484375
279		19.531250
280		21.484375
281		19.531250
282		23.437500
283		19.531250
284		23.437500
285		21.484375
286		23.437500
287		21.484375
288		25.390625
289		21.484375
290		25.390625
291		21.484375
292		25.390625
293		23.437500
294		27.343750
295		23.437500
296		27.343750
297		25.390625
298		27.343750
299		25.390625
300		29.296875
301		25.390625
302		29.296875
303		25.390625
304		29.296875
305		27.343750
306		29.296875
307		27.343750
308		31.250000
309		27.343750
310		31.250000
311		27.343750
312		31.250000
313		27.343750
314		31.250000
315		29.296875
316		33.203125
317		29.296875
318		33.203125
319		29.296875
320		33.203125
321		31.250000
322		33.203125
323		31.250000
324		33.203125
325		29.296875
326		35.156250
327		31.250000
328		35.156250
329		31.250000
330		35.156250
331		31.250000
332		35.156250
333		31.250000
334		35.156250
335		31.250000
336		35.156250
337		33.203125
338		35.156250
339		33.203125
340		37.109375
341		31.250000
342		35.156250
343		33.203125
344		35.156250
345		33.203125
346		37.109375
347		33.203125
348		37.109375
349		33.203125
350		37.109375
351		33.203125
352		37.109375
353		33.203125
354		37.109375
355		33.203125
356		37.109375
357		33.203125
358		37.109375
359		33.203125
360		37.109375
361		33.203125
362		37.109375
363		33.203125
364		37.109375
365		33.203125
366		37.109375
367		33.203125
368		35.156250
369		33.203125
370		35.156250
371		31.250000
372		35.156250
373		33.203125
374		35.156250
375		31.250000
376		35.156250
377		33.203125
378		35.156250
379		31.250000
380		35.156250
381		31.250000
382		35.156250
383		31.250000
384		35.156250
385		31.250000
386		35.156250
387		29.296875
388		35.156250
389		29.296875
390		33.203125
391		29.296875
392		33.203125
393		29.296875
394		33.203125
395		29.296875
396		33.203125
397		27.343750
398		33.203125
399		27.343750
400		31.250000
401		27.343750
402		31.250000
403		27.343750
404		29.296875
405		25.390625
406		29.296875
407		25.390625
408		29.296875
409		25.390625
410		29.296875
411		25.390625
412		27.343750
413		23.437500
414		27.343750
415		23.437500
416		27.343750
417		23.437500
418		25.390625
419		21.484375
420		25.390625
421		19.531250
422		27.343750
423		19.531250
424		25.390625
425		19.531250
426		23.437500
427		19.531250
428		23.437500
429		19.531250
430		21.484375
431		17.578125
432		21.484375
433		17.578125
434		21.484375
435		17.578125
436		19.531250
437		13.671875
438		21.484375
439		15.625000
440		19.531250
441		13.671875
442		19.531250
443		13.671875
444		17.578125
445		13.671875
446		15.625000
447		11.718750
448		15.625000
449		7.812500
450		15.625000
451		9.765625
452		13.671875
453		7.812500
454		15.625000
455		7.812500
456		13.671875
457		5.859375
458		13.671875
459		5.859375
460		11.718750
461		5.859375
462		9.765625
463		3.906250
464		7.812500
465		1.953125
466		7.812500
467		1.953125
468		9.765625
469		0.000000
470		7.812500
471		0.000000
472		7.812500
473		0.000000
474		5.859375
475		-1.953125
476		5.859375
477		0.000000
478		1.953125
479		-1.953125
480		1.953125
481		-3.906250
482		1.953125
483		-5.859375
484		1.953125
485		-5.859375
486		0.000000
487		-7.812500
488		0.000000
489		-7.812500
490		0.000000
491		-7.812500
492		-1.953125
493		-7.812500
494		-3.906250
495		-7.812500
496		-5.859375
497		-9.765625
498		-3.906250
499		-11.718750
500		-5.859375
501		-11.718750
502		-5.859375
503		-13.671875
504		-5.859375
505		-13.671875
506		-7.812500
507		-15.625000
508		-7.812500
509		-15.625000
510		-7.812500
511		-13.671875
512		-11.718750
513		-15.625000
514		-11.718750
515		-17.578125
516		-11.718750
517		-19.531250
518		-11.718750
519		-19.531250
520		-11.718750
521		-19.531250
522		-13.671875
523		-21.484375
524		-15.625000
525		-21.484375
526		-15.625000
527		-19.531250
528		-17.578125
529		-21.484375
530		-17.578125
531		-23.437500
532		-17.578125
533		-23.437500
534		-17.578125
535		-25.390625
536		-17.578125
537		-25.390625
538		-19.531250
539		-27.343750
540		-19.531250
541		-27.343750
542		-19.531250
543		-27.343750
544		-19.531250
545		-25.390625
546		-23.437500
547		-27.343750
548		-21.484375
549		-29.296875
550		-21.484375
551		-29.296875
552		-21.484375
553		-29.296875
554		-21.484375
555		-31.250000
556		-23.437500
557		-29.296875
558		-23.437500
559		-31.250000
560		-23.437500
561		-29.296875
562		-25.390625
563		-29.296875
564		-25.390625
565		-31.250000
566		-23.437500
567		-31.250000
568		-23.437500
569		-33.203125
570		-25.390625
571		-31.250000
572		-25.390625
573		-33.203125
574		-25.390625
575		-33.203125
576		-25.390625
577		-33.203125
578		-25.390625
579		-31.250000
580		-27.343750
581		-31.250000
582		-27.343750
583		-33.203125
584		-25.390625
585		-33.203125
586		-25.390625
587		-33.203125
588		-25.390625
589		-33.203125
590		-25.390625
591		-33.203125
592		-25.390625
593		-33.203125
594		-25.390625
595		-31.250000
596		-27.343750
597		-31.250000
598		-27.343750
599		-33.203125
600		-25.390625
601		-33.203125
602		-25.390625
603		-33.203125
604		-25.390625
605		-31.250000
606		-25.390625
607		-31.250000
608		-25.390625
609		-31.250000
610		-25.390625
611		-31.250000
612		-25.390625
613		-29.296875
614		-25.390625
615		-31.250000
616		-23.437500
617		-31.250000
618		-23.437500
619		-31.250000
620		-21.484375
621		-29.296875
622		-21.484375
623		-29.296875
624		-21.484375
625		-29.296875
626		-21.484375
627		-29.296875
628		-21.484375
629		-25.390625
630		-23.437500
631		-27.343750
632		-21.484375
633		-27.343750
634		-19.531250
635		-27.343750
636		-19.531250
637		-27.343750
638		-19.531250
639		-25.390625
640		-17.578125
641		-25.390625
642		-17.578125
643		-23.437500
644		-17.578125
645		-21.484375
646		-19.531250
647		-21.484375
648		-17.578125
649		-23.437500
650		-15.625000
651		-21.484375
652		-15.625000
653		-21.484375
654		-13.671875
655		-21.484375
656		-13.671875
657		-19.531250
658		-11.718750
659		-19.531250
660		-11.718750
661		-17.578125
662		-11.718750
663		-15.625000
664		-13.671875
665		-15.625000
666		-9.765625
667		-17.578125
668		-9.765625
669		-15.625000
670		-9.765625
671		-15.625000
672		-7.812500
673		-13.671875
674		-7.812500
675		-13.671875
676		-7.812500
677		-11.718750
678		-5.859375
679		-9.765625
680		-7.812500
681		-9.765625
682		-5.859375
683		-9.765625
684		-3.906250
685		-9.765625
686		-1.953125
687		-7.812500
688		-1.953125
689		-7.812500
690		0.000000
691		-7.812500
692		0.000000
693		-5.859375
694		1.953125
695		-5.859375
696		1.953125
697		-1.953125
698		0.000000
699		-3.906250
700		3.906250
701		-3.906250
702		3.906250
703		-1.953125
704		5.859375
705		-1.953125
706		5.859375
707		0.000000
708		5.859375
709		0.000000
710		7.812500
711		1.953125
712		7.812500
713		3.906250
714		7.812500
715		5.859375
716		9.765625
717		3.906250
718		11.718750
719		3.906250
720		11.718750
721		5.859375
722		11.718750
723		5.859375
724		13.671875
725		5.859375
726		13.671875
727		7.812500
728		15.625000
729		9.765625
730		13.671875
731		11.718750
732		15.625000
733		9.765625
734		17.578125
735		11.718750
736		17.578125
737		11.718750
738		19.531250
739		11.718750
740		19.531250
741		13.671875
742		21.484375
743		13.671875
744		21.484375
745		15.625000
746		21.484375
747		17.578125
748		21.484375
749		17.578125
750		23.437500
751		17.578125
752		25.390625
753		17.578125
754		23.437500
755		17.578125
756		25.390625
757		19.531250
758		25.390625
759		19.531250
760		27.343750
761		19.531250
762		27.343750
763		23.437500
764		25.390625
765		23.437500
766		27.343750
767		23.437500
768		29.296875
769		23.437500
770		29.296875
771		23.437500
772		31.250000
773		23.437500
774		31.250000
775		25.390625
776		31.250000
777		25.390625
778		31.250000
779		25.390625
780		31.250000
781		27.343750
782		31.250000
783		27.343750
784		33.203125
785		27.343750
786		35.156250
787		27.343750
788		35.156250
789		27.343750
790		35.156250
791		27.343750
792		35.156250
793		27.343750
794		35.156250
795		27.343750
796		35.156250
797		31.250000
798		33.203125
799		31.250000
800		33.203125
801		29.296875
802		37.109375
803		29.296875
804		37.109375
805		29.296875
806		37.109375
807		31.250000
808		37.109375
809		31.250000
810		37.109375
811		31.250000
812		37.109375
813		33.203125
814		35.156250
815		33.203125
816		35.156250
817		31.250000
818		37.109375
819		31.250000
820		37.109375
821		31.250000
822		37.109375
823		31.250000
824		37.109375
825		31.250000
826		39.062500
827		31.250000
828		39.062500
829		31.250000
830		37.109375
831		33.203125
832		35.156250
833		33.203125
834		37.109375
835		31.250000
836		37.109375
837		31.250000
838		37.109375
839		29.296875
840		37.109375
841		29.296875
842		37.109375
843		29.296875
844		37.109375
845		31.250000
846		37.109375
847		31.250000
848		35.156250
849		31.250000
850		35.156250
851		29.296875
852		37.109375
853		29.296875
854		35.156250
855		29.296875
856		37.109375
857		27.343750
858		35.156250
859		27.343750
860		35.156250
861		27.343750
862		35.156250
863		29.296875
864		33.203125
865		29.296875
866		33.203125
867		27.343750
868		33.203125
869		25.390625
870		33.203125
871		25.390625
872		33.203125
873		25.390625
874		33.203125
875		25.390625
876		31.250000
877		23.437500
878		31.250000
879		23.437500
880		31.250000
881		25.390625
882		27.343750
883		25.390625
884		27.343750
885		21.484375
886		29.296875
887		21.484375
888		29.296875
889		21.484375
890		27.343750
891		19.531250
892		27.343750
893		19.531250
894		27.343750
895		19.531250
896		25.390625
897		19.531250
898		23.437500
899		19.531250
900		23.437500
901		17.578125
902		23.437500
903		15.625000
904		23.437500
905		15.625000
906		21.484375
907		15.625000
908		21.484375
909		13.671875
910		21.484375
911		13.671875
912		19.531250
913		13.671875
914		17.578125
915		13.671875
916		17.578125
917		11.718750
918		15.625000
919		9.765625
920		17.578125
921		9.765625
922		15.625000
923		7.812500
924		15.625000
925		7.812500
926		13.671875
927		5.859375
928		13.671875
929		5.859375
930		13.671875
931		5.859375
932		9.765625
933		5.859375
934		9.765625
935		3.906250
936		9.765625
937		1.953125
938		9.765625
939		1.953125
940		7.812500
941		0.000000
942		7.812500
943		-1.953125
944		5.859375
945		-1.953125
946		5.859375
947		-1.953125
948		3.906250
949		-1.953125
950		1.953125
951		-3.906250
952		1.953125
953		-5.859375
954		1.953125
955		-5.859375
956		0.000000
957		-5.859375
958		0.000000
959		-7.812500
960		0.000000
961		-7.812500
962		0.000000
963		-7.812500
964		-1.953125
965		-7.812500
966		-3.906250
967		-7.812500
968		-5.859375
969		-11.718750
970		-5.859375
971		-11.718750
972		-5.859375
973		-13.671875
974		-5.859375
975		-13.671875
976		-7.812500
977		-15.625000
978		-7.812500
979		-15.625000
980		-9.765625
981		-15.625000
982		-11.718750
983		-15.625000
984		-11.718750
985		-17.578125
986		-11.718750
987		-19.531250
988		-11.718750
989		-19.531250
990		-11.718750
991		-19.531250
992		-13.671875
993		-21.484375
994		-13.671875
995		-21.484375
996		-15.625000
997		-21.484375
998		-15.625000
999		-21.484375
1000		-17.578125
1001		-21.484375
1002		-17.578125
1003		-23.437500
1004		-17.578125
1005		-25.390625
1006		-17.578125
1007		-25.390625
1008		-19.531250
1009		-25.390625
1010		-19.531250
1011		-27.343750
1012		-19.531250
1013		-27.343750
1014		-19.531250
1015		-25.390625
1016		-21.484375
1017		-25.390625
1018		-23.437500
1019		-29.296875
1020		-21.484375
1021		-29.296875
1022		-21.484375
1023		-29.296875
1024		-21.484375
1025		-29.296875
1026		-21.484375
1027		-29.296875
1028		-23.437500
1029		-31.250000
1030		-23.437500
1031		-31.250000
1032		-23.437500
1033		-29.296875
1034		-25.390625
1035		-31.250000
1036		-25.390625
1037		-33.203125
1038		-25.390625
1039		-31.250000
1040		-25.390625
1041		-33.203125
1042		-25.390625
1043		-33.203125
1044		-25.390625
1045		-33.203125
1046		-25.390625
1047		-33.203125
1048		-25.390625
1049		-31.250000
1050		-27.343750
1051		-31.250000
1052		-27.343750
1053		-33.203125
1054		-27.343750
1055		-33.203125
1056		-25.390625
1057		-33.203125
1058		-27.343750
1059		-33.203125
1060		-27.343750
1061		-33.203125
1062		-25.390625
1063		-33.203125
1064		-27.343750
1065		-31.250000
1066		-27.343750
1067		-31.250000
1068		-27.343750
1069		-33.203125
1070		-27.343750
1071		-33.203125
1072		-25.390625
1073		-33.203125
1074		-25.390625
1075		-31.250000
1076		-25.390625
1077		-33.203125
1078		-25.390625
1079		-33.203125
1080		-25.390625
1081		-33.203125
1082		-25.390625
1083		-29.296875
1084		-27.343750
1085		-29.296875
1086		-27.343750
1087		-31.250000
1088		-23.437500
1089		-31.250000
1090		-23.437500
1091		-31.250000
1092		-23.437500
1093		-31.250000
1094		-23.437500
1095		-29.296875
1096		-23.437500
1097		-29.296875
1098		-21.484375
1099		-27.343750
1100		-23.437500
1101		-27.343750
1102		-23.437500
1103		-27.343750
1104		-21.484375
1105		-27.343750
1106		-19.531250
1107		-27.343750
1108		-19.531250
1109		-27.343750
1110		-19.531250
1111		-25.390625
1112		-19.531250
1113		-25.390625
1114		-17.578125
1115		-25.390625
1116		-17.578125
1117		-23.437500
1118		-19.531250
1119		-23.437500
1120		-17.578125
1121		-23.437500
1122		-15.625000
1123		-23.437500
1124		-15.625000
1125		-21.484375
1126		-15.625000
1127		-21.484375
1128		-13.671875
1129		-21.484375
1130		-13.671875
1131		-19.531250
1132		-13.671875
1133		-17.578125
1134		-13.671875
1135		-15.625000
1136		-13.671875
1137		-17.578125
1138		-9.765625
1139		-17.578125
1140		-9.765625
1141		-15.625000
1142		-9.765625
1143		-15.625000
1144		-7.812500
1145		-15.625000
1146		-7.812500
1147		-13.671875
1148		-5.859375
1149		-13.671875
1150		-7.812500
1151		-9.765625
1152		-7.812500
1153		-11.718750
1154		-3.906250
1155		-9.765625
1156		-1.953125
1157		-9.765625
1158		-3.906250
1159		-9.765625
1160		-1.953125
1161		-7.812500
1162		0.000000
1163		-5.859375
1164		0.000000
1165		-5.859375
1166		0.000000
1167		-3.906250
1168		0.000000
1169		-3.906250
1170		1.953125
1171		-3.906250
1172		3.906250
1173		-1.953125
1174		3.906250
1175		-1.953125
1176		3.906250
1177		-1.953125
1178		5.859375
1179		0.000000
1180		7.812500
1181		0.000000
1182		7.812500
1183		3.906250
1184		5.859375
1185		3.906250
1186		7.812500
1187		3.906250
1188		9.765625
1189		3.906250
1190		9.765625
1191		3.906250
1192		11.718750
1193		5.859375
1194		11.718750
1195		5.859375
1196		13.671875
1197		7.812500
1198		13.671875
1199		7.812500
1200		13.671875
1201		9.765625
1202		13.671875
1203		9.765625
1204		17.578125
1205		9.765625
1206		17.578125
1207		11.718750
1208		17.578125
1209		11.718750
1210		19.531250
1211		11.718750
1212		19.531250
1213		13.671875
1214		19.531250
1215		13.671875
1216		21.484375
1217		17.578125
1218		19.531250
1219		17.578125
1220		21.484375
1221		15.625000
1222		23.437500
1223		15.625000
1224		23.437500
1225		17.578125
1226		25.390625
1227		19.531250
1228		25.390625
1229		19.531250
1230		25.390625
1231		19.531250
1232		27.343750
1233		21.484375
1234		25.390625
1235		23.437500
1236		25.390625
1237		21.484375
1238		27.343750
1239		21.484375
1240		29.296875
1241		21.484375
1242		29.296875
1243		23.437500
1244		29.296875
1245		23.437500
1246		31.250000
1247		23.437500
1248		31.250000
1249		25.390625
1250		33.203125
1251		27.343750
1252		31.250000
1253		27.343750
1254		31.250000
1255		25.390625
1256		33.203125
1257		27.343750
1258		33.203125
1259		27.343750
1260		33.203125
1261		27.343750
1262		33.203125
1263		27.343750
1264		35.156250
1265		27.343750
1266		35.156250
1267		31.250000
1268		33.203125
1269		31.250000
1270		33.203125
1271		29.296875
1272		35.156250
1273		29.296875
1274		37.109375
1275		29.296875
1276		37.109375
1277		29.296875
1278		37.109375
1279		31.250000
1280		37.109375
1281		29.296875
1282		37.109375
1283		31.250000
1284		37.109375
1285		33.203125
1286		35.156250
1287		33.203125
1288		35.156250
1289		31.250000
1290		37.109375
1291		31.250000
1292		37.109375
1293		31.250000
1294		37.109375
1295		31.250000
1296		37.109375
1297		31.250000
1298		39.062500
1299		31.250000
1300		37.109375
1301		33.203125
1302		35.156250
1303		33.203125
1304		35.156250
1305		29.296875
1306		37.109375
1307		31.250000
1308		37.109375
1309		31.250000
1310		37.109375
1311		29.296875
1312		37.109375
1313		31.250000
1314		37.109375
1315		29.296875
1316		37.109375
1317		31.250000
1318		37.109375
1319		31.250000
1320		35.156250
1321		29.296875
1322		35.156250
1323		27.343750
1324		35.156250
1325		29.296875
1326		35.156250
1327		29.296875
1328		35.156250
1329		29.296875
1330		35.156250
1331		27.343750
1332		35.156250
1333		27.343750
1334		35.156250
1335		29.296875
1336		31.250000
1337		29.296875
1338		31.250000
1339		25.390625
1340		33.203125
1341		25.390625
1342		33.203125
1343		25.390625
1344		31.250000
1345		25.390625
1346		31.250000
1347		23.437500
1348		31.250000
1349		23.437500
1350		31.250000
1351		25.390625
1352		27.343750
1353		25.390625
1354		27.343750
1355		21.484375
1356		29.296875
1357		21.484375
1358		29.296875
1359		19.531250
1360		27.343750
1361		19.531250
1362		27.343750
1363		19.531250
1364		25.390625
1365		19.531250
1366		25.390625
1367		19.531250
1368		25.390625
1369		19.531250
1370		23.437500
1371		17.578125
1372		21.484375
1373		15.625000
1374		23.437500
1375		15.625000
1376		21.484375
1377		13.671875
1378		21.484375
1379		13.671875
1380		21.484375
1381		13.671875
1382		21.484375
1383		11.718750
1384		19.531250
1385		13.671875
1386		17.578125
1387		11.718750
1388		15.625000
1389		9.765625
1390		15.625000
1391		9.765625
1392		15.625000
1393		7.812500
1394		15.625000
1395		7.812500
1396		13.671875
1397		5.859375
1398		13.671875
1399		3.906250
1400		13.671875
1401		5.859375
1402		11.718750
1403		5.859375
1404		9.765625
1405		3.906250
1406		9.765625
1407		1.953125
1408		9.765625
1409		1.953125
1410		9.765625
1411		0.000000
1412		7.812500
1413		0.000000
1414		7.812500
1415		-1.953125
1416		5.859375
1417		-1.953125
1418		5.859375
1419		-1.953125
1420		1.953125
1421		-1.953125
1422		1.953125
1423		-5.859375
1424		1.953125
1425		-5.859375
1426		1.953125
1427		-7.812500
1428		0.000000
1429		-7.812500
1430		0.000000
1431		-7.812500
1432		0.000000
1433		-9.765625
1434		-1.953125
1435		-7.812500
1436		-3.906250
1437		-9.765625
1438		-5.859375
1439		-11.718750
1440		-5.859375
1441		-11.718750
1442		-5.859375
1443		-13.671875
1444		-5.859375
1445		-13.671875
1446		-7.812500
1447		-15.625000
1448		-7.812500
1449		-15.625000
1450		-7.812500
1451		-15.625000
1452		-9.765625
1453		-15.625000
1454		-11.718750
1455		-17.578125
1456		-13.671875
1457		-19.531250
1458		-11.718750
1459		-19.531250
1460		-11.718750
1461		-19.531250
1462		-13.671875
1463		-21.484375
1464		-13.671875
1465		-21.484375
1466		-15.625000
1467		-21.484375
1468		-15.625000
1469		-21.484375
1470		-17.578125
1471		-21.484375
1472		-17.578125
1473		-23.437500
1474		-17.578125
1475		-25.390625
1476		-17.578125
1477		-25.390625
1478		-17.578125
1479		-25.390625
1480		-19.531250
1481		-27.343750
1482		-19.531250
1483		-27.343750
1484		-21.484375
1485		-27.343750
1486		-19.531250
1487		-25.390625
1488		-23.437500
1489		-29.296875
1490		-21.484375
1491		-29.296875
1492		-21.484375
1493		-29.296875
1494		-23.437500
1495		-29.296875
1496		-23.437500
1497		-31.250000
1498		-23.437500
1499		-31.250000
1500		-23.437500
1501		-31.250000
1502		-23.437500
1503		-29.296875
1504		-27.343750
1505		-29.296875
1506		-27.343750
1507		-31.250000
1508		-25.390625
1509		-33.203125
1510		-25.390625
1511		-33.203125
1512		-25.390625
1513		-33.203125
1514		-25.390625
1515		-33.203125
1516		-25.390625
1517		-33.203125
1518		-25.390625
1519		-31.250000
1520		-29.296875
1521		-31.250000
1522		-29.296875
1523		-33.203125
1524		-27.343750
1525		-35.156250
1526		-27.343750
1527		-35.156250
1528		-27.343750
1529		-33.203125
1530		-27.343750
1531		-33.203125
1532		-27.343750
1533		-33.203125
1534		-27.343750
1535		-33.203125
1536		-27.343750
1537		-31.250000
1538		-29.296875
1539		-33.203125
1540		-27.343750
1541		-33.203125
1542		-27.343750
1543		-33.203125
1544		-25.390625
1545		-33.203125
1546		-27.343750
1547		-33.203125
1548		-25.390625
1549		-33.203125
1550		-25.390625
1551		-33.203125
1552		-25.390625
1553		-31.250000
1554		-27.343750
1555		-31.250000
1556		-27.343750
1557		-31.250000
1558		-25.390625
1559		-31.250000
1560		-25.390625
1561		-31.250000
1562		-25.390625
1563		-31.250000
1564		-23.437500
1565		-31.250000
1566		-23.437500
1567		-31.250000
1568		-23.437500
1569		-29.296875
1570		-23.437500
1571		-27.343750
1572		-23.437500
1573		-29.296875
1574		-21.484375
1575		-27.343750
1576		-21.484375
1577		-27.343750
1578		-21.484375
1579		-27.343750
1580		-19.531250
1581		-27.343750
1582		-19.531250
1583		-25.390625
1584		-19.531250
1585		-25.390625
1586		-19.531250
1587		-23.437500
1588		-19.531250
1589		-23.437500
1590		-17.578125
1591		-23.437500
1592		-17.578125
1593		-23.437500
1594		-17.578125
1595		-23.437500
1596		-15.625000
1597		-21.484375
1598		-15.625000
1599		-21.484375
1600		-15.625000
1601		-21.484375
1602		-13.671875
1603		-17.578125
1604		-15.625000
1605		-17.578125
1606		-13.671875
1607		-19.531250
1608		-11.718750
1609		-17.578125
1610		-11.718750
1611		-17.578125
1612		-9.765625
1613		-15.625000
1614		-9.765625
1615		-15.625000
1616		-9.765625
1617		-15.625000
1618		-7.812500
1619		-13.671875
1620		-7.812500
1621		-11.718750
1622		-7.812500
1623		-11.718750
1624		-5.859375
1625		-11.718750
1626		-3.906250
1627		-9.765625
1628		-3.906250
1629		-9.765625
1630		-3.906250
1631		-7.812500
1632		-3.906250
1633		-7.812500
1634		-1.953125
1635		-7.812500
1636		0.000000
1637		-3.906250
1638		-1.953125
1639		-3.906250
1640		0.000000
1641		-3.906250
1642		1.953125
1643		-3.906250
1644		1.953125
1645		-3.906250
1646		3.906250
1647		-1.953125
1648		3.906250
1649		0.000000
1650		3.906250
1651		-1.953125
1652		7.812500
1653		1.953125
1654		5.859375
1655		1.953125
1656		5.859375
1657		1.953125
1658		9.765625
1659		1.953125
1660		9.765625
1661		3.906250
1662		9.765625
1663		5.859375
1664		9.765625
1665		5.859375
1666		11.718750
1667		7.812500
1668		11.718750
1669		7.812500
1670		11.718750
1671		9.765625
1672		13.671875
1673		9.765625
1674		13.671875
1675		7.812500
1676		15.625000
1677		9.765625
1678		15.625000
1679		11.718750
1680		15.625000
1681		13.671875
1682		17.578125
1683		13.671875
1684		17.578125
1685		13.671875
1686		17.578125
1687		15.625000
1688		19.531250
1689		15.625000
1690		19.531250
1691		15.625000
1692		21.484375
1693		15.625000
1694		21.484375
1695		17.578125
1696		21.484375
1697		19.531250
1698		21.484375
1699		19.531250
1700		23.437500
1701		21.484375
1702		23.437500
1703		19.531250
1704		25.390625
1705		21.484375
1706		25.390625
1707		21.484375
1708		27.343750
1709		21.484375
1710		25.390625
1711		23.437500
1712		27.343750
1713		23.437500
1714		27.343750
1715		25.390625
1716		27.343750
1717		25.390625
1718		29.296875
1719		25.390625
1720		29.296875
1721		25.390625
1722		29.296875
1723		27.343750
1724		29.296875
1725		25.390625
1726		31.250000
1727		27.343750
1728		31.250000
1729		27.343750
1730		31.250000
1731		27.343750
1732		31.250000
1733		29.296875
1734		31.250000
1735		29.296875
1736		33.203125
1737		29.296875
1738		33.203125
1739		29.296875
1740		33.203125
1741		29.296875
1742		33.203125
1743		29.296875
1744		33.203125
1745		31.250000
1746		35.156250
1747		31.250000
1748		33.203125
1749		31.250000
1750		35.156250
1751		31.250000
1752		35.156250
1753		31.250000
1754		35.156250
1755		31.250000
1756		35.156250
1757		31.250000
1758		35.156250
1759		31.250000
1760		35.156250
1761		31.250000
1762		35.156250
1763		31.250000
1764		35.156250
1765		31.250000
1766		35.156250
1767		31.250000
1768		35.156250
1769		31.250000
1770		35.156250
1771		31.250000
1772		35.156250
1773		31.250000
1774		35.156250
1775		31.250000
1776		35.156250
1777		31.250000
1778		35.156250
1779		31.250000
1780		35.156250
1781		31.250000
1782		35.156250
1783		31.250000
1784		35.156250
1785		31.250000
1786		33.203125
1787		31.250000
1788		35.156250
1789		31.250000
1790		33.203125
1791		29.296875
1792		35.156250
1793		29.296875
1794		33.203125
1795		29.296875
1796		33.203125
1797		29.296875
1798		33.203125
1799		29.296875
1800		33.203125
1801		29.296875
1802		33.203125
1803		27.343750
1804		31.250000
1805		27.343750
1806		31.250000
1807		27.343750
1808		31.250000
1809		27.343750
1810		31.250000
1811		27.343750
1812		29.296875
1813		25.390625
1814		29.296875
1815		25.390625
1816		29.296875
1817		25.390625
1818		29.296875
1819		25.390625
1820		27.343750
1821		23.437500
1822		27.343750
1823		23.437500
1824		27.343750
1825		23.437500
1826		27.343750
1827		23.437500
1828		25.390625
1829		21.484375
1830		25.390625
1831		21.484375
1832		25.390625
1833		21.484375
1834		23.437500
1835		19.531250
1836		23.437500
1837		17.578125
1838		23.437500
1839		19.531250
1840		21.484375
1841		17.578125
1842		21.484375
1843		17.578125
1844		21.484375
1845		15.625000
1846		19.531250
1847		15.625000
1848		19.531250
1849		15.625000
1850		17.578125
1851		13.671875
1852		17.578125
1853		13.671875
1854		17.578125
1855		11.718750
1856		17.578125
1857		11.718750
1858		15.625000
1859		9.765625
1860		15.625000
1861		9.765625
1862		13.671875
1863		9.765625
1864		13.671875
1865		7.812500
1866		11.718750
1867		5.859375
1868		11.718750
1869		7.812500
1870		9.765625
1871		5.859375
1872		9.765625
1873		5.859375
1874		9.765625
1875		3.906250
1876		7.812500
1877		3.906250
1878		7.812500
1879		1.953125
1880		5.859375
1881		1.953125
1882		5.859375
1883		0.000000
1884		3.906250
1885		0.000000
1886		3.906250
1887		-1.953125
1888		1.953125
1889		-1.953125
1890		1.953125
1891		-1.953125
1892		0.000000
1893		-3.906250
1894		0.000000
1895		-3.906250
1896		-1.953125
1897		-5.859375
1898		-1.953125
1899		-5.859375
1900		-1.953125
1901		-7.812500
1902		-3.906250
1903		-7.812500
1904		-3.906250
1905		-9.765625
1906		-5.859375
1907		-9.765625
1908		-5.859375
1909		-11.718750
1910		-7.812500
1911		-11.718750
1912		-7.812500
1913		-11.718750
1914		-7.812500
1915		-13.671875
1916		-9.765625
1917		-13.671875
1918		-9.765625
1919		-15.625000
1920		-9.765625
1921		-15.625000
1922		-11.718750
1923		-15.625000
1924		-13.671875
1925		-17.578125
1926		-13.671875
1927		-17.578125
1928		-13.671875
1929		-17.578125
1930		-15.625000
1931		-19.531250
1932		-15.625000
1933		-19.531250
1934		-15.625000
1935		-19.531250
1936		-17.578125
1937		-21.484375
1938		-17.578125
1939		-21.484375
1940		-17.578125
1941		-21.484375
1942		-19.531250
1943		-23.437500
1944		-19.531250
1945		-23.437500
1946		-19.531250
1947		-25.390625
1948		-21.484375
1949		-25.390625
1950		-21.484375
1951		-25.390625
1952		-21.484375
1953		-25.390625
1954		-23.437500
1955		-27.343750
1956		-23.437500
1957		-27.343750
1958		-23.437500
1959		-27.343750
1960		-23.437500
1961		-29.296875
1962		-23.437500
1963		-29.296875
1964		-25.390625
1965		-29.296875
1966		-25.390625
1967		-29.296875
1968		-25.390625
1969		-29.296875
1970		-27.343750
1971		-31.250000
1972		-25.390625
1973		-31.250000
1974		-27.343750
1975		-31.250000
1976		-27.343750
1977		-31.250000
1978		-27.343750
1979		-31.250000
1980		-27.343750
1981		-31.250000
1982		-29.296875
1983		-31.250000
1984		-29.296875
1985		-31.250000
1986		-29.296875
1987		-33.203125
1988		-29.296875
1989		-33.203125
1990		-27.343750
1991		-33.203125
1992		-29.296875
1993		-33.203125
1994		-29.296875
1995		-33.203125
1996		-29.296875
1997		-33.203125
1998		-29.296875
1999		-33.203125
2000		-29.296875
2001		-33.203125
2002		-29.296875
2003		-33.203125
2004		-29.296875
2005		-33.203125
2006		-29.296875
2007		-33.203125
2008		-29.296875
2009		-33.203125
2010		-29.296875
2011		-33.203125
2012		-29.296875
2013		-33.203125
2014		-29.296875
2015		-33.203125
2016		-29.296875
2017		-33.203125
2018		-29.296875
2019		-31.250000
2020		-29.296875
2021		-31.250000
2022		-29.296875
2023		-33.203125
2024		-29.296875
2025		-31.250000
2026		-27.343750
2027		-31.250000
2028		-27.343750
2029		-31.250000
2030		-27.343750
2031		-31.250000
2032		-27.343750
2033		-29.296875
2034		-27.343750
2035		-29.296875
2036		-25.390625
2037		-29.296875
2038		-25.390625
2039		-29.296875
2040		-25.390625
2041		-29.296875
2042		-25.390625
2043		-27.343750
2044		-25.390625
2045		-27.343750
2046		-23.437500
2047		-27.343750
2048		-23.437500
2049		-25.390625
2050		-23.437500
2051		-25.390625
2052		-23.437500
2053		-25.390625
2054		-21.484375
2055		-25.390625
2056		-21.484375
2057		-25.390625
2058		-21.484375
2059		-23.437500
2060		-21.484375
2061		-23.437500
2062		-19.531250
2063		-23.437500
2064		-19.531250
2065		-21.484375
2066		-19.531250
2067		-21.484375
2068		-17.578125
2069		-21.484375
2070		-17.578125
2071		-19.531250
2072		-15.625000
2073		-19.531250
2074		-15.625000
2075		-17.578125
2076		-15.625000
2077		-17.578125
2078		-13.671875
2079		-17.578125
2080		-13.671875
2081		-17.578125
2082		-11.718750
2083		-15.625000
2084		-11.718750
2085		-15.625000
2086		-11.718750
2087		-15.625000
2088		-9.765625
2089		-13.671875
2090		-9.765625
2091		-11.718750
2092		-9.765625
2093		-11.718750
2094		-7.812500
2095		-11.718750
2096		-7.812500
2097		-9.765625
2098		-5.859375
2099		-9.765625
2100		-5.859375
2101		-7.812500
2102		-3.906250
2103		-7.812500
2104		-3.906250
2105		-7.812500
2106		-3.906250
2107		-5.859375
2108		-1.953125
2109		-3.906250
2110		-1.953125
2111		-3.906250
2112		0.000000
2113		-3.906250
2114		0.000000
2115		-3.906250
2116		1.953125
2117		-1.953125
2118		1.953125
2119		-1.953125
2120		1.953125
2121		0.000000
2122		3.906250
2123		0.000000
2124		3.906250
2125		1.953125
2126		5.859375
2127		3.906250
2128		5.859375
2129		1.953125
2130		7.812500
2131		3.906250
2132		7.812500
2133		3.906250
2134		7.812500
2135		5.859375
2136		9.765625
2137		7.812500
2138		9.765625
2139		7.812500
2140		11.718750
2141		7.812500
2142		11.718750
2143		9.765625
2144		13.671875
2145		9.765625
2146		13.671875
2147		11.718750
2148		13.671875
2149		11.718750
2150		15.625000
2151		11.718750
2152		15.625000
2153		13.671875
2154		17.578125
2155		13.671875
2156		17.578125
2157		13.671875
2158		17.578125
2159		15.625000
2160		19.531250
2161		15.625000
2162		19.531250
2163		17.578125
2164		19.531250
2165		17.578125
2166		21.484375
2167		17.578125
2168		21.484375
2169		19.531250
2170		23.437500
2171		17.578125
2172		23.437500
2173		19.531250
2174		23.437500
2175		21.484375
2176		23.437500
2177		21.484375
2178		25.390625
2179		21.484375
2180		25.390625
2181		21.484375
2182		25.390625
2183		23.437500
2184		27.343750
2185		23.437500
2186		27.343750
2187		23.437500
2188		27.343750
2189		23.437500
2190		29.296875
2191		23.437500
2192		29.296875
2193		25.390625
2194		29.296875
2195		25.390625
2196		29.296875
2197		27.343750
2198		31.250000
2199		27.343750
2200		31.250000
2201		27.343750
2202		31.250000
2203		29.296875
2204		31.250000
2205		27.343750
2206		31.250000
2207		29.296875
2208		31.250000
2209		29.296875
2210		33.203125
2211		29.296875
2212		33.203125
2213		29.296875
2214		33.203125
2215		29.296875
2216		33.203125
2217		31.250000
2218		33.203125
2219		31.250000
2220		33.203125
2221		29.296875
2222		33.203125
2223		31.250000
2224		35.156250
2225		31.250000
2226		35.156250
2227		31.250000
2228		35.156250
2229		29.296875
2230		35.156250
2231		31.250000
2232		35.156250
2233		31.250000
2234		35.156250
2235		31.250000
2236		35.156250
2237		31.250000
2238		35.156250
2239		31.250000
2240		35.156250
2241		29.296875
2242		35.156250
2243		31.250000
2244		35.156250
2245		31.250000
2246		35.156250
2247		31.250000
2248		35.156250
2249		31.250000
2250		35.156250
2251		31.250000
2252		35.156250
2253		31.250000
2254		35.156250
2255		31.250000
2256		35.156250
2257		31.250000
2258		35.156250
2259		29.296875
2260		33.203125
2261		31.250000
2262		33.203125
2263		29.296875
2264		33.203125
2265		29.296875
2266		33.203125
2267		29.296875
2268		33.203125
2269		29.296875
2270		33.203125
2271		29.296875
2272		31.250000
2273		29.296875
2274		31.250000
2275		27.343750
2276		31.250000
2277		27.343750
2278		31.250000
2279		25.390625
2280		31.250000
2281		27.343750
2282		29.296875
2283		25.390625
2284		29.296875
2285		25.390625
2286		29.296875
2287		25.390625
2288		29.296875
2289		25.390625
2290		27.343750
2291		23.437500
2292		27.343750
2293		23.437500
2294		27.343750
2295		23.437500
2296		25.390625
2297		23.437500
2298		25.390625
2299		21.484375
2300		25.390625
2301		21.484375
2302		25.390625
2303		21.484375
2304		23.437500
2305		19.531250
2306		23.437500
2307		19.531250
2308		23.437500
2309		19.531250
2310		23.437500
2311		17.578125
2312		21.484375
2313		17.578125
2314		21.484375
2315		17.578125
2316		19.531250
2317		15.625000
2318		19.531250
2319		15.625000
2320		19.531250
2321		13.671875
2322		17.578125
2323		13.671875
2324		17.578125
2325		13.671875
2326		17.578125
2327		11.718750
2328		15.625000
2329		11.718750
2330		15.625000
2331		9.765625
2332		13.671875
2333		9.765625
2334		13.671875
2335		9.765625
2336		11.718750
2337		7.812500
2338		11.718750
2339		5.859375
2340		9.765625
2341		5.859375
2342		9.765625
2343		5.859375
2344		9.765625
2345		3.906250
2346		7.812500
2347		1.953125
2348		7.812500
2349		3.906250
2350		5.859375
2351		1.953125
2352		5.859375
2353		1.953125
2354		3.906250
2355		0.000000
2356		3.906250
2357		-1.953125
2358		3.906250
2359		-1.953125
2360		1.953125
2361		-1.953125
2362		1.953125
2363		-3.906250
2364		0.000000
2365		-3.906250
2366		0.000000
2367		-3.906250
2368		-1.953125
2369		-5.859375
2370		-1.953125
2371		-5.859375
2372		-3.906250
2373		-7.812500
2374		-3.906250
2375		-9.765625
2376		-5.859375
2377		-9.765625
2378		-5.859375
2379		-9.765625
2380		-5.859375
2381		-11.718750
2382		-5.859375
2383		-11.718750
2384		-7.812500
2385		-11.718750
2386		-9.765625
2387		-13.671875
2388		-9.765625
2389		-13.671875
2390		-11.718750
2391		-15.625000
2392		-11.718750
2393		-15.625000
2394		-11.718750
2395		-17.578125
2396		-13.671875
2397		-17.578125
2398		-13.671875
2399		-19.531250
2400		-13.671875
2401		-19.531250
2402		-15.625000
2403		-19.531250
2404		-15.625000
2405		-19.531250
2406		-17.578125
2407		-21.484375
2408		-17.578125
2409		-21.484375
2410		-17.578125
2411		-21.484375
2412		-19.531250
2413		-23.437500
2414		-19.531250
2415		-23.437500
2416		-19.531250
2417		-23.437500
2418		-21.484375
2419		-25.390625
2420		-21.484375
2421		-25.390625
2422		-21.484375
2423		-25.390625
2424		-21.484375
2425		-27.343750
2426		-23.437500
2427		-27.343750
2428		-23.437500
2429		-27.343750
2430		-25.390625
2431		-29.296875
2432		-25.390625
2433		-29.296875
2434		-25.390625
2435		-29.296875
2436		-25.390625
2437		-29.296875
2438		-25.390625
2439		-29.296875
2440		-27.343750
2441		-29.296875
2442		-27.343750
2443		-31.250000
2444		-27.343750
2445		-31.250000
2446		-27.343750
2447		-31.250000
2448		-27.343750
2449		-31.250000
2450		-27.343750
2451		-31.250000
2452		-29.296875
2453		-31.250000
2454		-29.296875
2455		-33.203125
2456		-29.296875
2457		-33.203125
2458		-29.296875
2459		-33.203125
2460		-29.296875
2461		-33.203125
2462		-29.296875
2463		-33.203125
2464		-29.296875
2465		-33.203125
2466		-29.296875
2467		-33.203125
2468		-29.296875
2469		-33.203125
2470		-29.296875
2471		-33.203125
2472		-29.296875
2473		-33.203125
2474		-29.296875
2475		-33.203125
2476		-29.296875
2477		-33.203125
2478		-29.296875
2479		-33.203125
2480		-29.296875
2481		-33.203125
2482		-29.296875
2483		-33.203125
2484		-29.296875
2485		-33.203125
2486		-29.296875
2487		-33.203125
2488		-29.296875
2489		-33.203125
2490		-29.296875
2491		-31.250000
2492		-29.296875
2493		-31.250000
2494		-29.296875
2495		-31.250000
2496		-29.296875
2497		-31.250000
2498		-27.343750
2499		-31.250000
2500		-27.343750
2501		-31.250000
2502		-27.343750
2503		-31.250000
2504		-27.343750
2505		-31.250000
2506		-27.343750
2507		-29.296875
2508		-27.343750
2509		-29.296875
2510		-25.390625
2511		-29.296875
2512		-25.390625
2513		-29.296875
2514		-25.390625
2515		-29.296875
2516		-25.390625
2517		-27.343750
2518		-23.437500
2519		-27.343750
2520		-23.437500
2521		-27.343750
2522		-23.437500
2523		-25.390625
2524		-21.484375
2525		-25.390625
2526		-21.484375
2527		-25.390625
2528		-21.484375
2529		-23.437500
2530		-21.484375
2531		-23.437500
2532		-19.531250
2533		-23.437500
2534		-19.531250
2535		-23.437500
2536		-19.531250
2537		-21.484375
2538		-17.578125
2539		-21.484375
2540		-17.578125
2541		-19.531250
2542		-17.578125
2543		-19.531250
2544		-15.625000
2545		-19.531250
2546		-15.625000
2547		-17.578125
2548		-15.625000
2549		-17.578125
2550		-13.671875
2551		-17.578125
2552		-13.671875
2553		-17.578125
2554		-11.718750
2555		-15.625000
2556		-11.718750
2557		-15.625000
2558		-11.718750
2559		-13.671875
2560		-9.765625
2561		-13.671875
2562		-9.765625
2563		-11.718750
2564		-9.765625
2565		-11.718750
2566		-7.812500
2567		-9.765625
2568		-7.812500
2569		-9.765625
2570		-5.859375
2571		-9.765625
2572		-3.906250
2573		-7.812500
2574		-3.906250
2575		-7.812500
2576		-3.906250
2577		-7.812500
2578		-1.953125
2579		-5.859375
2580		-1.953125
2581		-3.906250
2582		-1.953125
2583		-3.906250
2584		0.000000
2585		-3.906250
2586		0.000000
2587		-1.953125
2588		1.953125
2589		-1.953125
2590		1.953125
2591		-1.953125
2592		1.953125
2593		0.000000
2594		3.906250
2595		1.953125
2596		3.906250
2597		1.953125
2598		5.859375
2599		1.953125
2600		5.859375
2601		3.906250
2602		7.812500
2603		3.906250
2604		7.812500
2605		5.859375
2606		7.812500
2607		5.859375
2608		9.765625
2609		5.859375
2610		9.765625
2611		7.812500
2612		11.718750
2613		7.812500
2614		11.718750
2615		9.765625
2616		13.671875
2617		9.765625
2618		13.671875
2619		9.765625
2620		13.671875
2621		11.718750
2622		15.625000
2623		11.718750
2624		15.625000
2625		13.671875
2626		17.578125
2627		13.671875
2628		17.578125
2629		15.625000
2630		17.578125
2631		15.625000
2632		19.531250
2633		15.625000
2634		19.531250
2635		17.578125
2636		19.531250
2637		17.578125
2638		21.484375
2639		17.578125
2640		21.484375
2641		19.531250
2642		21.484375
2643		19.531250
2644		23.437500
2645		19.531250
2646		23.437500
2647		21.484375
2648		23.437500
2649		21.484375
2650		25.390625
2651		21.484375
2652		25.390625
2653		23.437500
2654		27.343750
2655		23.437500
2656		27.343750
2657		23.437500
2658		27.343750
2659		23.437500
2660		27.343750
2661		25.390625
2662		29.296875
2663		25.390625
2664		29.296875
2665		25.390625
2666		29.296875
2667		25.390625
2668		31.250000
2669		27.343750
2670		29.296875
2671		27.343750
2672		31.250000
2673		27.343750
2674		31.250000
2675		27.343750
2676		31.250000
2677		27.343750
2678		33.203125
2679		29.296875
2680		33.203125
2681		29.296875
2682		33.203125
2683		29.296875
2684		33.203125
2685		29.296875
2686		33.203125
2687		29.296875
2688		33.203125
2689		29.296875
2690		33.203125
2691		31.250000
2692		33.203125
2693		29.296875
2694		35.156250
2695		31.250000
2696		35.156250
2697		31.250000
2698		35.156250
2699		31.250000
2700		35.156250
2701		31.250000
2702		35.156250
2703		31.250000
2704		35.156250
2705		31.250000
2706		35.156250
2707		31.250000
2708		35.156250
2709		31.250000
2710		35.156250
2711		31.250000
2712		35.156250
2713		31.250000
2714		35.156250
2715		31.250000
2716		35.156250
2717		31.250000
2718		35.156250
2719		31.250000
2720		35.156250
2721		31.250000
2722		35.156250
2723		31.250000
2724		35.156250
2725		31.250000
2726		35.156250
2727		31.250000
2728		33.203125
2729		29.296875
2730		35.156250
2731		31.250000
2732		33.203125
2733		31.250000
2734		35.156250
2735		29.296875
2736		33.203125
2737		29.296875
2738		33.203125
2739		29.296875
2740		33.203125
2741		29.296875
2742		31.250000
2743		29.296875
2744		31.250000
2745		27.343750
2746		31.250000
2747		27.343750
2748		31.250000
2749		27.343750
2750		31.250000
2751		27.343750
2752		31.250000
2753		27.343750
2754		31.250000
2755		25.390625
2756		29.296875
2757		25.390625
2758		29.296875
2759		25.390625
2760		29.296875
2761		25.390625
2762		27.343750
2763		23.437500
2764		27.343750
2765		23.437500
2766		27.343750
2767		21.484375
2768		27.343750
2769		21.484375
2770		25.390625
2771		21.484375
2772		25.390625
2773		21.484375
2774		25.390625
2775		19.531250
2776		23.437500
2777		19.531250
2778		23.437500
2779		19.531250
2780		21.484375
2781		17.578125
2782		21.484375
2783		17.578125
2784		21.484375
2785		17.578125
2786		21.484375
2787		15.625000
2788		19.531250
2789		15.625000
2790		19.531250
2791		15.625000
2792		19.531250
2793		13.671875
2794		17.578125
2795		11.718750
2796		17.578125
2797		13.671875
2798		15.625000
2799		11.718750
2800		15.625000
2801		11.718750
2802		15.625000
2803		9.765625
2804		13.671875
2805		9.765625
2806		13.671875
2807		7.812500
2808		11.718750
2809		7.812500
2810		11.718750
2811		5.859375
2812		9.765625
2813		5.859375
2814		9.765625
2815		5.859375
2816		7.812500
2817		3.906250
2818		7.812500
2819		3.906250
2820		7.812500
2821		1.953125
2822		5.859375
2823		1.953125
2824		5.859375
2825		0.000000
2826		3.906250
2827		-1.953125
2828		3.906250
2829		-1.953125
2830		1.953125
2831		-1.953125
2832		1.953125
2833		-1.953125
2834		0.000000
2835		-3.906250
2836		0.000000
2837		-3.906250
2838		-1.953125
2839		-5.859375
2840		-1.953125
2841		-5.859375
2842		-3.906250
2843		-7.812500
2844		-1.953125
2845		-7.812500
2846		-3.906250
2847		-9.765625
2848		-5.859375
2849		-9.765625
2850		-5.859375
2851		-9.765625
2852		-5.859375
2853		-11.718750
2854		-7.812500
2855		-11.718750
2856		-7.812500
2857		-13.671875
2858		-9.765625
2859		-13.671875
2860		-9.765625
2861		-15.625000
2862		-11.718750
2863		-15.625000
2864		-11.718750
2865		-15.625000
2866		-13.671875
2867		-17.578125
2868		-13.671875
2869		-17.578125
2870		-13.671875
2871		-17.578125
2872		-15.625000
2873		-19.531250
2874		-15.625000
2875		-19.531250
2876		-15.625000
2877		-21.484375
2878		-17.578125
2879		-21.484375
2880		-17.578125
2881		-21.484375
2882		-19.531250
2883		-23.437500
2884		-19.531250
2885		-23.437500
2886		-19.531250
2887		-23.437500
2888		-21.484375
2889		-25.390625
2890		-21.484375
2891		-25.390625
2892		-21.484375
2893		-25.390625
2894		-21.484375
2895		-25.390625
2896		-21.484375
2897		-27.343750
2898		-23.437500
2899		-27.343750
2900		-23.437500
2901		-29.296875
2902		-25.390625
2903		-27.343750
2904		-25.390625
2905		-29.296875
2906		-25.390625
2907		-29.296875
2908		-25.390625
2909		-29.296875
2910		-27.343750
2911		-29.296875
2912		-27.343750
2913		-31.250000
2914		-27.343750
2915		-31.250000
2916		-27.343750
2917		-31.250000
2918		-27.343750
2919		-31.250000
2920		-27.343750
2921		-31.250000
2922		-29.296875
2923		-31.250000
2924		-29.296875
2925		-31.250000
2926		-29.296875
2927		-33.203125
2928		-29.296875
2929		-33.203125
2930		-29.296875
2931		-33.203125
2932		-29.296875
2933		-33.203125
2934		-29.296875
2935		-33.203125
2936		-29.296875
2937		-33.203125
2938		-29.296875
2939		-33.203125
2940		-29.296875
2941		-33.203125
2942		-31.250000
2943		-33.203125
2944		-29.296875
2945		-33.203125
2946		-31.250000
2947		-35.156250
2948		-29.296875
2949		-33.203125
2950		-29.296875
2951		-33.203125
2952		-29.296875
2953		-33.203125
2954		-29.296875
2955		-33.203125
2956		-29.296875
2957		-33.203125
2958		-29.296875
2959		-33.203125
2960		-29.296875
2961		-33.203125
2962		-29.296875
2963		-33.203125
2964		-29.296875
2965		-31.250000
2966		-29.296875
2967		-31.250000
2968		-29.296875
2969		-31.250000
2970		-27.343750
2971		-31.250000
2972		-27.343750
2973		-31.250000
2974		-27.343750
2975		-31.250000
2976		-27.343750
2977		-31.250000
2978		-27.343750
2979		-31.250000
2980		-27.343750
2981		-29.296875
2982		-25.390625
2983		-29.296875
2984		-25.390625
2985		-29.296875
2986		-25.390625
2987		-27.343750
2988		-25.390625
2989		-27.343750
2990		-23.437500
2991		-27.343750
2992		-23.437500
2993		-27.343750
2994		-23.437500
2995		-27.343750
2996		-23.437500
2997		-25.390625
2998		-23.437500
2999		-25.390625
3000		-21.484375
3001		-25.390625
3002		-21.484375
3003		-23.437500
3004		-19.531250
3005		-23.437500
3006		-19.531250
3007		-23.437500
3008		-19.531250
3009		-23.437500
3010		-19.531250
3011		-21.484375
3012		-17.578125
3013		-21.484375
3014		-17.578125
3015		-21.484375
3016		-17.578125
3017		-19.531250
3018		-15.625000
3019		-19.531250
3020		-15.625000
3021		-17.578125
3022		-13.671875
3023		-17.578125
3024		-13.671875
3025		-15.625000
3026		-11.718750
3027		-15.625000
3028		-11.718750
3029		-15.625000
3030		-11.718750
3031		-15.625000
3032		-9.765625
3033		-13.671875
3034		-9.765625
3035		-13.671875
3036		-9.765625
3037		-11.718750
3038		-7.812500
3039		-11.718750
3040		-7.812500
3041		-9.765625
3042		-5.859375
3043		-9.765625
3044		-5.859375
3045		-7.812500
3046		-5.859375
3047		-7.812500
3048		-3.906250
3049		-5.859375
3050		-3.906250
3051		-5.859375
3052		-1.953125
3053		-5.859375
3054		-1.953125
3055		-3.906250
3056		0.000000
3057		-3.906250
3058		0.000000
3059		-3.906250
3060		1.953125
3061		-1.953125
3062		1.953125
3063		0.000000
3064		3.906250
3065		0.000000
3066		3.906250
3067		1.953125
3068		3.906250
3069		1.953125
3070		5.859375
3071		1.953125
3072		5.859375
3073		3.906250
3074		7.812500
3075		3.906250
3076		9.765625
3077		5.859375
3078		7.812500
3079		5.859375
3080		9.765625
3081		5.859375
3082		9.765625
3083		7.812500
3084		11.718750
3085		7.812500
3086		11.718750
3087		7.812500
3088		13.671875
3089		9.765625
3090		13.671875
3091		11.718750
3092		13.671875
3093		11.718750
3094		15.625000
3095		13.671875
3096		15.625000
3097		13.671875
3098		17.578125
3099		13.671875
3100		17.578125
3101		15.625000
3102		17.578125
3103		15.625000
3104		19.531250
3105		15.625000
3106		19.531250
3107		15.625000
3108		21.484375
3109		17.578125
3110		21.484375
3111		17.578125
3112		21.484375
3113		19.531250
3114		23.437500
3115		19.531250
3116		23.437500
3117		19.531250
3118		23.437500
3119		21.484375
3120		25.390625
3121		21.484375
3122		25.390625
3123		21.484375
3124		25.390625
3125		23.437500
3126		27.343750
3127		23.437500
3128		27.343750
3129		23.437500
3130		27.343750
3131		23.437500
3132		27.343750
3133		25.390625
3134		29.296875
3135		25.390625
3136		29.296875
3137		25.390625
3138		29.296875
3139		25.390625
3140		29.296875
3141		27.343750
3142		29.296875
3143		27.343750
3144		31.250000
3145		27.343750
3146		31.250000
3147		27.343750
3148		31.250000
3149		27.343750
3150		31.250000
3151		29.296875
3152		31.250000
3153		29.296875
3154		33.203125
3155		29.296875
3156		33.203125
3157		29.296875
3158		33.203125
3159		29.296875
3160		33.203125
3161		29.296875
3162		33.203125
3163		31.250000
3164		33.203125
3165		29.296875
3166		33.203125
3167		31.250000
3168		33.203125
3169		31.250000
3170		35.156250
3171		31.250000
3172		33.203125
3173		31.250000
3174		35.156250
3175		31.250000
3176		35.156250
3177		31.250000
3178		35.156250
3179		31.250000
3180		35.156250
3181		31.250000
3182		35.156250
3183		31.250000
3184		35.156250
3185		31.250000
3186		35.156250
3187		29.296875
3188		35.156250
3189		31.250000
3190		35.156250
3191		31.250000
3192		35.156250
3193		31.250000
3194		35.156250
3195		31.250000
3196		35.156250
3197		29.296875
3198		35.156250
3199		29.296875
3200		35.156250
3201		31.250000
3202		33.203125
3203		29.296875
3204		33.203125
3205		29.296875
3206		33.203125
3207		29.296875
3208		33.203125
3209		29.296875
3210		33.203125
3211		29.296875
3212		33.203125
3213		29.296875
3214		31.250000
3215		27.343750
3216		33.203125
3217		29.296875
3218		31.250000
3219		27.343750
3220		31.250000
3221		27.343750
3222		31.250000
3223		25.390625
3224		31.250000
3225		25.390625
3226		29.296875
3227		25.390625
3228		29.296875
3229		25.390625
3230		29.296875
3231		23.437500
3232		29.296875
3233		23.437500
3234		27.343750
3235		23.437500
3236		27.343750
3237		23.437500
3238		27.343750
3239		21.484375
3240		25.390625
3241		21.484375
3242		25.390625
3243		21.484375
3244		25.390625
3245		21.484375
3246		23.437500
3247		19.531250
3248		23.437500
3249		19.531250
3250		23.437500
3251		19.531250
3252		21.484375
3253		17.578125
3254		21.484375
3255		17.578125
3256		21.484375
3257		15.625000
3258		19.531250
3259		15.625000
3260		19.531250
3261		15.625000
3262		19.531250
3263		13.671875
3264		17.578125
3265		13.671875
3266		17.578125
3267		11.718750
3268		15.625000
3269		11.718750
3270		15.625000
3271		9.765625
3272		13.671875
3273		9.765625
3274		13.671875
3275		9.765625
3276		13.671875
3277		7.812500
3278		11.718750
3279		7.812500
3280		11.718750
3281		5.859375
3282		9.765625
3283		5.859375
3284		9.765625
3285		5.859375
3286		7.812500
3287		3.906250
3288		7.812500
3289		3.906250
3290		7.812500
3291		1.953125
3292		5.859375
3293		1.953125
3294		5.859375
3295		0.000000
3296		5.859375
3297		0.000000
3298		3.906250
3299		0.000000
3300		1.953125
3301		-1.953125
3302		1.953125
3303		-1.953125
3304		0.000000
3305		-3.906250
3306		0.000000
3307		-3.906250
3308		0.000000
3309		-5.859375
3310		-1.953125
3311		-5.859375
3312		-1.953125
3313		-7.812500
3314		-3.906250
3315		-7.812500
3316		-3.906250
3317		-7.812500
3318		-3.906250
3319		-9.765625
3320		-5.859375
3321		-11.718750
3322		-7.812500
3323		-11.718750
3324		-7.812500
3325		-11.718750
3326		-7.812500
3327		-13.671875
3328		-9.765625
3329		-13.671875
3330		-9.765625
3331		-15.625000
3332		-11.718750
3333		-15.625000
3334		-11.718750
3335		-15.625000
3336		-13.671875
3337		-17.578125
3338		-13.671875
3339		-19.531250
3340		-13.671875
3341		-19.531250
3342		-15.625000
3343		-19.531250
3344		-15.625000
3345		-19.531250
3346		-17.578125
3347		-21.484375
3348		-17.578125
3349		-21.484375
3350		-17.578125
3351		-21.484375
3352		-19.531250
3353		-23.437500
3354		-19.531250
3355		-23.437500
3356		-19.531250
3357		-25.390625
3358		-21.484375
3359		-25.390625
3360		-21.484375
3361		-25.390625
3362		-21.484375
3363		-25.390625
3364		-21.484375
3365		-27.343750
3366		-23.437500
3367		-27.343750
3368		-23.437500
3369		-27.343750
3370		-23.437500
3371		-29.296875
3372		-25.390625
3373		-29.296875
3374		-25.390625
3375		-29.296875
3376		-25.390625
3377		-29.296875
3378		-27.343750
3379		-29.296875
3380		-27.343750
3381		-31.250000
3382		-27.343750
3383		-31.250000
3384		-27.343750
3385		-31.250000
3386		-27.343750
3387		-31.250000
3388		-27.343750
3389		-33.203125
3390		-29.296875
3391		-33.203125
3392		-29.296875
3393		-33.203125
3394		-29.296875
3395		-33.203125
3396		-29.296875
3397		-33.203125
3398		-29.296875
3399		-33.203125
3400		-29.296875
3401		-33.203125
3402		-29.296875
3403		-33.203125
3404		-29.296875
3405		-33.203125
3406		-29.296875
3407		-33.203125
3408		-29.296875
3409		-33.203125
3410		-31.250000
3411		-35.156250
3412		-29.296875
3413		-33.203125
3414		-31.250000
3415		-35.156250
3416		-31.250000
3417		-35.156250
3418		-29.296875
3419		-35.156250
3420		-31.250000
3421		-33.203125
3422		-31.250000
3423		-35.156250
3424		-31.250000
3425		-33.203125
3426		-31.250000
3427		-33.203125
3428		-31.250000
3429		-33.203125
3430		-29.296875
3431		-33.203125
3432		-29.296875
3433		-33.203125
3434		-29.296875
3435		-33.203125
3436		-29.296875
3437		-33.203125
3438		-29.296875
3439		-33.203125
3440		-29.296875
3441		-33.203125
3442		-27.343750
3443		-33.203125
3444		-29.296875
3445		-31.250000
3446		-29.296875
3447		-31.250000
3448		-27.343750
3449		-31.250000
3450		-27.343750
3451		-31.250000
3452		-27.343750
3453		-31.250000
3454		-27.343750
3455		-29.296875
3456		-27.343750
3457		-29.296875
3458		-25.390625
3459		-29.296875
3460		-25.390625
3461		-27.343750
3462		-25.390625
3463		-29.296875
3464		-23.437500
3465		-27.343750
3466		-23.437500
3467		-27.343750
3468		-23.437500
3469		-25.390625
3470		-23.437500
3471		-25.390625
3472		-21.484375
3473		-25.390625
3474		-21.484375
3475		-25.390625
3476		-21.484375
3477		-23.437500
3478		-19.531250
3479		-23.437500
3480		-19.531250
3481		-23.437500
3482		-19.531250
3483		-21.484375
3484		-19.531250
3485		-21.484375
3486		-17.578125
3487		-21.484375
3488		-17.578125
3489		-19.531250
3490		-15.625000
3491		-19.531250
3492		-15.625000
3493		-17.578125
3494		-15.625000
3495		-17.578125
3496		-13.671875
3497		-17.578125
3498		-11.718750
3499		-15.625000
3500		-11.718750
3501		-15.625000
3502		-11.718750
3503		-13.671875
3504		-11.718750
3505		-13.671875
3506		-9.765625
3507		-13.671875
3508		-9.765625
3509		-11.718750
3510		-7.812500
3511		-11.718750
3512		-7.812500
3513		-9.765625
3514		-7.812500
3515		-9.765625
3516		-5.859375
3517		-7.812500
3518		-5.859375
3519		-9.765625
3520		-3.906250
3521		-7.812500
3522		-3.906250
3523		-7.812500
3524		-1.953125
3525		-5.859375
3526		-1.953125
3527		-3.906250
3528		0.000000
3529		-3.906250
3530		0.000000
3531		-3.906250
3532		0.000000
3533		-1.953125
3534		1.953125
3535		-1.953125
3536		1.953125
3537		0.000000
3538		3.906250
3539		0.000000
3540		3.906250
3541		0.000000
3542		3.906250
3543		1.953125
3544		5.859375
3545		3.906250
3546		5.859375
3547		3.906250
3548		7.812500
3549		3.906250
3550		7.812500
3551		5.859375
3552		9.765625
3553		5.859375
3554		9.765625
3555		7.812500
3556		9.765625
3557		7.812500
3558		11.718750
3559		7.812500
3560		11.718750
3561		9.765625
3562		13.671875
3563		9.765625
3564		13.671875
3565		9.765625
3566		15.625000
3567		11.718750
3568		15.625000
3569		11.718750
3570		15.625000
3571		13.671875
3572		17.578125
3573		13.671875
3574		17.578125
3575		15.625000
3576		19.531250
3577		15.625000
3578		19.531250
3579		15.625000
3580		19.531250
3581		17.578125
3582		19.531250
3583		17.578125
3584		21.484375
3585		17.578125
3586		21.484375
3587		19.531250
3588		21.484375
3589		19.531250
3590		23.437500
3591		19.531250
3592		23.437500
3593		19.531250
3594		23.437500
3595		21.484375
3596		25.390625
3597		21.484375
3598		25.390625
3599		21.484375
3600		25.390625
3601		23.437500
3602		27.343750
3603		23.437500
3604		27.343750
3605		23.437500
3606		27.343750
3607		23.437500
3608		27.343750
3609		25.390625
3610		29.296875
3611		25.390625
3612		29.296875
3613		25.390625
3614		29.296875
3615		25.390625
3616		29.296875
3617		27.343750
3618		29.296875
3619		27.343750
3620		31.250000
3621		27.343750
3622		31.250000
3623		27.343750
3624		31.250000
3625		27.343750
3626		31.250000
3627		27.343750
3628		31.250000
3629		29.296875
3630		31.250000
3631		29.296875
3632		31.250000
3633		29.296875
3634		33.203125
3635		29.296875
3636		33.203125
3637		29.296875
3638		33.203125
3639		29.296875
3640		33.203125
3641		29.296875
3642		33.203125
3643		29.296875
3644		33.203125
3645		29.296875
3646		33.203125
3647		29.296875
3648		33.203125
3649		29.296875
3650		33.203125
3651		29.296875
3652		33.203125
3653		29.296875
3654		33.203125
3655		31.250000
3656		33.203125
3657		29.296875
3658		33.203125
3659		31.250000
3660		33.203125
3661		31.250000
3662		33.203125
3663		29.296875
3664		33.203125
3665		29.296875
3666		33.203125
3667		29.296875
3668		33.203125
3669		29.296875
3670		33.203125
3671		29.296875
3672		33.203125
3673		29.296875
3674		33.203125
3675		27.343750
3676		33.203125
3677		29.296875
3678		33.203125
3679		27.343750
3680		31.250000
3681		29.296875
3682		31.250000
3683		27.343750
3684		31.250000
3685		27.343750
3686		31.250000
3687		27.343750
3688		31.250000
3689		27.343750
3690		29.296875
3691		25.390625
3692		29.296875
3693		25.390625
3694		29.296875
3695		25.390625
3696		29.296875
3697		25.390625
3698		29.296875
3699		25.390625
3700		27.343750
3701		23.437500
3702		27.343750
3703		21.484375
3704		27.343750
3705		23.437500
3706		25.390625
3707		21.484375
3708		25.390625
3709		21.484375
3710		27.343750
3711		21.484375
3712		25.390625
3713		19.531250
3714		23.437500
3715		19.531250
3716		23.437500
3717		19.531250
3718		23.437500
3719		19.531250
3720		23.437500
3721		17.578125
3722		21.484375
3723		17.578125
3724		21.484375
3725		17.578125
3726		19.531250
3727		15.625000
3728		19.531250
3729		15.625000
3730		19.531250
3731		13.671875
3732		17.578125
3733		13.671875
3734		17.578125
3735		13.671875
3736		17.578125
3737		11.718750
3738		15.625000
3739		11.718750
3740		15.625000
3741		9.765625
3742		13.671875
3743		9.765625
3744		13.671875
3745		9.765625
3746		11.718750
3747		7.812500
3748		11.718750
3749		7.812500
3750		11.718750
3751		5.859375
3752		9.765625
3753		5.859375
3754		9.765625
3755		5.859375
3756		7.812500
3757		3.906250
3758		7.812500
3759		1.953125
3760		7.812500
3761		1.953125
3762		5.859375
3763		1.953125
3764		5.859375
3765		0.000000
3766		3.906250
3767		0.000000
3768		3.906250
3769		-1.953125
3770		1.953125
3771		-1.953125
3772		1.953125
3773		-3.906250
3774		0.000000
3775		-3.906250
3776		0.000000
3777		-5.859375
3778		-1.953125
3779		-5.859375
3780		-1.953125
3781		-5.859375
3782		-1.953125
3783		-7.812500
3784		-3.906250
3785		-7.812500
3786		-3.906250
3787		-9.765625
3788		-5.859375
3789		-9.765625
3790		-5.859375
3791		-9.765625
3792		-7.812500
3793		-11.718750
3794		-7.812500
3795		-13.671875
3796		-9.765625
3797		-13.671875
3798		-9.765625
3799		-13.671875
3800		-9.765625
3801		-15.625000
3802		-11.718750
3803		-15.625000
3804		-11.718750
3805		-15.625000
3806		-11.718750
3807		-17.578125
3808		-13.671875
3809		-19.531250
3810		-13.671875
3811		-19.531250
3812		-15.625000
3813		-19.531250
3814		-15.625000
3815		-19.531250
3816		-15.625000
3817		-21.484375
3818		-17.578125
3819		-21.484375
3820		-17.578125
3821		-21.484375
3822		-19.531250
3823		-23.437500
3824		-19.531250
3825		-23.437500
3826		-19.531250
3827		-25.390625
3828		-19.531250
3829		-25.390625
3830		-21.484375
3831		-25.390625
3832		-21.484375
3833		-25.390625
3834		-23.437500
3835		-27.343750
3836		-23.437500
3837		-27.343750
3838		-23.437500
3839		-27.343750
3840		-25.390625
3841		-29.296875
3842		-25.390625
3843		-29.296875
3844		-23.437500
3845		-29.296875
3846		-25.390625
3847		-31.250000
3848		-27.343750
3849		-31.250000
3850		-27.343750
3851		-31.250000
3852		-27.343750
3853		-31.250000
3854		-27.343750
3855		-33.203125
3856		-27.343750
3857		-33.203125
3858		-29.296875
3859		-33.203125
3860		-29.296875
3861		-33.203125
3862		-29.296875
3863		-33.203125
3864		-29.296875
3865		-33.203125
3866		-29.296875
3867		-35.156250
3868		-31.250000
3869		-35.156250
3870		-31.250000
3871		-35.156250
3872		-31.250000
3873		-33.203125
3874		-31.250000
3875		-35.156250
3876		-31.250000
3877		-35.156250
3878		-31.250000
3879		-35.156250
3880		-31.250000
3881		-35.156250
3882		-31.250000
3883		-35.156250
3884		-31.250000
3885		-35.156250
3886		-31.250000
3887		-35.156250
3888		-31.250000
3889		-35.156250
3890		-31.250000
3891		-35.156250
3892		-31.250000
3893		-35.156250
3894		-31.250000
3895		-35.156250
3896		-31.250000
3897		-35.156250
3898		-31.250000
3899		-35.156250
3900		-31.250000
3901		-35.156250
3902		-31.250000
3903		-33.203125
3904		-31.250000
3905		-35.156250
3906		-31.250000
3907		-33.203125
3908		-31.250000
3909		-33.203125
3910		-31.250000
3911		-33.203125
3912		-29.296875
3913		-33.203125
3914		-29.296875
3915		-33.203125
3916		-29.296875
3917		-33.203125
3918		-29.296875
3919		-33.203125
3920		-29.296875
3921		-31.250000
3922		-29.296875
3923		-33.203125
3924		-27.343750
3925		-31.250000
3926		-27.343750
3927		-31.250000
3928		-27.343750
3929		-31.250000
3930		-25.390625
3931		-29.296875
3932		-25.390625
3933		-29.296875
3934		-25.390625
3935		-29.296875
3936		-25.390625
3937		-29.296875
3938		-25.390625
3939		-27.343750
3940		-23.437500
3941		-27.343750
3942		-23.437500
3943		-25.390625
3944		-21.484375
3945		-25.390625
3946		-21.484375
3947		-25.390625
3948		-21.484375
3949		-23.437500
3950		-21.484375
3951		-23.437500
3952		-19.531250
3953		-23.437500
3954		-19.531250
3955		-21.484375
3956		-17.578125
3957		-21.484375
3958		-17.578125
3959		-21.484375
3960		-17.578125
3961		-21.484375
3962		-15.625000
3963		-19.531250
3964		-15.625000
3965		-19.531250
3966		-15.625000
3967		-17.578125
3968		-13.671875
3969		-17.578125
3970		-13.671875
3971		-15.625000
3972		-13.671875
3973		-15.625000
3974		-11.718750
3975		-15.625000
3976		-11.718750
3977		-13.671875
3978		-9.765625
3979		-13.671875
3980		-9.765625
3981		-11.718750
3982		-7.812500
3983		-11.718750
3984		-7.812500
3985		-11.718750
3986		-7.812500
3987		-9.765625
3988		-5.859375
3989		-9.765625
3990		-5.859375
3991		-7.812500
3992		-3.906250
3993		-7.812500
3994		-3.906250
3995		-5.859375
3996		-1.953125
3997		-5.859375
3998		-1.953125
3999		-3.906250
4000		0.000000
4001		-3.906250
4002		0.000000
4003		-1.953125
4004		0.000000
4005		-1.953125
4006		1.953125
4007		-1.953125
4008		3.906250
4009		0.000000
4010		3.906250
4011		0.000000
4012		3.906250
4013		1.953125
4014		5.859375
4015		1.953125
4016		5.859375
4017		3.906250
4018		5.859375
4019		3.906250
4020		7.812500
4021		3.906250
4022		7.812500
4023		5.859375
4024		9.765625
4025		5.859375
4026		9.765625
4027		5.859375
4028		11.718750
4029		7.812500
4030		11.718750
4031		7.812500
4032		11.718750
4033		9.765625
4034		13.671875
4035		9.765625
4036		13.671875
4037		9.765625
4038		15.625000
4039		11.718750
4040		15.625000
4041		11.718750
4042		15.625000
4043		13.671875
4044		17.578125
4045		13.671875
4046		17.578125
4047		15.625000
4048		19.531250
4049		15.625000
4050		19.531250
4051		15.625000
4052		19.531250
4053		17.578125
4054		19.531250
4055		17.578125
4056		21.484375
4057		17.578125
4058		23.437500
4059		19.531250
4060		21.484375
4061		19.531250
4062		23.437500
4063		19.531250
4064		23.437500
4065		21.484375
4066		25.390625
4067		21.484375
4068		25.390625
4069		21.484375
4070		25.390625
4071		21.484375
4072		25.390625
4073		23.437500
4074		27.343750
4075		23.437500
4076		27.343750
4077		23.437500
4078		27.343750
4079		23.437500
4080		27.343750
4081		25.390625
4082		27.343750
4083		25.390625
4084		29.296875
4085		25.390625
4086		29.296875
4087		27.343750
4088		29.296875
4089		27.343750
4090		29.296875
4091		25.390625
4092		31.250000
4093		27.343750
4094		31.250000
4095		27.343750
4096		31.250000
4097		29.296875
4098		31.250000
4099		29.296875
4100		31.250000
4101		29.296875
4102		31.250000
4103		29.296875
4104		33.203125
4105		27.343750
4106		33.203125
4107		29.296875
4108		33.203125
4109		29.296875
4110		33.203125
4111		29.296875
4112		33.203125
4113		29.296875
4114		33.203125
4115		29.296875
4116		33.203125
4117		29.296875
4118		33.203125
4119		29.296875
4120		33.203125
4121		29.296875
4122		33.203125
4123		29.296875
4124		33.203125
4125		29.296875
4126		33.203125
4127		29.296875
4128		33.203125
4129		29.296875
4130		33.203125
4131		29.296875
4132		33.203125
4133		29.296875
4134		33.203125
4135		29.296875
4136		33.203125
4137		29.296875
4138		33.203125
4139		29.296875
4140		33.203125
4141		27.343750
4142		33.203125
4143		29.296875
4144		33.203125
4145		27.343750
4146		31.250000
4147		29.296875
4148		31.250000
4149		27.343750
4150		31.250000
4151		27.343750
4152		31.250000
4153		27.343750
4154		31.250000
4155		27.343750
4156		31.250000
4157		27.343750
4158		31.250000
4159		27.343750
4160		29.296875
4161		25.390625
4162		29.296875
4163		25.390625
4164		29.296875
4165		25.390625
4166		29.296875
4167		25.390625
4168		29.296875
4169		25.390625
4170		27.343750
4171		23.437500
4172		27.343750
4173		23.437500
4174		27.343750
4175		23.437500
4176		25.390625
4177		23.437500
4178		25.390625
4179		21.484375
4180		25.390625
4181		21.484375
4182		23.437500
4183		21.484375
4184		23.437500
4185		19.531250
4186		23.437500
4187		19.531250
4188		23.437500
4189		17.578125
4190		21.484375
4191		17.578125
4192		21.484375
4193		17.578125
4194		19.531250
4195		15.625000
4196		19.531250
4197		15.625000
4198		19.531250
4199		15.625000
4200		19.531250
4201		15.625000
4202		17.578125
4203		13.671875
4204		17.578125
4205		11.718750
4206		17.578125
4207		11.718750
4208		15.625000
4209		11.718750
4210		15.625000
4211		11.718750
4212		13.671875
4213		9.765625
4214		13.671875
4215		7.812500
4216		13.671875
4217		7.812500
4218		11.718750
4219		7.812500
4220		11.718750
4221		5.859375
4222		9.765625
4223		5.859375
4224		9.765625
4225		5.859375
4226		9.765625
4227		3.906250
4228		7.812500
4229		1.953125
4230		7.812500
4231		1.953125
4232		5.859375
4233		1.953125
4234		5.859375
4235		1.953125
4236		3.906250
4237		0.000000
4238		3.906250
4239		0.000000
4240		1.953125
4241		-1.953125
4242		1.953125
4243		-1.953125
4244		0.000000
4245		-3.906250
4246		0.000000
4247		-5.859375
4248		0.000000
4249		-5.859375
4250		-1.953125
4251		-5.859375
4252		-1.953125
4253		-7.812500
4254		-3.906250
4255		-7.812500
4256		-3.906250
4257		-9.765625
4258		-5.859375
4259		-9.765625
4260		-5.859375
4261		-9.765625
4262		-5.859375
4263		-11.718750
4264		-7.812500
4265		-11.718750
4266		-7.812500
4267		-13.671875
4268		-9.765625
4269		-13.671875
4270		-9.765625
4271		-15.625000
4272		-9.765625
4273		-15.625000
4274		-11.718750
4275		-17.578125
4276		-11.718750
4277		-17.578125
4278		-13.671875
4279		-17.578125
4280		-13.671875
4281		-19.531250
4282		-15.625000
4283		-19.531250
4284		-15.625000
4285		-19.531250
4286		-17.578125
4287		-21.484375
4288		-17.578125
4289		-21.484375
4290		-17.578125
4291		-23.437500
4292		-19.531250
4293		-23.437500
4294		-19.531250
4295		-23.437500
4296		-21.484375
4297		-25.390625
4298		-21.484375
4299		-25.390625
4300		-21.484375
4301		-27.343750
4302		-21.484375
4303		-27.343750
4304		-23.437500
4305		-27.343750
4306		-21.484375
4307		-27.343750
4308		-23.437500
4309		-27.343750
4310		-23.437500
4311		-27.343750
4312		-25.390625
4313		-29.296875
4314		-25.390625
4315		-29.296875
4316		-25.390625
4317		-31.250000
4318		-27.343750
4319		-31.250000
4320		-27.343750
4321		-31.250000
4322		-27.343750
4323		-31.250000
4324		-27.343750
4325		-31.250000
4326		-27.343750
4327		-31.250000
4328		-29.296875
4329		-33.203125
4330		-29.296875
4331		-33.203125
4332		-29.296875
4333		-33.203125
4334		-29.296875
4335		-33.203125
4336		-29.296875
4337		-35.156250
4338		-29.296875
4339		-35.156250
4340		-29.296875
4341		-35.156250
4342		-29.296875
4343		-35.156250
4344		-31.250000
4345		-35.156250
4346		-31.250000
4347		-35.156250
4348		-31.250000
4349		-35.156250
4350		-31.250000
4351		-35.156250
4352		-31.250000
4353		-35.156250
4354		-31.250000
4355		-37.109375
4356		-31.250000
4357		-35.156250
4358		-31.250000
4359		-35.156250
4360		-31.250000
4361		-35.156250
4362		-31.250000
4363		-35.156250
4364		-31.250000
4365		-35.156250
4366		-31.250000
4367		-37.109375
4368		-29.296875
4369		-35.156250
4370		-31.250000
4371		-35.156250
4372		-29.296875
4373		-35.156250
4374		-31.250000
4375		-35.156250
4376		-29.296875
4377		-33.203125
4378		-31.250000
4379		-33.203125
4380		-31.250000
4381		-35.156250
4382		-29.296875
4383		-33.203125
4384		-29.296875
4385		-33.203125
4386		-29.296875
4387		-35.156250
4388		-27.343750
4389		-33.203125
4390		-27.343750
4391		-33.203125
4392		-27.343750
4393		-33.203125
4394		-27.343750
4395		-31.250000
4396		-27.343750
4397		-31.250000
4398		-27.343750
4399		-31.250000
4400		-25.390625
4401		-31.250000
4402		-25.390625
4403		-31.250000
4404		-25.390625
4405		-29.296875
4406		-23.437500
4407		-29.296875
4408		-23.437500
4409		-27.343750
4410		-23.437500
4411		-27.343750
4412		-23.437500
4413		-25.390625
4414		-23.437500
4415		-25.390625
4416		-23.437500
4417		-25.390625
4418		-21.484375
4419		-25.390625
4420		-21.484375
4421		-25.390625
4422		-19.531250
4423		-23.437500
4424		-19.531250
4425		-23.437500
4426		-19.531250
4427		-21.484375
4428		-19.531250
4429		-21.484375
4430		-17.578125
4431		-21.484375
4432		-17.578125
4433		-19.531250
4434		-17.578125
4435		-19.531250
4436		-15.625000
4437		-17.578125
4438		-15.625000
4439		-17.578125
4440		-13.671875
4441		-17.578125
4442		-13.671875
4443		-15.625000
4444		-13.671875
4445		-15.625000
4446		-11.718750
4447		-15.625000
4448		-11.718750
4449		-13.671875
4450		-9.765625
4451		-13.671875
4452		-9.765625
4453		-11.718750
4454		-9.765625
4455		-11.718750
4456		-7.812500
4457		-9.765625
4458		-7.812500
4459		-9.765625
4460		-5.859375
4461		-7.812500
4462		-5.859375
4463		-7.812500
4464		-3.906250
4465		-7.812500
4466		-3.906250
4467		-5.859375
4468		-3.906250
4469		-5.859375
4470		-1.953125
4471		-3.906250
4472		-1.953125
4473		-3.906250
4474		0.000000
4475		-1.953125
4476		0.000000
4477		-1.953125
4478		1.953125
4479		-1.953125
4480		1.953125
4481		0.000000
4482		3.906250
4483		0.000000
4484		3.906250
4485		1.953125
4486		3.906250
4487		1.953125
4488		5.859375
4489		3.906250
4490		7.812500
4491		3.906250
4492		7.812500
4493		5.859375
4494		7.812500
4495		5.859375
4496		9.765625
4497		5.859375
4498		9.765625
4499		7.812500
4500		11.718750
4501		7.812500
4502		11.718750
4503		9.765625
4504		13.671875
4505		9.765625
4506		13.671875
4507		11.718750
4508		13.671875
4509		11.718750
4510		15.625000
4511		11.718750
4512		15.625000
4513		13.671875
4514		15.625000
4515		11.718750
4516		19.531250
4517		11.718750
4518		19.531250
4519		11.718750
4520		21.484375
4521		13.671875
4522		19.531250
4523		17.578125
4524		19.531250
4525		17.578125
4526		21.484375
4527		17.578125
4528		21.484375
4529		19.531250
4530		21.484375
4531		19.531250
4532		23.437500
4533		17.578125
4534		25.390625
4535		17.578125
4536		25.390625
4537		17.578125
4538		25.390625
4539		21.484375
4540		25.390625
4541		21.484375
4542		25.390625
4543		23.437500
4544		25.390625
4545		23.437500
4546		27.343750
4547		23.437500
4548		27.343750
4549		21.484375
4550		29.296875
4551		21.484375
4552		31.250000
4553		21.484375
4554		31.250000
4555		25.390625
4556		29.296875
4557		25.390625
4558		29.296875
4559		25.390625
4560		31.250000
4561		27.343750
4562		29.296875
4563		27.343750
4564		29.296875
4565		25.390625
4566		33.203125
4567		25.390625
4568		33.203125
4569		25.390625
4570		35.156250
4571		25.390625
4572		35.156250
4573		29.296875
4574		31.250000
4575		29.296875
4576		31.250000
4577		29.296875
4578		33.203125
4579		29.296875
4580		31.250000
4581		29.296875
4582		33.203125
4583		27.343750
4584		37.109375
4585		27.343750
4586		35.156250
4587		27.343750
4588		35.156250
4589		29.296875
4590		33.203125
4591		29.296875
4592		33.203125
4593		29.296875
4594		33.203125
4595		29.296875
4596		33.203125
4597		29.296875
4598		33.203125
4599		25.390625
4600		37.109375
4601		27.343750
4602		35.156250
4603		27.343750
4604		35.156250
4605		27.343750
4606		35.156250
4607		29.296875
4608		33.203125
4609		29.296875
4610		33.203125
4611		29.296875
4612		33.203125
4613		29.296875
4614		33.203125
4615		29.296875
4616		33.203125
4617		27.343750
4618		35.156250
4619		25.390625
4620		35.156250
4621		25.390625
4622		35.156250
4623		27.343750
4624		31.250000
4625		27.343750
4626		31.250000
4627		27.343750
4628		29.296875
4629		27.343750
4630		29.296875
4631		27.343750
4632		29.296875
4633		23.437500
4634		31.250000
4635		23.437500
4636		31.250000
4637		23.437500
4638		31.250000
4639		25.390625
4640		27.343750
4641		25.390625
4642		27.343750
4643		23.437500
4644		27.343750
4645		23.437500
4646		27.343750
4647		23.437500
4648		25.390625
4649		19.531250
4650		27.343750
4651		19.531250
4652		27.343750
4653		17.578125
4654		27.343750
4655		17.578125
4656		27.343750
4657		19.531250
4658		23.437500
4659		19.531250
4660		23.437500
4661		19.531250
4662		21.484375
4663		17.578125
4664		21.484375
4665		17.578125
4666		21.484375
4667		13.671875
4668		23.437500
4669		13.671875
4670		21.484375
4671		13.671875
4672		21.484375
4673		13.671875
4674		17.578125
4675		13.671875
4676		17.578125
4677		13.671875
4678		15.625000
4679		11.718750
4680		15.625000
4681		11.718750
4682		15.625000
4683		7.812500
4684		15.625000
4685		7.812500
4686		15.625000
4687		5.859375
4688		15.625000
4689		5.859375
4690		13.671875
4691		7.812500
4692		11.718750
4693		5.859375
4694		9.765625
4695		5.859375
4696		9.765625
4697		3.906250
4698		7.812500
4699		3.906250
4700		7.812500
4701		1.953125
4702		5.859375
4703		0.000000
4704		9.765625
4705		0.000000
4706		5.859375
4707		0.000000
4708		3.906250
4709		0.000000
4710		1.953125
4711		-1.953125
4712		1.953125
4713		-1.953125
4714		1.953125
4715		-3.906250
4716		0.000000
4717		-3.906250
4718		0.000000
4719		-5.859375
4720		0.000000
4721		-5.859375
4722		0.000000
4723		-7.812500
4724		-3.906250
4725		-7.812500
4726		-3.906250
4727		-7.812500
4728		-3.906250
4729		-9.765625
4730		-5.859375
4731		-9.765625
4732		-5.859375
4733		-11.718750
4734		-7.812500
4735		-13.671875
4736		-7.812500
4737		-13.671875
4738		-7.812500
4739		-13.671875
4740		-9.765625
4741		-13.671875
4742		-9.765625
4743		-15.625000
4744		-11.718750
4745		-15.625000
4746		-11.718750
4747		-15.625000
4748		-13.671875
4749		-17.578125
4750		-13.671875
4751		-17.578125
4752		-13.671875
4753		-19.531250
4754		-15.625000
4755		-19.531250
4756		-15.625000
4757		-19.531250
4758		-17.578125
4759		-21.484375
4760		-17.578125
4761		-21.484375
4762		-19.531250
4763		-23.437500
4764		-19.531250
4765		-23.437500
4766		-19.531250
4767		-23.437500
4768		-21.484375
4769		-25.390625
4770		-21.484375
4771		-25.390625
4772		-21.484375
4773		-25.390625
4774		-23.437500
4775		-27.343750
4776		-23.437500
4777		-27.343750
4778		-23.437500
4779		-27.343750
4780		-23.437500
4781		-27.343750
4782		-25.390625
4783		-29.296875
4784		-25.390625
4785		-29.296875
4786		-25.390625
4787		-29.296875
4788		-25.390625
4789		-29.296875
4790		-27.343750
4791		-31.250000
4792		-27.343750
4793		-31.250000
4794		-27.343750
4795		-31.250000
4796		-27.343750
4797		-31.250000
4798		-29.296875
4799		-33.203125
4800		-27.343750
4801		-33.203125
4802		-29.296875
4803		-33.203125
4804		-29.296875
4805		-33.203125
4806		-29.296875
4807		-33.203125
4808		-29.296875
4809		-35.156250
4810		-29.296875
4811		-33.203125
4812		-31.250000
4813		-33.203125
4814		-31.250000
4815		-33.203125
4816		-31.250000
4817		-35.156250
4818		-29.296875
4819		-35.156250
4820		-31.250000
4821		-35.156250
4822		-31.250000
4823		-35.156250
4824		-31.250000
4825		-35.156250
4826		-31.250000
4827		-35.156250
4828		-31.250000
4829		-35.156250
4830		-31.250000
4831		-35.156250
4832		-31.250000
4833		-35.156250
4834		-31.250000
4835		-35.156250
4836		-31.250000
4837		-33.203125
4838		-31.250000
4839		-35.156250
4840		-31.250000
4841		-33.203125
4842		-31.250000
4843		-35.156250
4844		-31.250000
4845		-33.203125
4846		-31.250000
4847		-33.203125
4848		-31.250000
4849		-33.203125
4850		-29.296875
4851		-33.203125
4852		-29.296875
4853		-33.203125
4854		-29.296875
4855		-31.250000
4856		-29.296875
4857		-31.250000
4858		-27.343750
4859		-31.250000
4860		-27.343750
4861		-31.250000
4862		-27.343750
4863		-31.250000
4864		-27.343750
4865		-31.250000
4866		-27.343750
4867		-29.296875
4868		-27.343750
4869		-29.296875
4870		-25.390625
4871		-29.296875
4872		-25.390625
4873		-29.296875
4874		-25.390625
4875		-27.343750
4876		-25.390625
4877		-27.343750
4878		-23.437500
4879		-27.343750
4880		-23.437500
4881		-25.390625
4882		-23.437500
4883		-25.390625
4884		-23.437500
4885		-27.343750
4886		-21.484375
4887		-25.390625
4888		-21.484375
4889		-23.437500
4890		-21.484375
4891		-23.437500
4892		-19.531250
4893		-23.437500
4894		-19.531250
4895		-21.484375
4896		-19.531250
4897		-21.484375
4898		-17.578125
4899		-21.484375
4900		-17.578125
4901		-21.484375
4902		-15.625000
4903		-19.531250
4904		-15.625000
4905		-19.531250
4906		-15.625000
4907		-17.578125
4908		-15.625000
4909		-17.578125
4910		-13.671875
4911		-17.578125
4912		-13.671875
4913		-15.625000
4914		-11.718750
4915		-15.625000
4916		-11.718750
4917		-13.671875
4918		-11.718750
4919		-13.671875
4920		-9.765625
4921		-13.671875
4922		-7.812500
4923		-11.718750
4924		-7.812500
4925		-11.718750
4926		-5.859375
4927		-9.765625
4928		-5.859375
4929		-7.812500
4930		-5.859375
4931		-7.812500
4932		-3.906250
4933		-7.812500
4934		-3.906250
4935		-7.812500
4936		0.000000
4937		-5.859375
4938		-1.953125
4939		-3.906250
4940		-1.953125
4941		-3.906250
4942		0.000000
4943		-3.906250
4944		0.000000
4945		-1.953125
4946		1.953125
4947		-1.953125
4948		1.953125
4949		0.000000
4950		1.953125
4951		0.000000
4952		3.906250
4953		0.000000
4954		5.859375
4955		1.953125
4956		5.859375
4957		1.953125
4958		5.859375
4959		3.906250
4960		7.812500
4961		3.906250
4962		7.812500
4963		5.859375
4964		7.812500
4965		5.859375
4966		9.765625
4967		7.812500
4968		9.765625
4969		7.812500
4970		11.718750
4971		9.765625
4972		11.718750
4973		9.765625
4974		11.718750
4975		9.765625
4976		13.671875
4977		9.765625
4978		15.625000
4979		11.718750
4980		15.625000
4981		11.718750
4982		15.625000
4983		13.671875
4984		17.578125
4985		13.671875
4986		17.578125
4987		15.625000
4988		17.578125
4989		15.625000
4990		19.531250
4991		15.625000
4992		19.531250
4993		17.578125
4994		21.484375
4995		17.578125
4996		21.484375
4997		17.578125
4998		21.484375
4999		19.531250
5000		21.484375
5001		19.531250
5002		23.437500
5003		19.531250
5004		23.437500
5005		21.484375
5006		23.437500
5007		21.484375
5008		23.437500
5009		21.484375
5010		25.390625
5011		21.484375
5012		25.390625
5013		23.437500
5014		25.390625
5015		23.437500
5016		27.343750
5017		23.437500
5018		27.343750
5019		25.390625
5020		27.343750
5021		25.390625
5022		27.343750
5023		25.390625
5024		27.343750
5025		25.390625
5026		29.296875
5027		25.390625
5028		29.296875
5029		27.343750
5030		29.296875
5031		27.343750
5032		31.250000
5033		27.343750
5034		31.250000
5035		27.343750
5036		31.250000
5037		29.296875
5038		31.250000
5039		29.296875
5040		31.250000
5041		29.296875
5042		31.250000
5043		29.296875
5044		33.203125
5045		29.296875
5046		33.203125
5047		29.296875
5048		33.203125
5049		29.296875
5050		33.203125
5051		29.296875
5052		33.203125
5053		29.296875
5054		33.203125
5055		29.296875
5056		33.203125
5057		29.296875
5058		33.203125
5059		31.250000
5060		33.203125
5061		31.250000
5062		33.203125
5063		31.250000
5064		33.203125
5065		29.296875
5066		33.203125
5067		31.250000
5068		33.203125
5069		31.250000
5070		33.203125
5071		29.296875
5072		33.203125
5073		31.250000
5074		33.203125
5075		29.296875
5076		33.203125
5077		29.296875
5078		33.203125
5079		29.296875
5080		33.203125
5081		29.296875
5082		33.203125
5083		29.296875
5084		33.203125
5085		29.296875
5086		33.203125
5087		29.296875
5088		31.250000
5089		29.296875
5090		31.250000
5091		29.296875
5092		31.250000
5093		29.296875
5094		31.250000
5095		27.343750
5096		31.250000
5097		27.343750
5098		31.250000
5099		27.343750
5100		31.250000
5101		27.343750
5102		29.296875
5103		25.390625
5104		29.296875
5105		25.390625
5106		29.296875
5107		25.390625
5108		29.296875
5109		25.390625
5110		29.296875
5111		25.390625
5112		27.343750
5113		23.437500
5114		27.343750
5115		23.437500
5116		27.343750
5117		23.437500
5118		27.343750
5119		23.437500
5120		25.390625
5121		21.484375
5122		25.390625
5123		21.484375
5124		25.390625
5125		21.484375
5126		23.437500
5127		19.531250
5128		23.437500
5129		19.531250
5130		23.437500
5131		19.531250
5132		21.484375
5133		17.578125
5134		21.484375
5135		17.578125
5136		21.484375
5137		15.625000
5138		21.484375
5139		15.625000
5140		19.531250
5141		15.625000
5142		19.531250
5143		15.625000
5144		17.578125
5145		13.671875
5146		17.578125
5147		13.671875
5148		17.578125
5149		13.671875
5150		15.625000
5151		11.718750
5152		15.625000
5153		9.765625
5154		15.625000
5155		9.765625
5156		15.625000
5157		9.765625
5158		13.671875
5159		9.765625
5160		11.718750
5161		7.812500
5162		11.718750
5163		7.812500
5164		9.765625
5165		5.859375
5166		9.765625
5167		5.859375
5168		7.812500
5169		3.906250
5170		7.812500
5171		1.953125
5172		9.765625
5173		1.953125
5174		7.812500
5175		1.953125
5176		5.859375
5177		1.953125
5178		3.906250
5179		0.000000
5180		3.906250
5181		0.000000
5182		1.953125
5183		-1.953125
5184		1.953125
5185		-1.953125
5186		0.000000
5187		-3.906250
5188		1.953125
5189		-5.859375
5190		0.000000
5191		-5.859375
5192		-1.953125
5193		-5.859375
5194		-1.953125
5195		-5.859375
5196		-3.906250
5197		-7.812500
5198		-3.906250
5199		-7.812500
5200		-5.859375
5201		-9.765625
5202		-5.859375
5203		-9.765625
5204		-5.859375
5205		-11.718750
5206		-5.859375
5207		-13.671875
5208		-7.812500
5209		-11.718750
5210		-9.765625
5211		-13.671875
5212		-9.765625
5213		-13.671875
5214		-11.718750
5215		-15.625000
5216		-11.718750
5217		-15.625000
5218		-13.671875
5219		-15.625000
5220		-13.671875
5221		-19.531250
5222		-11.718750
5223		-19.531250
5224		-13.671875
5225		-19.531250
5226		-15.625000
5227		-19.531250
5228		-15.625000
5229		-21.484375
5230		-17.578125
5231		-21.484375
5232		-17.578125
5233		-21.484375
5234		-17.578125
5235		-23.437500
5236		-19.531250
5237		-23.437500
5238		-19.531250
5239		-25.390625
5240		-19.531250
5241		-25.390625
5242		-21.484375
5243		-25.390625
5244		-21.484375
5245		-25.390625
5246		-23.437500
5247		-25.390625
5248		-23.437500
5249		-27.343750
5250		-23.437500
5251		-27.343750
5252		-25.390625
5253		-27.343750
5254		-25.390625
5255		-29.296875
5256		-25.390625
5257		-29.296875
5258		-25.390625
5259		-29.296875
5260		-27.343750
5261		-29.296875
5262		-27.343750
5263		-29.296875
5264		-27.343750
5265		-31.250000
5266		-27.343750
5267		-31.250000
5268		-27.343750
5269		-31.250000
5270		-29.296875
5271		-33.203125
5272		-27.343750
5273		-33.203125
5274		-27.343750
5275		-33.203125
5276		-29.296875
5277		-33.203125
5278		-29.296875
5279		-33.203125
5280		-29.296875
5281		-33.203125
5282		-31.250000
5283		-33.203125
5284		-31.250000
5285		-33.203125
5286		-31.250000
5287		-33.203125
5288		-31.250000
5289		-35.156250
5290		-29.296875
5291		-35.156250
5292		-29.296875
5293		-35.156250
5294		-31.250000
5295		-33.203125
5296		-31.250000
5297		-33.203125
5298		-31.250000
5299		-33.203125
5300		-31.250000
5301		-33.203125
5302		-31.250000
5303		-35.156250
5304		-31.250000
5305		-35.156250
5306		-29.296875
5307		-35.156250
5308		-29.296875
5309		-33.203125
5310		-31.250000
5311		-33.203125
5312		-31.250000
5313		-33.203125
5314		-31.250000
5315		-33.203125
5316		-31.250000
5317		-33.203125
5318		-29.296875
5319		-33.203125
5320		-31.250000
5321		-33.203125
5322		-29.296875
5323		-33.203125
5324		-29.296875
5325		-33.203125
5326		-29.296875
5327		-31.250000
5328		-29.296875
5329		-31.250000
5330		-29.296875
5331		-31.250000
5332		-29.296875
5333		-31.250000
5334		-29.296875
5335		-31.250000
5336		-27.343750
5337		-31.250000
5338		-27.343750
5339		-29.296875
5340		-25.390625
5341		-29.296875
5342		-25.390625
5343		-29.296875
5344		-25.390625
5345		-29.296875
5346		-25.390625
5347		-27.343750
5348		-25.390625
5349		-27.343750
5350		-23.437500
5351		-27.343750
5352		-23.437500
5353		-25.390625
5354		-23.437500
5355		-27.343750
5356		-21.484375
5357		-25.390625
5358		-21.484375
5359		-23.437500
5360		-21.484375
5361		-23.437500
5362		-21.484375
5363		-23.437500
5364		-19.531250
5365		-23.437500
5366		-19.531250
5367		-21.484375
5368		-19.531250
5369		-21.484375
5370		-17.578125
5371		-19.531250
5372		-17.578125
5373		-19.531250
5374		-17.578125
5375		-19.531250
5376		-15.625000
5377		-17.578125
5378		-15.625000
5379		-17.578125
5380		-13.671875
5381		-17.578125
5382		-13.671875
5383		-15.625000
5384		-13.671875
5385		-15.625000
5386		-11.718750
5387		-13.671875
5388		-11.718750
5389		-13.671875
5390		-9.765625
5391		-13.671875
5392		-9.765625
5393		-11.718750
5394		-9.765625
5395		-11.718750
5396		-7.812500
5397		-9.765625
5398		-7.812500
5399		-9.765625
5400		-5.859375
5401		-9.765625
5402		-5.859375
5403		-7.812500
5404		-3.906250
5405		-5.859375
5406		-3.906250
5407		-5.859375
5408		-1.953125
5409		-5.859375
5410		-1.953125
5411		-3.906250
5412		-1.953125
5413		-3.906250
5414		0.000000
5415		-1.953125
5416		0.000000
5417		-1.953125
5418		1.953125
5419		0.000000
5420		1.953125
5421		0.000000
5422		3.906250
5423		0.000000
5424		3.906250
5425		1.953125
5426		3.906250
5427		1.953125
5428		5.859375
5429		3.906250
5430		5.859375
5431		3.906250
5432		7.812500
5433		5.859375
5434		7.812500
5435		5.859375
5436		9.765625
5437		5.859375
5438		9.765625
5439		7.812500
5440		9.765625
5441		7.812500
5442		11.718750
5443		9.765625
5444		13.671875
5445		9.765625
5446		13.671875
5447		11.718750
5448		13.671875
5449		11.718750
5450		15.625000
5451		11.718750
5452		15.625000
5453		13.671875
5454		15.625000
5455		13.671875
5456		17.578125
5457		13.671875
5458		17.578125
5459		15.625000
5460		17.578125
5461		15.625000
5462		19.531250
5463		15.625000
5464		19.531250
5465		17.578125
5466		21.484375
5467		17.578125
5468		21.484375
5469		17.578125
5470		21.484375
5471		19.531250
5472		21.484375
5473		19.531250
5474		23.437500
5475		21.484375
5476		23.437500
5477		21.484375
5478		23.437500
5479		21.484375
5480		25.390625
5481		21.484375
5482		25.390625
5483		23.437500
5484		25.390625
5485		23.437500
5486		25.390625
5487		23.437500
5488		27.343750
5489		25.390625
5490		27.343750
5491		25.390625
5492		27.343750
5493		25.390625
5494		29.296875
5495		25.390625
5496		29.296875
5497		25.390625
5498		29.296875
5499		27.343750
5500		29.296875
5501		27.343750
5502		31.250000
5503		27.343750
5504		29.296875
5505		27.343750
5506		31.250000
5507		27.343750
5508		31.250000
5509		27.343750
5510		31.250000
5511		29.296875
5512		31.250000
5513		29.296875
5514		33.203125
5515		29.296875
5516		33.203125
5517		29.296875
5518		33.203125
5519		29.296875
5520		33.203125
5521		29.296875
5522		33.203125
5523		29.296875
5524		33.203125
5525		29.296875
5526		33.203125
5527		31.250000
5528		33.203125
5529		31.250000
5530		33.203125
5531		31.250000
5532		33.203125
5533		31.250000
5534		33.203125
5535		31.250000
5536		33.203125
5537		31.250000
5538		33.203125
5539		31.250000
5540		33.203125
5541		31.250000
5542		33.203125
5543		31.250000
5544		33.203125
5545		31.250000
5546		33.203125
5547		31.250000
5548		33.203125
5549		29.296875
5550		33.203125
5551		29.296875
5552		33.203125
5553		29.296875
5554		33.203125
5555		29.296875
5556		33.203125
5557		29.296875
5558		33.203125
5559		29.296875
5560		33.203125
5561		29.296875
5562		33.203125
5563		29.296875
5564		31.250000
5565		29.296875
5566		31.250000
5567		27.343750
5568		31.250000
5569		27.343750
5570		31.250000
5571		27.343750
5572		31.250000
5573		27.343750
5574		31.250000
5575		27.343750
5576		29.296875
5577		25.390625
5578		29.296875
5579		25.390625
5580		29.296875
5581		25.390625
5582		27.343750
5583		25.390625
5584		27.343750
5585		25.390625
5586		27.343750
5587		23.437500
5588		27.343750
5589		23.437500
5590		27.343750
5591		23.437500
5592		25.390625
5593		21.484375
5594		25.390625
5595		21.484375
5596		25.390625
5597		21.484375
5598		23.437500
5599		19.531250
5600		23.437500
5601		19.531250
5602		23.437500
5603		19.531250
5604		21.484375
5605		17.578125
5606		21.484375
5607		17.578125
5608		21.484375
5609		17.578125
5610		21.484375
5611		15.625000
5612		19.531250
5613		15.625000
5614		19.531250
5615		15.625000
5616		17.578125
5617		13.671875
5618		17.578125
5619		13.671875
5620		17.578125
5621		11.718750
5622		15.625000
5623		11.718750
5624		15.625000
5625		11.718750
5626		13.671875
5627		9.765625
5628		13.671875
5629		9.765625
5630		13.671875
5631		7.812500
5632		11.718750
5633		7.812500
5634		11.718750
5635		7.812500
5636		9.765625
5637		5.859375
5638		9.765625
5639		5.859375
5640		7.812500
5641		3.906250
5642		7.812500
5643		3.906250
5644		7.812500
5645		1.953125
5646		5.859375
5647		1.953125
5648		5.859375
5649		1.953125
5650		3.906250
5651		0.000000
5652		3.906250
5653		0.000000
5654		1.953125
5655		-1.953125
5656		1.953125
5657		-1.953125
5658		1.953125
5659		-3.906250
5660		0.000000
5661		-3.906250
5662		-1.953125
5663		-3.906250
5664		-1.953125
5665		-5.859375
5666		-1.953125
5667		-5.859375
5668		-3.906250
5669		-7.812500
5670		-3.906250
5671		-9.765625
5672		-5.859375
5673		-9.765625
5674		-5.859375
5675		-9.765625
5676		-7.812500
5677		-11.718750
5678		-7.812500
5679		-11.718750
5680		-9.765625
5681		-11.718750
5682		-9.765625
5683		-13.671875
5684		-9.765625
5685		-15.625000
5686		-11.718750
5687		-15.625000
5688		-11.718750
5689		-15.625000
5690		-11.718750
5691		-17.578125
5692		-13.671875
5693		-17.578125
5694		-13.671875
5695		-17.578125
5696		-15.625000
5697		-19.531250
5698		-15.625000
5699		-19.531250
5700		-15.625000
5701		-21.484375
5702		-17.578125
5703		-21.484375
5704		-17.578125
5705		-21.484375
5706		-19.531250
5707		-21.484375
5708		-19.531250
5709		-23.437500
5710		-19.531250
5711		-23.437500
5712		-19.531250
5713		-25.390625
5714		-21.484375
5715		-25.390625
5716		-21.484375
5717		-25.390625
5718		-23.437500
5719		-25.390625
5720		-23.437500
5721		-27.343750
5722		-23.437500
5723		-27.343750
5724		-23.437500
5725		-27.343750
5726		-25.390625
5727		-29.296875
5728		-25.390625
5729		-29.296875
5730		-25.390625
5731		-29.296875
5732		-25.390625
5733		-29.296875
5734		-27.343750
5735		-29.296875
5736		-27.343750
5737		-31.250000
5738		-27.343750
5739		-31.250000
5740		-27.343750
5741		-31.250000
5742		-27.343750
5743		-31.250000
5744		-29.296875
5745		-31.250000
5746		-29.296875
5747		-33.203125
5748		-29.296875
5749		-33.203125
5750		-29.296875
5751		-33.203125
5752		-29.296875
5753		-33.203125
5754		-29.296875
5755		-33.203125
5756		-29.296875
5757		-33.203125
5758		-31.250000
5759		-33.203125
5760		-31.250000
5761		-33.203125
5762		-31.250000
5763		-33.203125
5764		-31.250000
5765		-33.203125
5766		-31.250000
5767		-33.203125
5768		-31.250000
5769		-33.203125
5770		-31.250000
5771		-33.203125
5772		-31.250000
5773		-33.203125
5774		-31.250000
5775		-33.203125
5776		-31.250000
5777		-33.203125
5778		-31.250000
5779		-33.203125
5780		-31.250000
5781		-33.203125
5782		-31.250000
5783		-33.203125
5784		-31.250000
5785		-33.203125
5786		-31.250000
5787		-33.203125
5788		-29.296875
5789		-33.203125
5790		-29.296875
5791		-33.203125
5792		-29.296875
5793		-33.203125
5794		-29.296875
5795		-31.250000
5796		-29.296875
5797		-31.250000
5798		-29.296875
5799		-31.250000
5800		-27.343750
5801		-31.250000
5802		-27.343750
5803		-31.250000
5804		-27.343750
5805		-31.250000
5806		-27.343750
5807		-29.296875
5808		-27.343750
5809		-29.296875
5810		-27.343750
5811		-29.296875
5812		-25.390625
5813		-29.296875
5814		-25.390625
5815		-27.343750
5816		-25.390625
5817		-27.343750
5818		-25.390625
5819		-27.343750
5820		-23.437500
5821		-27.343750
5822		-23.437500
5823		-25.390625
5824		-23.437500
5825		-25.390625
5826		-21.484375
5827		-25.390625
5828		-21.484375
5829		-23.437500
5830		-21.484375
5831		-23.437500
5832		-19.531250
5833		-23.437500
5834		-19.531250
5835		-21.484375
5836		-19.531250
5837		-21.484375
5838		-19.531250
5839		-21.484375
5840		-17.578125
5841		-19.531250
5842		-17.578125
5843		-19.531250
5844		-15.625000
5845		-19.531250
5846		-15.625000
5847		-17.578125
5848		-15.625000
5849		-17.578125
5850		-13.671875
5851		-17.578125
5852		-13.671875
5853		-15.625000
5854		-13.671875
5855		-15.625000
5856		-11.718750
5857		-13.671875
5858		-11.718750
5859		-13.671875
5860		-9.765625
5861		-13.671875
5862		-9.765625
5863		-11.718750
5864		-9.765625
5865		-11.718750
5866		-7.812500
5867		-9.765625
5868		-7.812500
5869		-9.765625
5870		-5.859375
5871		-9.765625
5872		-5.859375
5873		-7.812500
5874		-3.906250
5875		-7.812500
5876		-3.906250
5877		-5.859375
5878		-1.953125
5879		-5.859375
5880		-1.953125
5881		-3.906250
5882		-1.953125
5883		-3.906250
5884		0.000000
5885		-1.953125
5886		0.000000
5887		-1.953125
5888		1.953125
5889		0.000000
5890		1.953125
5891		0.000000
5892		3.906250
5893		0.000000
5894		3.906250
5895		1.953125
5896		3.906250
5897		1.953125
5898		5.859375
5899		3.906250
5900		5.859375
5901		3.906250
5902		7.812500
5903		5.859375
5904		7.812500
5905		5.859375
5906		9.765625
5907		5.859375
5908		9.765625
5909		7.812500
5910		9.765625
5911		7.812500
5912		11.718750
5913		9.765625
5914		11.718750
5915		9.765625
5916		13.671875
5917		9.765625
5918		13.671875
5919		11.718750
5920		13.671875
5921		11.718750
5922		15.625000
5923		13.671875
5924		15.625000
5925		13.671875
5926		17.578125
5927		13.671875
5928		17.578125
5929		15.625000
5930		17.578125
5931		15.625000
5932		19.531250
5933		17.578125
5934		19.531250
5935		17.578125
5936		21.484375
5937		17.578125
5938		21.484375
5939		19.531250
5940		21.484375
5941		19.531250
5942		23.437500
5943		19.531250
5944		23.437500
5945		21.484375
5946		23.437500
5947		21.484375
5948		23.437500
5949		21.484375
5950		25.390625
5951		21.484375
5952		25.390625
5953		23.437500
5954		25.390625
5955		23.437500
5956		27.343750
5957		23.437500
5958		27.343750
5959		25.390625
5960		27.343750
5961		25.390625
5962		27.343750
5963		25.390625
5964		29.296875
5965		25.390625
5966		29.296875
5967		27.343750
5968		29.296875
5969		27.343750
5970		29.296875
5971		27.343750
5972		29.296875
5973		27.343750
5974		31.250000
5975		27.343750
5976		31.250000
5977		29.296875
5978		31.250000
5979		29.296875
5980		31.250000
5981		29.296875
5982		31.250000
5983		29.296875
5984		31.250000
5985		29.296875
5986		33.203125
5987		29.296875
5988		33.203125
5989		31.250000
5990		33.203125
5991		29.296875
5992		33.203125
5993		31.250000
5994		33.203125
5995		31.250000
5996		33.203125
5997		31.250000
5998		33.203125
5999		31.250000
6000		33.203125
6001		31.250000
6002		33.203125
6003		31.250000
6004		33.203125
6005		31.250000
6006		33.203125
6007		31.250000
6008		33.203125
6009		31.250000
6010		35.156250
6011		31.250000
6012		35.156250
6013		31.250000
6014		33.203125
6015		31.250000
6016		33.203125
6017		31.250000
6018		33.203125
6019		31.250000
6020		33.203125
6021		31.250000
6022		33.203125
6023		31.250000
6024		33.203125
6025		31.250000
6026		33.203125
6027		29.296875
6028		33.203125
6029		29.296875
6030		33.203125
6031		29.296875
6032		33.203125
6033		29.296875
6034		33.203125
6035		29.296875
6036		31.250000
6037		29.296875
6038		31.250000
6039		29.296875
6040		31.250000
6041		27.343750
6042		31.250000
6043		27.343750
6044		31.250000
6045		27.343750
6046		31.250000
6047		27.343750
6048		31.250000
6049		27.343750
6050		29.296875
6051		25.390625
6052		29.296875
6053		25.390625
6054		29.296875
6055		25.390625
6056		27.343750
6057		25.390625
6058		27.343750
6059		25.390625
6060		27.343750
6061		23.437500
6062		27.343750
6063		23.437500
6064		27.343750
6065		23.437500
6066		25.390625
6067		21.484375
6068		25.390625
6069		21.484375
6070		25.390625
6071		21.484375
6072		23.437500
6073		19.531250
6074		23.437500
6075		19.531250
6076		21.484375
6077		19.531250
6078		21.484375
6079		17.578125
6080		21.484375
6081		17.578125
6082		21.484375
6083		17.578125
6084		19.531250
6085		15.625000
6086		19.531250
6087		15.625000
6088		17.578125
6089		15.625000
6090		17.578125
6091		13.671875
6092		17.578125
6093		13.671875
6094		15.625000
6095		11.718750
6096		15.625000
6097		11.718750
6098		13.671875
6099		9.765625
6100		13.671875
6101		9.765625
6102		13.671875
6103		9.765625
6104		11.718750
6105		7.812500
6106		11.718750
6107		7.812500
6108		9.765625
6109		5.859375
6110		9.765625
6111		5.859375
6112		7.812500
6113		3.906250
6114		7.812500
6115		3.906250
6116		7.812500
6117		3.906250
6118		5.859375
6119		1.953125
6120		5.859375
6121		1.953125
6122		3.906250
6123		0.000000
6124		3.906250
6125		0.000000
6126		1.953125
6127		-1.953125
6128		1.953125
6129		-1.953125
6130		1.953125
6131		-3.906250
6132		0.000000
6133		-3.906250
6134		0.000000
6135		-5.859375
6136		-1.953125
6137		-5.859375
6138		-1.953125
6139		-5.859375
6140		-3.906250
6141		-7.812500
6142		-3.906250
6143		-7.812500
6144		-3.906250
6145		-9.765625
6146		-5.859375
6147		-9.765625
6148		-5.859375
6149		-9.765625
6150		-7.812500
6151		-11.718750
6152		-7.812500
6153		-11.718750
6154		-9.765625
6155		-13.671875
6156		-9.765625
6157		-13.671875
6158		-11.718750
6159		-15.625000
6160		-11.718750
6161		-15.625000
6162		-11.718750
6163		-15.625000
6164		-13.671875
6165		-17.578125
6166		-13.671875
6167		-19.531250
6168		-11.718750
6169		-19.531250
6170		-15.625000
6171		-19.531250
6172		-15.625000
6173		-19.531250
6174		-17.578125
6175		-21.484375
6176		-17.578125
6177		-21.484375
6178		-19.531250
6179		-23.437500
6180		-19.531250
6181		-23.437500
6182		-19.531250
6183		-25.390625
6184		-19.531250
6185		-23.437500
6186		-21.484375
6187		-25.390625
6188		-19.531250
6189		-25.390625
6190		-23.437500
6191		-27.343750
6192		-21.484375
6193		-27.343750
6194		-23.437500
6195		-27.343750
6196		-23.437500
6197		-27.343750
6198		-23.437500
6199		-27.343750
6200		-25.390625
6201		-29.296875
6202		-25.390625
6203		-29.296875
6204		-25.390625
6205		-31.250000
6206		-25.390625
6207		-29.296875
6208		-27.343750
6209		-33.203125
6210		-23.437500
6211		-31.250000
6212		-27.343750
6213		-31.250000
6214		-27.343750
6215		-33.203125
6216		-27.343750
6217		-33.203125
6218		-27.343750
6219		-33.203125
6220		-29.296875
6221		-33.203125
6222		-27.343750
6223		-31.250000
6224		-29.296875
6225		-33.203125
6226		-27.343750
6227		-33.203125
6228		-29.296875
6229		-33.203125
6230		-29.296875
6231		-35.156250
6232		-29.296875
6233		-35.156250
6234		-27.343750
6235		-35.156250
6236		-29.296875
6237		-33.203125
6238		-29.296875
6239		-33.203125
6240		-29.296875
6241		-35.156250
6242		-29.296875
6243		-33.203125
6244		-31.250000
6245		-33.203125
6246		-29.296875
6247		-35.156250
6248		-29.296875
6249		-35.156250
6250		-27.343750
6251		-33.203125
6252		-29.296875
6253		-33.203125
6254		-29.296875
6255		-37.109375
6256		-27.343750
6257		-35.156250
6258		-27.343750
6259		-35.156250
6260		-27.343750
6261		-31.250000
6262		-29.296875
6263		-33.203125
6264		-29.296875
6265		-33.203125
6266		-25.390625
6267		-33.203125
6268		-27.343750
6269		-31.250000
6270		-27.343750
6271		-31.250000
6272		-25.390625
6273		-33.203125
6274		-23.437500
6275		-33.203125
6276		-25.390625
6277		-29.296875
6278		-25.390625
6279		-29.296875
6280		-25.390625
6281		-29.296875
6282		-23.437500
6283		-31.250000
6284		-23.437500
6285		-29.296875
6286		-23.437500
6287		-27.343750
6288		-23.437500
6289		-29.296875
6290		-21.484375
6291		-25.390625
6292		-23.437500
6293		-29.296875
6294		-21.484375
6295		-25.390625
6296		-21.484375
6297		-25.390625
6298		-21.484375
6299		-25.390625
6300		-17.578125
6301		-25.390625
6302		-19.531250
6303		-23.437500
6304		-19.531250
6305		-23.437500
6306		-15.625000
6307		-23.437500
6308		-15.625000
6309		-23.437500
6310		-15.625000
6311		-19.531250
6312		-17.578125
6313		-19.531250
6314		-15.625000
6315		-21.484375
6316		-13.671875
6317		-21.484375
6318		-11.718750
6319		-17.578125
6320		-13.671875
6321		-15.625000
6322		-13.671875
6323		-17.578125
6324		-9.765625
6325		-17.578125
6326		-7.812500
6327		-13.671875
6328		-11.718750
6329		-13.671875
6330		-9.765625
6331		-13.671875
6332		-7.812500
6333		-13.671875
6334		-5.859375
6335		-11.718750
6336		-7.812500
6337		-9.765625
6338		-5.859375
6339		-11.718750
6340		-1.953125
6341		-9.765625
6342		-1.953125
6343		-9.765625
6344		-3.906250
6345		-5.859375
6346		-3.906250
6347		-5.859375
6348		0.000000
6349		-5.859375
6350		1.953125
6351		-5.859375
6352		1.953125
6353		-3.906250
6354		0.000000
6355		-1.953125
6356		3.906250
6357		-3.906250
6358		3.906250
6359		-3.906250
6360		5.859375
6361		0.000000
6362		3.906250
6363		0.000000
6364		3.906250
6365		0.000000
6366		5.859375
6367		0.000000
6368		7.812500
6369		1.953125
6370		7.812500
6371		3.906250
6372		7.812500
6373		1.953125
6374		11.718750
6375		3.906250
6376		9.765625
6377		3.906250
6378		11.718750
6379		7.812500
6380		9.765625
6381		7.812500
6382		13.671875
6383		7.812500
6384		15.625000
6385		9.765625
6386		15.625000
6387		9.765625
6388		13.671875
6389		9.765625
6390		15.625000
6391		9.765625
6392		17.578125
6393		11.718750
6394		17.578125
6395		13.671875
6396		17.578125
6397		15.625000
6398		17.578125
6399		13.671875
6400		19.531250
6401		13.671875
6402		21.484375
6403		17.578125
6404		19.531250
6405		17.578125
6406		21.484375
6407		15.625000
6408		23.437500
6409		17.578125
6410		23.437500
6411		19.531250
6412		23.437500
6413		19.531250
6414		23.437500
6415		21.484375
6416		25.390625
6417		21.484375
6418		25.390625
6419		21.484375
6420		27.343750
6421		23.437500
6422		25.390625
6423		21.484375
6424		29.296875
6425		21.484375
6426		29.296875
6427		21.484375
6428		29.296875
6429		25.390625
6430		27.343750
6431		25.390625
6432		29.296875
6433		23.437500
6434		29.296875
6435		23.437500
6436		31.250000
6437		25.390625
6438		29.296875
6439		27.343750
6440		31.250000
6441		25.390625
6442		31.250000
6443		25.390625
6444		33.203125
6445		29.296875
6446		31.250000
6447		29.296875
6448		31.250000
6449		29.296875
6450		31.250000
6451		27.343750
6452		35.156250
6453		27.343750
6454		33.203125
6455		29.296875
6456		33.203125
6457		29.296875
6458		35.156250
6459		31.250000
6460		33.203125
6461		29.296875
6462		33.203125
6463		31.250000
6464		33.203125
6465		31.250000
6466		33.203125
6467		31.250000
6468		33.203125
6469		29.296875
6470		35.156250
6471		31.250000
6472		35.156250
6473		31.250000
6474		35.156250
6475		31.250000
6476		35.156250
6477		31.250000
6478		35.156250
6479		31.250000
6480		35.156250
6481		31.250000
6482		35.156250
6483		31.250000
6484		35.156250
6485		31.250000
6486		35.156250
6487		31.250000
6488		35.156250
6489		31.250000
6490		35.156250
6491		31.250000
6492		33.203125
6493		31.250000
6494		33.203125
6495		31.250000
6496		35.156250
6497		31.250000
6498		33.203125
6499		31.250000
6500		33.203125
6501		29.296875
6502		33.203125
6503		29.296875
6504		33.203125
6505		29.296875
6506		33.203125
6507		29.296875
6508		33.203125
6509		29.296875
6510		33.203125
6511		29.296875
6512		31.250000
6513		27.343750
6514		31.250000
6515		27.343750
6516		31.250000
6517		27.343750
6518		31.250000
6519		27.343750
6520		31.250000
6521		25.390625
6522		31.250000
6523		25.390625
6524		31.250000
6525		25.390625
6526		29.296875
6527		25.390625
6528		29.296875
6529		25.390625
6530		29.296875
6531		23.437500
6532		27.343750
6533		23.437500
6534		27.343750
6535		23.437500
6536		27.343750
6537		21.484375
6538		27.343750
6539		19.531250
6540		27.343750
6541		21.484375
6542		25.390625
6543		19.531250
6544		25.390625
6545		19.531250
6546		23.437500
6547		19.531250
6548		23.437500
6549		17.578125
6550		21.484375
6551		17.578125
6552		21.484375
6553		17.578125
6554		21.484375
6555		15.625000
6556		21.484375
6557		15.625000
6558		19.531250
6559		15.625000
6560		19.531250
6561		13.671875
6562		19.531250
6563		13.671875
6564		17.578125
6565		13.671875
6566		15.625000
6567		11.718750
6568		15.625000
6569		9.765625
6570		15.625000
6571		9.765625
6572		15.625000
6573		9.765625
6574		13.671875
6575		7.812500
6576		13.671875
6577		7.812500
6578		11.718750
6579		7.812500
6580		11.718750
6581		5.859375
6582		9.765625
6583		5.859375
6584		7.812500
6585		3.906250
6586		7.812500
6587		1.953125
6588		7.812500
6589		1.953125
6590		7.812500
6591		1.953125
6592		5.859375
6593		1.953125
6594		5.859375
6595		0.000000
6596		3.906250
6597		0.000000
6598		1.953125
6599		-1.953125
6600		1.953125
6601		-3.906250
6602		1.953125
6603		-3.906250
6604		1.953125
6605		-5.859375
6606		0.000000
6607		-5.859375
6608		-1.953125
6609		-5.859375
6610		-1.953125
6611		-5.859375
6612		-3.906250
6613		-7.812500
6614		-3.906250
6615		-7.812500
6616		-3.906250
6617		-9.765625
6618		-5.859375
6619		-9.765625
6620		-5.859375
6621		-11.718750
6622		-7.812500
6623		-13.671875
6624		-5.859375
6625		-11.718750
6626		-7.812500
6627		-13.671875
6628		-9.765625
6629		-15.625000
6630		-9.765625
6631		-13.671875
6632		-11.718750
6633		-15.625000
6634		-11.718750
6635		-15.625000
6636		-13.671875
6637		-17.578125
6638		-13.671875
6639		-19.531250
6640		-13.671875
6641		-17.578125
6642		-15.625000
6643		-19.531250
6644		-15.625000
6645		-19.531250
6646		-15.625000
6647		-19.531250
6648		-17.578125
6649		-21.484375
6650		-17.578125
6651		-21.484375
6652		-17.578125
6653		-23.437500
6654		-19.531250
6655		-23.437500
6656		-19.531250
6657		-25.390625
6658		-19.531250
6659		-25.390625
6660		-21.484375
6661		-25.390625
6662		-21.484375
6663		-25.390625
6664		-21.484375
6665		-25.390625
6666		-23.437500
6667		-27.343750
6668		-23.437500
6669		-27.343750
6670		-23.437500
6671		-27.343750
6672		-25.390625
6673		-29.296875
6674		-23.437500
6675		-29.296875
6676		-25.390625
6677		-29.296875
6678		-25.390625
6679		-29.296875
6680		-25.390625
6681		-29.296875
6682		-25.390625
6683		-31.250000
6684		-27.343750
6685		-31.250000
6686		-27.343750
6687		-31.250000
6688		-27.343750
6689		-33.203125
6690		-27.343750
6691		-33.203125
6692		-27.343750
6693		-31.250000
6694		-27.343750
6695		-31.250000
6696		-27.343750
6697		-31.250000
6698		-29.296875
6699		-31.250000
6700		-29.296875
6701		-33.203125
6702		-29.296875
6703		-33.203125
6704		-29.296875
6705		-33.203125
6706		-29.296875
6707		-33.203125
6708		-29.296875
6709		-33.203125
6710		-29.296875
6711		-33.203125
6712		-29.296875
6713		-33.203125
6714		-29.296875
6715		-33.203125
6716		-29.296875
6717		-33.203125
6718		-29.296875
6719		-33.203125
6720		-29.296875
6721		-33.203125
6722		-29.296875
6723		-33.203125
6724		-27.343750
6725		-33.203125
6726		-29.296875
6727		-33.203125
6728		-29.296875
6729		-31.250000
6730		-27.343750
6731		-31.250000
6732		-29.296875
6733		-31.250000
6734		-29.296875
6735		-31.250000
6736		-27.343750
6737		-31.250000
6738		-27.343750
6739		-31.250000
6740		-27.343750
6741		-31.250000
6742		-27.343750
6743		-29.296875
6744		-27.343750
6745		-29.296875
6746		-27.343750
6747		-29.296875
6748		-25.390625
6749		-29.296875
6750		-25.390625
6751		-29.296875
6752		-25.390625
6753		-27.343750
6754		-25.390625
6755		-27.343750
6756		-23.437500
6757		-27.343750
6758		-23.437500
6759		-27.343750
6760		-23.437500
6761		-25.390625
6762		-23.437500
6763		-25.390625
6764		-21.484375
6765		-25.390625
6766		-21.484375
6767		-23.437500
6768		-21.484375
6769		-23.437500
6770		-19.531250
6771		-23.437500
6772		-19.531250
6773		-23.437500
6774		-19.531250
6775		-21.484375
6776		-17.578125
6777		-21.484375
6778		-17.578125
6779		-21.484375
6780		-17.578125
6781		-19.531250
6782		-17.578125
6783		-19.531250
6784		-15.625000
6785		-19.531250
6786		-15.625000
6787		-17.578125
6788		-13.671875
6789		-17.578125
6790		-13.671875
6791		-17.578125
6792		-13.671875
6793		-15.625000
6794		-11.718750
6795		-13.671875
6796		-11.718750
6797		-15.625000
6798		-9.765625
6799		-13.671875
6800		-9.765625
6801		-11.718750
6802		-9.765625
6803		-11.718750
6804		-7.812500
6805		-11.718750
6806		-7.812500
6807		-9.765625
6808		-5.859375
6809		-9.765625
6810		-5.859375
6811		-7.812500
6812		-5.859375
6813		-7.812500
6814		-3.906250
6815		-5.859375
6816		-3.906250
6817		-5.859375
6818		-1.953125
6819		-5.859375
6820		-1.953125
6821		-3.906250
6822		0.000000
6823		-3.906250
6824		0.000000
6825		-1.953125
6826		1.953125
6827		-1.953125
6828		1.953125
6829		0.000000
6830		1.953125
6831		0.000000
6832		3.906250
6833		1.953125
6834		3.906250
6835		1.953125
6836		5.859375
6837		1.953125
6838		5.859375
6839		3.906250
6840		7.812500
6841		3.906250
6842		7.812500
6843		5.859375
6844		9.765625
6845		5.859375
6846		9.765625
6847		5.859375
6848		9.765625
6849		7.812500
6850		11.718750
6851		7.812500
6852		11.718750
6853		9.765625
6854		13.671875
6855		9.765625
6856		13.671875
6857		11.718750
6858		15.625000
6859		11.718750
6860		15.625000
6861		11.718750
6862		15.625000
6863		13.671875
6864		17.578125
6865		13.671875
6866		17.578125
6867		15.625000
6868		17.578125
6869		15.625000
6870		19.531250
6871		15.625000
6872		19.531250
6873		17.578125
6874		19.531250
6875		17.578125
6876		21.484375
6877		19.531250
6878		21.484375
6879		19.531250
6880		23.437500
6881		19.531250
6882		23.437500
6883		21.484375
6884		23.437500
6885		19.531250
6886		25.390625
6887		21.484375
6888		25.390625
6889		21.484375
6890		25.390625
6891		23.437500
6892		27.343750
6893		23.437500
6894		27.343750
6895		25.390625
6896		27.343750
6897		25.390625
6898		27.343750
6899		25.390625
6900		29.296875
6901		25.390625
6902		29.296875
6903		25.390625
6904		29.296875
6905		27.343750
6906		29.296875
6907		27.343750
6908		31.250000
6909		27.343750
6910		31.250000
6911		29.296875
6912		31.250000
6913		27.343750
6914		31.250000
6915		29.296875
6916		31.250000
6917		29.296875
6918		33.203125
6919		29.296875
6920		33.203125
6921		29.296875
6922		33.203125
6923		29.296875
6924		33.203125
6925		31.250000
6926		33.203125
6927		31.250000
6928		35.156250
6929		31.250000
6930		35.156250
6931		31.250000
6932		35.156250
6933		31.250000
6934		35.156250
6935		31.250000
6936		35.156250
6937		31.250000
6938		35.156250
6939		31.250000
6940		35.156250
6941		31.250000
6942		35.156250
6943		31.250000
6944		35.156250
6945		33.203125
6946		35.156250
6947		31.250000
6948		35.156250
6949		31.250000
6950		35.156250
6951		33.203125
6952		35.156250
6953		31.250000
6954		37.109375
6955		33.203125
6956		35.156250
6957		31.250000
6958		35.156250
6959		33.203125
6960		35.156250
6961		31.250000
6962		35.156250
6963		31.250000
6964		35.156250
6965		31.250000
6966		35.156250
6967		31.250000
6968		35.156250
6969		31.250000
6970		35.156250
6971		31.250000
6972		35.156250
6973		31.250000
6974		33.203125
6975		31.250000
6976		33.203125
6977		31.250000
6978		33.203125
6979		29.296875
6980		33.203125
6981		29.296875
6982		33.203125
6983		29.296875
6984		33.203125
6985		29.296875
6986		33.203125
6987		27.343750
6988		31.250000
6989		27.343750
6990		31.250000
6991		27.343750
6992		31.250000
6993		27.343750
6994		31.250000
6995		27.343750
6996		31.250000
6997		25.390625
6998		29.296875
6999		25.390625
7000		29.296875
7001		25.390625
7002		29.296875
7003		25.390625
7004		27.343750
7005		23.437500
7006		27.343750
7007		23.437500
7008		27.343750
7009		23.437500
7010		27.343750
7011		23.437500
7012		25.390625
7013		21.484375
7014		25.390625
7015		19.531250
7016		25.390625
7017		21.484375
7018		23.437500
7019		19.531250
7020		23.437500
7021		19.531250
7022		23.437500
7023		17.578125
7024		21.484375
7025		17.578125
7026		21.484375
7027		17.578125
7028		21.484375
7029		15.625000
7030		19.531250
7031		15.625000
7032		19.531250
7033		15.625000
7034		19.531250
7035		13.671875
7036		17.578125
7037		13.671875
7038		17.578125
7039		11.718750
7040		15.625000
7041		11.718750
7042		15.625000
7043		11.718750
7044		13.671875
7045		9.765625
7046		13.671875
7047		9.765625
7048		13.671875
7049		7.812500
7050		11.718750
7051		7.812500
7052		11.718750
7053		5.859375
7054		9.765625
7055		5.859375
7056		9.765625
7057		5.859375
7058		9.765625
7059		3.906250
7060		7.812500
7061		3.906250
7062		7.812500
7063		1.953125
7064		5.859375
7065		1.953125
7066		5.859375
7067		1.953125
7068		3.906250
7069		0.000000
7070		3.906250
7071		-1.953125
7072		1.953125
7073		-1.953125
7074		1.953125
7075		-3.906250
7076		1.953125
7077		-3.906250
7078		0.000000
7079		-3.906250
7080		0.000000
7081		-5.859375
7082		-1.953125
7083		-5.859375
7084		-1.953125
7085		-7.812500
7086		-3.906250
7087		-9.765625
7088		-3.906250
7089		-9.765625
7090		-5.859375
7091		-9.765625
7092		-5.859375
7093		-11.718750
7094		-7.812500
7095		-11.718750
7096		-7.812500
7097		-11.718750
7098		-7.812500
7099		-13.671875
7100		-9.765625
7101		-13.671875
7102		-9.765625
7103		-13.671875
7104		-11.718750
7105		-15.625000
7106		-11.718750
7107		-15.625000
7108		-11.718750
7109		-15.625000
7110		-13.671875
7111		-17.578125
7112		-13.671875
7113		-17.578125
7114		-15.625000
7115		-19.531250
7116		-15.625000
7117		-19.531250
7118		-15.625000
7119		-19.531250
7120		-17.578125
7121		-21.484375
7122		-17.578125
7123		-21.484375
7124		-17.578125
7125		-23.437500
7126		-17.578125
7127		-23.437500
7128		-19.531250
7129		-23.437500
7130		-19.531250
7131		-23.437500
7132		-21.484375
7133		-25.390625
7134		-21.484375
7135		-25.390625
7136		-21.484375
7137		-25.390625
7138		-21.484375
7139		-27.343750
7140		-23.437500
7141		-27.343750
7142		-23.437500
7143		-27.343750
7144		-23.437500
7145		-27.343750
7146		-23.437500
7147		-29.296875
7148		-25.390625
7149		-29.296875
7150		-25.390625
7151		-29.296875
7152		-25.390625
7153		-29.296875
7154		-25.390625
7155		-29.296875
7156		-25.390625
7157		-31.250000
7158		-25.390625
7159		-29.296875
7160		-27.343750
7161		-31.250000
7162		-27.343750
7163		-31.250000
7164		-27.343750
7165		-31.250000
7166		-27.343750
7167		-31.250000
7168		-27.343750
7169		-31.250000
7170		-29.296875
7171		-31.250000
7172		-27.343750
7173		-31.250000
7174		-29.296875
7175		-31.250000
7176		-29.296875
7177		-31.250000
7178		-29.296875
7179		-33.203125
7180		-29.296875
7181		-33.203125
7182		-29.296875
7183		-33.203125
7184		-29.296875
7185		-31.250000
7186		-29.296875
7187		-31.250000
7188		-29.296875
7189		-31.250000
7190		-27.343750
7191		-31.250000
7192		-29.296875
7193		-31.250000
7194		-27.343750
7195		-33.203125
7196		-27.343750
7197		-31.250000
7198		-27.343750
7199		-31.250000
7200		-29.296875
7201		-31.250000
7202		-27.343750
7203		-31.250000
7204		-27.343750
7205		-31.250000
7206		-27.343750
7207		-31.250000
7208		-27.343750
7209		-31.250000
7210		-27.343750
7211		-31.250000
7212		-27.343750
7213		-29.296875
7214		-25.390625
7215		-29.296875
7216		-25.390625
7217		-29.296875
7218		-25.390625
7219		-29.296875
7220		-25.390625
7221		-29.296875
7222		-25.390625
7223		-27.343750
7224		-25.390625
7225		-27.343750
7226		-23.437500
7227		-27.343750
7228		-23.437500
7229		-25.390625
7230		-23.437500
7231		-25.390625
7232		-21.484375
7233		-25.390625
7234		-21.484375
7235		-25.390625
7236		-21.484375
7237		-23.437500
7238		-21.484375
7239		-23.437500
7240		-19.531250
7241		-23.437500
7242		-19.531250
7243		-21.484375
7244		-19.531250
7245		-21.484375
7246		-17.578125
7247		-21.484375
7248		-17.578125
7249		-21.484375
7250		-17.578125
7251		-19.531250
7252		-15.625000
7253		-19.531250
7254		-15.625000
7255		-19.531250
7256		-13.671875
7257		-17.578125
7258		-13.671875
7259		-17.578125
7260		-13.671875
7261		-15.625000
7262		-13.671875
7263		-15.625000
7264		-11.718750
7265		-15.625000
7266		-11.718750
7267		-13.671875
7268		-9.765625
7269		-13.671875
7270		-9.765625
7271		-11.718750
7272		-9.765625
7273		-11.718750
7274		-7.812500
7275		-11.718750
7276		-7.812500
7277		-9.765625
7278		-5.859375
7279		-9.765625
7280		-5.859375
7281		-7.812500
7282		-5.859375
7283		-7.812500
7284		-3.906250
7285		-7.812500
7286		-3.906250
7287		-5.859375
7288		-1.953125
7289		-5.859375
7290		-1.953125
7291		-3.906250
7292		0.000000
7293		-3.906250
7294		0.000000
7295		-1.953125
7296		1.953125
7297		-1.953125
7298		1.953125
7299		0.000000
7300		3.906250
7301		0.000000
7302		3.906250
7303		0.000000
7304		3.906250
7305		1.953125
7306		5.859375
7307		1.953125
7308		5.859375
7309		3.906250
7310		7.812500
7311		3.906250
7312		7.812500
7313		5.859375
7314		7.812500
7315		5.859375
7316		9.765625
7317		7.812500
7318		9.765625
7319		7.812500
7320		11.718750
7321		7.812500
7322		11.718750
7323		9.765625
7324		13.671875
7325		9.765625
7326		13.671875
7327		11.718750
7328		15.625000
7329		11.718750
7330		15.625000
7331		11.718750
7332		15.625000
7333		13.671875
7334		15.625000
7335		13.671875
7336		17.578125
7337		15.625000
7338		17.578125
7339		15.625000
7340		19.531250
7341		15.625000
7342		19.531250
7343		17.578125
7344		19.531250
7345		17.578125
7346		21.484375
7347		19.531250
7348		21.484375
7349		19.531250
7350		23.437500
7351		19.531250
7352		23.437500
7353		19.531250
7354		23.437500
7355		21.484375
7356		23.437500
7357		21.484375
7358		25.390625
7359		23.437500
7360		25.390625
7361		23.437500
7362		25.390625
7363		23.437500
7364		27.343750
7365		23.437500
7366		27.343750
7367		25.390625
7368		27.343750
7369		25.390625
7370		29.296875
7371		25.390625
7372		29.296875
7373		25.390625
7374		29.296875
7375		27.343750
7376		29.296875
7377		27.343750
7378		31.250000
7379		27.343750
7380		31.250000
7381		27.343750
7382		31.250000
7383		29.296875
7384		33.203125
7385		29.296875
7386		33.203125
7387		29.296875
7388		33.203125
7389		29.296875
7390		33.203125
7391		29.296875
7392		33.203125
7393		29.296875
7394		35.156250
7395		31.250000
7396		33.203125
7397		31.250000
7398		35.156250
7399		31.250000
7400		35.156250
7401		31.250000
7402		35.156250
7403		31.250000
7404		35.156250
7405		31.250000
7406		35.156250
7407		31.250000
7408		37.109375
7409		31.250000
7410		35.156250
7411		31.250000
7412		35.156250
7413		33.203125
7414		35.156250
7415		33.203125
7416		35.156250
7417		31.250000
7418		35.156250
7419		31.250000
7420		37.109375
7421		33.203125
7422		35.156250
7423		33.203125
7424		35.156250
7425		33.203125
7426		37.109375
7427		33.203125
7428		35.156250
7429		31.250000
7430		35.156250
7431		31.250000
7432		35.156250
7433		31.250000
7434		35.156250
7435		31.250000
7436		37.109375
7437		31.250000
7438		35.156250
7439		31.250000
7440		35.156250
7441		31.250000
7442		35.156250
7443		31.250000
7444		35.156250
7445		31.250000
7446		35.156250
7447		31.250000
7448		35.156250
7449		29.296875
7450		33.203125
7451		29.296875
7452		33.203125
7453		29.296875
7454		33.203125
7455		29.296875
7456		33.203125
7457		27.343750
7458		33.203125
7459		29.296875
7460		33.203125
7461		27.343750
7462		31.250000
7463		27.343750
7464		31.250000
7465		27.343750
7466		31.250000
7467		27.343750
7468		31.250000
7469		27.343750
7470		29.296875
7471		25.390625
7472		29.296875
7473		25.390625
7474		29.296875
7475		25.390625
7476		29.296875
7477		23.437500
7478		27.343750
7479		23.437500
7480		27.343750
7481		23.437500
7482		27.343750
7483		23.437500
7484		25.390625
7485		21.484375
7486		25.390625
7487		21.484375
7488		25.390625
7489		21.484375
7490		23.437500
7491		19.531250
7492		23.437500
7493		19.531250
7494		23.437500
7495		19.531250
7496		21.484375
7497		17.578125
7498		21.484375
7499		17.578125
7500		21.484375
7501		15.625000
7502		19.531250
7503		15.625000
7504		19.531250
7505		15.625000
7506		17.578125
7507		13.671875
7508		17.578125
7509		13.671875
7510		15.625000
7511		13.671875
7512		15.625000
7513		11.718750
7514		15.625000
7515		9.765625
7516		13.671875
7517		9.765625
7518		13.671875
7519		7.812500
7520		11.718750
7521		7.812500
7522		11.718750
7523		7.812500
7524		11.718750
7525		5.859375
7526		9.765625
7527		5.859375
7528		9.765625
7529		3.906250
7530		9.765625
7531		3.906250
7532		7.812500
7533		3.906250
7534		7.812500
7535		1.953125
7536		5.859375
7537		0.000000
7538		5.859375
7539		1.953125
7540		3.906250
7541		-1.953125
7542		3.906250
7543		-1.953125
7544		1.953125
7545		-1.953125
7546		1.953125
7547		-1.953125
7548		0.000000
7549		-3.906250
7550		0.000000
7551		-3.906250
7552		-1.953125
7553		-5.859375
7554		-1.953125
7555		-5.859375
7556		-1.953125
7557		-7.812500
7558		-3.906250
7559		-7.812500
7560		-3.906250
7561		-9.765625
7562		-5.859375
7563		-9.765625
7564		-5.859375
7565		-11.718750
7566		-7.812500
7567		-11.718750
7568		-7.812500
7569		-13.671875
7570		-7.812500
7571		-13.671875
7572		-9.765625
7573		-13.671875
7574		-9.765625
7575		-15.625000
7576		-9.765625
7577		-15.625000
7578		-11.718750
7579		-15.625000
7580		-13.671875
7581		-17.578125
7582		-13.671875
7583		-17.578125
7584		-13.671875
7585		-17.578125
7586		-15.625000
7587		-19.531250
7588		-15.625000
7589		-19.531250
7590		-17.578125
7591		-21.484375
7592		-17.578125
7593		-21.484375
7594		-17.578125
7595		-21.484375
7596		-17.578125
7597		-23.437500
7598		-17.578125
7599		-23.437500
7600		-19.531250
7601		-23.437500
7602		-19.531250
7603		-25.390625
7604		-21.484375
7605		-25.390625
7606		-21.484375
7607		-25.390625
7608		-21.484375
7609		-25.390625
7610		-21.484375
7611		-25.390625
7612		-23.437500
7613		-27.343750
7614		-23.437500
7615		-27.343750
7616		-23.437500
7617		-27.343750
7618		-25.390625
7619		-27.343750
7620		-25.390625
7621		-29.296875
7622		-25.390625
7623		-29.296875
7624		-25.390625
7625		-29.296875
7626		-25.390625
7627		-29.296875
7628		-25.390625
7629		-29.296875
7630		-25.390625
7631		-31.250000
7632		-27.343750
7633		-31.250000
7634		-27.343750
7635		-31.250000
7636		-27.343750
7637		-31.250000
7638		-27.343750
7639		-31.250000
7640		-27.343750
7641		-31.250000
7642		-29.296875
7643		-31.250000
7644		-27.343750
7645		-31.250000
7646		-27.343750
7647		-31.250000
7648		-27.343750
7649		-31.250000
7650		-27.343750
7651		-31.250000
7652		-29.296875
7653		-31.250000
7654		-27.343750
7655		-31.250000
7656		-29.296875
7657		-31.250000
7658		-29.296875
7659		-33.203125
7660		-29.296875
7661		-31.250000
7662		-27.343750
7663		-31.250000
7664		-29.296875
7665		-31.250000
7666		-29.296875
7667		-31.250000
7668		-27.343750
7669		-31.250000
7670		-27.343750
7671		-31.250000
7672		-27.343750
7673		-31.250000
7674		-27.343750
7675		-31.250000
7676		-27.343750
7677		-31.250000
7678		-27.343750
7679		-29.296875
7680		-27.343750
7681		-29.296875
7682		-27.343750
7683		-29.296875
7684		-25.390625
7685		-29.296875
7686		-25.390625
7687		-29.296875
7688		-25.390625
7689		-29.296875
7690		-25.390625
7691		-27.343750
7692		-25.390625
7693		-27.343750
7694		-23.437500
7695		-27.343750
7696		-23.437500
7697		-27.343750
7698		-23.437500
7699		-25.390625
7700		-23.437500
7701		-27.343750
7702		-23.437500
7703		-25.390625
7704		-21.484375
7705		-25.390625
7706		-21.484375
7707		-23.437500
7708		-21.484375
7709		-23.437500
7710		-19.531250
7711		-23.437500
7712		-19.531250
7713		-23.437500
7714		-19.531250
7715		-21.484375
7716		-19.531250
7717		-21.484375
7718		-17.578125
7719		-21.484375
7720		-17.578125
7721		-19.531250
7722		-15.625000
7723		-19.531250
7724		-15.625000
7725		-17.578125
7726		-15.625000
7727		-17.578125
7728		-13.671875
7729		-17.578125
7730		-13.671875
7731		-15.625000
7732		-11.718750
7733		-15.625000
7734		-11.718750
7735		-13.671875
7736		-11.718750
7737		-13.671875
7738		-9.765625
7739		-13.671875
7740		-9.765625
7741		-11.718750
7742		-9.765625
7743		-11.718750
7744		-7.812500
7745		-11.718750
7746		-5.859375
7747		-9.765625
7748		-5.859375
7749		-7.812500
7750		-5.859375
7751		-7.812500
7752		-5.859375
7753		-7.812500
7754		-3.906250
7755		-7.812500
7756		-3.906250
7757		-5.859375
7758		-1.953125
7759		-3.906250
7760		-1.953125
7761		-3.906250
7762		0.000000
7763		-3.906250
7764		0.000000
7765		-1.953125
7766		0.000000
7767		-1.953125
7768		1.953125
7769		-1.953125
7770		3.906250
7771		0.000000
7772		3.906250
7773		1.953125
7774		3.906250
7775		1.953125
7776		5.859375
7777		1.953125
7778		7.812500
7779		3.906250
7780		7.812500
7781		3.906250
7782		7.812500
7783		5.859375
7784		7.812500
7785		5.859375
7786		9.765625
7787		5.859375
7788		9.765625
7789		7.812500
7790		11.718750
7791		7.812500
7792		11.718750
7793		7.812500
7794		13.671875
7795		9.765625
7796		13.671875
7797		11.718750
7798		13.671875
7799		11.718750
7800		15.625000
7801		13.671875
7802		15.625000
7803		13.671875
7804		17.578125
7805		13.671875
7806		17.578125
7807		15.625000
7808		17.578125
7809		15.625000
7810		19.531250
7811		15.625000
7812		21.484375
7813		17.578125
7814		21.484375
7815		17.578125
7816		21.484375
7817		17.578125
7818		21.484375
7819		19.531250
7820		23.437500
7821		19.531250
7822		23.437500
7823		19.531250
7824		23.437500
7825		21.484375
7826		23.437500
7827		21.484375
7828		25.390625
7829		21.484375
7830		25.390625
7831		23.437500
7832		27.343750
7833		23.437500
7834		27.343750
7835		23.437500
7836		27.343750
7837		25.390625
7838		27.343750
7839		25.390625
7840		29.296875
7841		25.390625
7842		29.296875
7843		27.343750
7844		29.296875
7845		27.343750
7846		29.296875
7847		27.343750
7848		31.250000
7849		27.343750
7850		31.250000
7851		27.343750
7852		31.250000
7853		29.296875
7854		33.203125
7855		29.296875
7856		33.203125
7857		29.296875
7858		33.203125
7859		29.296875
7860		33.203125
7861		29.296875
7862		33.203125
7863		29.296875
7864		33.203125
7865		31.250000
7866		35.156250
7867		31.250000
7868		35.156250
7869		31.250000
7870		35.156250
7871		31.250000
7872		35.156250
7873		31.250000
7874		35.156250
7875		31.250000
7876		35.156250
7877		31.250000
7878		37.109375
7879		33.203125
7880		35.156250
7881		33.203125
7882		35.156250
7883		33.203125
7884		37.109375
7885		33.203125
7886		35.156250
7887		33.203125
7888		37.109375
7889		33.203125
7890		37.109375
7891		33.203125
7892		35.156250
7893		33.203125
7894		35.156250
7895		33.203125
7896		37.109375
7897		33.203125
7898		35.156250
7899		33.203125
7900		37.109375
7901		33.203125
7902		35.156250
7903		33.203125
7904		35.156250
7905		31.250000
7906		35.156250
7907		31.250000
7908		37.109375
7909		31.250000
7910		35.156250
7911		31.250000
7912		35.156250
7913		31.250000
7914		35.156250
7915		31.250000
7916		35.156250
7917		31.250000
7918		35.156250
7919		31.250000
7920		33.203125
7921		31.250000
7922		33.203125
7923		29.296875
7924		35.156250
7925		29.296875
7926		33.203125
7927		29.296875
7928		33.203125
7929		29.296875
7930		33.203125
7931		29.296875
7932		33.203125
7933		29.296875
7934		31.250000
7935		27.343750
7936		31.250000
7937		27.343750
7938		31.250000
7939		27.343750
7940		31.250000
7941		27.343750
7942		29.296875
7943		25.390625
7944		29.296875
7945		25.390625
7946		29.296875
7947		23.437500
7948		29.296875
7949		23.437500
7950		27.343750
7951		23.437500
7952		27.343750
7953		23.437500
7954		27.343750
7955		21.484375
7956		25.390625
7957		21.484375
7958		25.390625
7959		21.484375
7960		25.390625
7961		19.531250
7962		23.437500
7963		19.531250
7964		23.437500
7965		17.578125
7966		23.437500
7967		19.531250
7968		21.484375
7969		17.578125
7970		21.484375
7971		17.578125
7972		21.484375
7973		15.625000
7974		19.531250
7975		15.625000
7976		19.531250
7977		15.625000
7978		17.578125
7979		13.671875
7980		17.578125
7981		13.671875
7982		17.578125
7983		11.718750
7984		17.578125
7985		11.718750
7986		15.625000
7987		11.718750
7988		13.671875
7989		9.765625
7990		13.671875
7991		9.765625
7992		13.671875
7993		7.812500
7994		11.718750
7995		7.812500
7996		11.718750
7997		5.859375
7998		9.765625
7999		5.859375
8000		9.765625
8001		5.859375
8002		9.765625
8003		3.906250
8004		7.812500
8005		1.953125
8006		7.812500
8007		1.953125
8008		5.859375
8009		1.953125
8010		5.859375
8011		0.000000
8012		3.906250
8013		0.000000
8014		3.906250
8015		-1.953125
8016		1.953125
8017		-1.953125
8018		1.953125
8019		-1.953125
8020		0.000000
8021		-3.906250
8022		0.000000
8023		-5.859375
8024		0.000000
8025		-5.859375
8026		-1.953125
8027		-5.859375
8028		-3.906250
8029		-7.812500
8030		-3.906250
8031		-7.812500
8032		-3.906250
8033		-9.765625
8034		-5.859375
8035		-9.765625
8036		-5.859375
8037		-11.718750
8038		-5.859375
8039		-11.718750
8040		-7.812500
8041		-11.718750
8042		-7.812500
8043		-13.671875
8044		-9.765625
8045		-13.671875
8046		-9.765625
8047		-15.625000
8048		-9.765625
8049		-15.625000
8050		-11.718750
8051		-15.625000
8052		-11.718750
8053		-15.625000
8054		-13.671875
8055		-17.578125
8056		-13.671875
8057		-17.578125
8058		-13.671875
8059		-19.531250
8060		-15.625000
8061		-19.531250
8062		-15.625000
8063		-19.531250
8064		-17.578125
8065		-21.484375
8066		-17.578125
8067		-21.484375
8068		-17.578125
8069		-23.437500
8070		-17.578125
8071		-23.437500
8072		-19.531250
8073		-23.437500
8074		-19.531250
8075		-23.437500
8076		-19.531250
8077		-23.437500
8078		-21.484375
8079		-25.390625
8080		-21.484375
8081		-25.390625
8082		-21.484375
8083		-25.390625
8084		-23.437500
8085		-25.390625
8086		-23.437500
8087		-27.343750
8088		-23.437500
8089		-27.343750
8090		-23.437500
8091		-29.296875
8092		-25.390625
8093		-27.343750
8094		-25.390625
8095		-27.343750
8096		-25.390625
8097		-29.296875
8098		-25.390625
8099		-29.296875
8100		-25.390625
8101		-29.296875
8102		-25.390625
8103		-31.250000
8104		-25.390625
8105		-29.296875
8106		-25.390625
8107		-31.250000
8108		-27.343750
8109		-31.250000
8110		-27.343750
8111		-31.250000
8112		-27.343750
8113		-31.250000
8114		-27.343750
8115		-31.250000
8116		-27.343750
8117		-31.250000
8118		-27.343750
8119		-31.250000
8120		-27.343750
8121		-31.250000
8122		-27.343750
8123		-31.250000
8124		-27.343750
8125		-33.203125
8126		-27.343750
8127		-31.250000
8128		-27.343750
8129		-31.250000
8130		-27.343750
8131		-31.250000
8132		-27.343750
8133		-31.250000
8134		-27.343750
8135		-31.250000
8136		-27.343750
8137		-31.250000
8138		-27.343750
8139		-31.250000
8140		-27.343750
8141		-31.250000
8142		-27.343750
8143		-29.296875
8144		-27.343750
8145		-29.296875
8146		-27.343750
8147		-31.250000
8148		-27.343750
8149		-31.250000
8150		-25.390625
8151		-29.296875
8152		-27.343750
8153		-29.296875
8154		-25.390625
8155		-29.296875
8156		-25.390625
8157		-29.296875
8158		-25.390625
8159		-29.296875
8160		-25.390625
8161		-27.343750
8162		-25.390625
8163		-27.343750
8164		-23.437500
8165		-27.343750
8166		-23.437500
8167		-25.390625
8168		-23.437500
8169		-25.390625
8170		-23.437500
8171		-25.390625
8172		-21.484375
8173		-25.390625
8174		-21.484375
8175		-25.390625
8176		-21.484375
8177		-23.437500
8178		-21.484375
8179		-23.437500
8180		-19.531250
8181		-23.437500
8182		-19.531250
8183		-23.437500
8184		-17.578125
8185		-21.484375
8186		-17.578125
8187		-21.484375
8188		-17.578125
8189		-21.484375
8190		-17.578125
8191		-19.531250
8192		-15.625000
8193		-19.531250
8194		-15.625000
8195		-19.531250
8196		-15.625000
8197		-17.578125
8198		-13.671875
8199		-17.578125
8200		-13.671875
8201		-15.625000
8202		-13.671875
8203		-15.625000
8204		-11.718750
8205		-15.625000
8206		-11.718750
8207		-13.671875
8208		-11.718750
8209		-13.671875
8210		-9.765625
8211		-11.718750
8212		-9.765625
8213		-11.718750
8214		-7.812500
8215		-11.718750
8216		-5.859375
8217		-9.765625
8218		-7.812500
8219		-9.765625
8220		-5.859375
8221		-7.812500
8222		-5.859375
8223		-7.812500
8224		-3.906250
8225		-7.812500
8226		-3.906250
8227		-5.859375
8228		-1.953125
8229		-5.859375
8230		-1.953125
8231		-3.906250
8232		0.000000
8233		-3.906250
8234		0.000000
8235		-1.953125
8236		1.953125
8237		-1.953125
8238		1.953125
8239		-1.953125
8240		1.953125
8241		0.000000
8242		3.906250
8243		0.000000
8244		3.906250
8245		1.953125
8246		5.859375
8247		1.953125
8248		5.859375
8249		3.906250
8250		7.812500
8251		3.906250
8252		7.812500
8253		5.859375
8254		7.812500
8255		5.859375
8256		9.765625
8257		5.859375
8258		9.765625
8259		7.812500
8260		11.718750
8261		7.812500
8262		11.718750
8263		7.812500
8264		13.671875
8265		9.765625
8266		13.671875
8267		9.765625
8268		13.671875
8269		11.718750
8270		15.625000
8271		11.718750
8272		15.625000
8273		13.671875
8274		17.578125
8275		13.671875
8276		17.578125
8277		13.671875
8278		19.531250
8279		15.625000
8280		19.531250
8281		15.625000
8282		19.531250
8283		17.578125
8284		21.484375
8285		17.578125
8286		21.484375
8287		17.578125
8288		21.484375
8289		19.531250
8290		23.437500
8291		19.531250
8292		23.437500
8293		21.484375
8294		23.437500
8295		21.484375
8296		25.390625
8297		21.484375
8298		25.390625
8299		21.484375
8300		25.390625
8301		23.437500
8302		27.343750
8303		23.437500
8304		27.343750
8305		23.437500
8306		27.343750
8307		25.390625
8308		27.343750
8309		25.390625
8310		29.296875
8311		25.390625
8312		29.296875
8313		27.343750
8314		29.296875
8315		27.343750
8316		31.250000
8317		27.343750
8318		31.250000
8319		27.343750
8320		31.250000
8321		29.296875
8322		31.250000
8323		27.343750
8324		33.203125
8325		29.296875
8326		33.203125
8327		29.296875
8328		33.203125
8329		31.250000
8330		33.203125
8331		31.250000
8332		33.203125
8333		31.250000
8334		33.203125
8335		31.250000
8336		35.156250
8337		31.250000
8338		35.156250
8339		31.250000
8340		35.156250
8341		31.250000
8342		35.156250
8343		31.250000
8344		35.156250
8345		33.203125
8346		35.156250
8347		33.203125
8348		35.156250
8349		33.203125
8350		37.109375
8351		33.203125
8352		37.109375
8353		33.203125
8354		37.109375
8355		33.203125
8356		37.109375
8357		33.203125
8358		37.109375
8359		33.203125
8360		37.109375
8361		33.203125
8362		37.109375
8363		33.203125
8364		37.109375
8365		33.203125
8366		37.109375
8367		33.203125
8368		37.109375
8369		33.203125
8370		37.109375
8371		33.203125
8372		37.109375
8373		33.203125
8374		37.109375
8375		33.203125
8376		37.109375
8377		31.250000
8378		37.109375
8379		33.203125
8380		35.156250
8381		31.250000
8382		35.156250
8383		31.250000
8384		35.156250
8385		33.203125
8386		35.156250
8387		31.250000
8388		35.156250
8389		31.250000
8390		35.156250
8391		31.250000
8392		35.156250
8393		29.296875
8394		35.156250
8395		31.250000
8396		33.203125
8397		31.250000
8398		33.203125
8399		29.296875
8400		33.203125
8401		29.296875
8402		33.203125
8403		29.296875
8404		33.203125
8405		29.296875
8406		31.250000
8407		27.343750
8408		31.250000
8409		27.343750
8410		31.250000
8411		27.343750
8412		31.250000
8413		27.343750
8414		29.296875
8415		25.390625
8416		29.296875
8417		25.390625
8418		29.296875
8419		23.437500
8420		29.296875
8421		25.390625
8422		27.343750
8423		23.437500
8424		27.343750
8425		23.437500
8426		27.343750
8427		21.484375
8428		25.390625
8429		21.484375
8430		25.390625
8431		21.484375
8432		25.390625
8433		21.484375
8434		25.390625
8435		19.531250
8436		23.437500
8437		19.531250
8438		23.437500
8439		19.531250
8440		21.484375
8441		17.578125
8442		21.484375
8443		17.578125
8444		21.484375
8445		15.625000
8446		19.531250
8447		15.625000
8448		19.531250
8449		13.671875
8450		17.578125
8451		13.671875
8452		17.578125
8453		13.671875
8454		17.578125
8455		13.671875
8456		15.625000
8457		11.718750
8458		15.625000
8459		11.718750
8460		15.625000
8461		9.765625
8462		13.671875
8463		9.765625
8464		11.718750
8465		7.812500
8466		11.718750
8467		7.812500
8468		11.718750
8469		7.812500
8470		9.765625
8471		5.859375
8472		9.765625
8473		5.859375
8474		7.812500
8475		3.906250
8476		7.812500
8477		1.953125
8478		7.812500
8479		1.953125
8480		5.859375
8481		1.953125
8482		5.859375
8483		1.953125
8484		5.859375
8485		0.000000
8486		3.906250
8487		-1.953125
8488		1.953125
8489		-1.953125
8490		1.953125
8491		-3.906250
8492		0.000000
8493		-3.906250
8494		0.000000
8495		-3.906250
8496		0.000000
8497		-3.906250
8498		-1.953125
8499		-5.859375
8500		-1.953125
8501		-7.812500
8502		-3.906250
8503		-7.812500
8504		-3.906250
8505		-9.765625
8506		-5.859375
8507		-9.765625
8508		-5.859375
8509		-9.765625
8510		-7.812500
8511		-11.718750
8512		-7.812500
8513		-11.718750
8514		-7.812500
8515		-11.718750
8516		-9.765625
8517		-13.671875
8518		-9.765625
8519		-13.671875
8520		-9.765625
8521		-15.625000
8522		-11.718750
8523		-15.625000
8524		-11.718750
8525		-17.578125
8526		-11.718750
8527		-17.578125
8528		-13.671875
8529		-17.578125
8530		-13.671875
8531		-17.578125
8532		-15.625000
8533		-19.531250
8534		-15.625000
8535		-19.531250
8536		-17.578125
8537		-21.484375
8538		-17.578125
8539		-21.484375
8540		-17.578125
8541		-21.484375
8542		-17.578125
8543		-23.437500
8544		-19.531250
8545		-23.437500
8546		-19.531250
8547		-23.437500
8548		-19.531250
8549		-25.390625
8550		-19.531250
8551		-23.437500
8552		-21.484375
8553		-25.390625
8554		-21.484375
8555		-25.390625
8556		-21.484375
8557		-25.390625
8558		-23.437500
8559		-27.343750
8560		-23.437500
8561		-27.343750
8562		-23.437500
8563		-27.343750
8564		-23.437500
8565		-27.343750
8566		-25.390625
8567		-29.296875
8568		-23.437500
8569		-29.296875
8570		-25.390625
8571		-29.296875
8572		-25.390625
8573		-29.296875
8574		-25.390625
8575		-29.296875
8576		-25.390625
8577		-31.250000
8578		-25.390625
8579		-29.296875
8580		-25.390625
8581		-29.296875
8582		-27.343750
8583		-29.296875
8584		-27.343750
8585		-31.250000
8586		-27.343750
8587		-31.250000
8588		-27.343750
8589		-29.296875
8590		-27.343750
8591		-31.250000
8592		-27.343750
8593		-31.250000
8594		-27.343750
8595		-31.250000
8596		-27.343750
8597		-31.250000
8598		-27.343750
8599		-29.296875
8600		-27.343750
8601		-29.296875
8602		-27.343750
8603		-31.250000
8604		-27.343750
8605		-29.296875
8606		-27.343750
8607		-31.250000
8608		-27.343750
8609		-31.250000
8610		-27.343750
8611		-29.296875
8612		-27.343750
8613		-31.250000
8614		-27.343750
8615		-29.296875
8616		-27.343750
8617		-29.296875
8618		-25.390625
8619		-29.296875
8620		-25.390625
8621		-29.296875
8622		-25.390625
8623		-27.343750
8624		-25.390625
8625		-27.343750
8626		-25.390625
8627		-27.343750
8628		-23.437500
8629		-27.343750
8630		-23.437500
8631		-27.343750
8632		-23.437500
8633		-27.343750
8634		-23.437500
8635		-27.343750
8636		-23.437500
8637		-25.390625
8638		-23.437500
8639		-25.390625
8640		-21.484375
8641		-25.390625
8642		-21.484375
8643		-23.437500
8644		-21.484375
8645		-23.437500
8646		-19.531250
8647		-23.437500
8648		-19.531250
8649		-23.437500
8650		-19.531250
8651		-21.484375
8652		-19.531250
8653		-21.484375
8654		-17.578125
8655		-21.484375
8656		-17.578125
8657		-21.484375
8658		-17.578125
8659		-19.531250
8660		-15.625000
8661		-19.531250
8662		-15.625000
8663		-19.531250
8664		-15.625000
8665		-17.578125
8666		-15.625000
8667		-17.578125
8668		-13.671875
8669		-15.625000
8670		-13.671875
8671		-15.625000
8672		-11.718750
8673		-15.625000
8674		-11.718750
8675		-13.671875
8676		-11.718750
8677		-13.671875
8678		-9.765625
8679		-13.671875
8680		-9.765625
8681		-11.718750
8682		-7.812500
8683		-11.718750
8684		-7.812500
8685		-9.765625
8686		-5.859375
8687		-9.765625
8688		-5.859375
8689		-7.812500
8690		-5.859375
8691		-7.812500
8692		-3.906250
8693		-7.812500
8694		-3.906250
8695		-5.859375
8696		-1.953125
8697		-5.859375
8698		-1.953125
8699		-3.906250
8700		-1.953125
8701		-3.906250
8702		0.000000
8703		-3.906250
8704		0.000000
8705		-1.953125
8706		1.953125
8707		-1.953125
8708		1.953125
8709		0.000000
8710		1.953125
8711		0.000000
8712		3.906250
8713		1.953125
8714		5.859375
8715		1.953125
8716		5.859375
8717		3.906250
8718		5.859375
8719		3.906250
8720		7.812500
8721		3.906250
8722		7.812500
8723		5.859375
8724		9.765625
8725		5.859375
8726		9.765625
8727		5.859375
8728		11.718750
8729		7.812500
8730		11.718750
8731		7.812500
8732		11.718750
8733		9.765625
8734		13.671875
8735		9.765625
8736		15.625000
8737		11.718750
8738		15.625000
8739		11.718750
8740		15.625000
8741		13.671875
8742		17.578125
8743		13.671875
8744		17.578125
8745		13.671875
8746		17.578125
8747		15.625000
8748		17.578125
8749		15.625000
8750		19.531250
8751		15.625000
8752		21.484375
8753		17.578125
8754		21.484375
8755		17.578125
8756		21.484375
8757		19.531250
8758		21.484375
8759		19.531250
8760		23.437500
8761		19.531250
8762		23.437500
8763		21.484375
8764		25.390625
8765		21.484375
8766		25.390625
8767		23.437500
8768		25.390625
8769		21.484375
8770		27.343750
8771		23.437500
8772		27.343750
8773		25.390625
8774		27.343750
8775		25.390625
8776		29.296875
8777		25.390625
8778		29.296875
8779		25.390625
8780		29.296875
8781		27.343750
8782		29.296875
8783		27.343750
8784		29.296875
8785		27.343750
8786		31.250000
8787		27.343750
8788		31.250000
8789		29.296875
8790		31.250000
8791		29.296875
8792		31.250000
8793		29.296875
8794		33.203125
8795		29.296875
8796		33.203125
8797		29.296875
8798		33.203125
8799		31.250000
8800		33.203125
8801		31.250000
8802		35.156250
8803		31.250000
8804		35.156250
8805		31.250000
8806		35.156250
8807		31.250000
8808		35.156250
8809		33.203125
8810		35.156250
8811		31.250000
8812		35.156250
8813		33.203125
8814		35.156250
8815		33.203125
8816		37.109375
8817		33.203125
8818		37.109375
8819		33.203125
8820		37.109375
8821		33.203125
8822		37.109375
8823		33.203125
8824		37.109375
8825		33.203125
8826		37.109375
8827		33.203125
8828		37.109375
8829		33.203125
8830		37.109375
8831		33.203125
8832		37.109375
8833		35.156250
8834		37.109375
8835		33.203125
8836		37.109375
8837		33.203125
8838		37.109375
8839		33.203125
8840		37.109375
8841		33.203125
8842		37.109375
8843		33.203125
8844		37.109375
8845		33.203125
8846		37.109375
8847		33.203125
8848		37.109375
8849		33.203125
8850		37.109375
8851		33.203125
8852		37.109375
8853		33.203125
8854		37.109375
8855		33.203125
8856		35.156250
8857		31.250000
8858		37.109375
8859		33.203125
8860		35.156250
8861		31.250000
8862		35.156250
8863		31.250000
8864		35.156250
8865		31.250000
8866		35.156250
8867		31.250000
8868		33.203125
8869		31.250000
8870		35.156250
8871		31.250000
8872		35.156250
8873		29.296875
8874		33.203125
8875		29.296875
8876		33.203125
8877		29.296875
8878		31.250000
8879		29.296875
8880		31.250000
8881		27.343750
8882		31.250000
8883		27.343750
8884		31.250000
8885		27.343750
8886		29.296875
8887		27.343750
8888		31.250000
8889		25.390625
8890		29.296875
8891		25.390625
8892		29.296875
8893		23.437500
8894		29.296875
8895		25.390625
8896		27.343750
8897		23.437500
8898		27.343750
8899		23.437500
8900		27.343750
8901		23.437500
8902		25.390625
8903		21.484375
8904		25.390625
8905		21.484375
8906		25.390625
8907		21.484375
8908		23.437500
8909		19.531250
8910		23.437500
8911		19.531250
8912		23.437500
8913		17.578125
8914		21.484375
8915		17.578125
8916		21.484375
8917		17.578125
8918		19.531250
8919		15.625000
8920		19.531250
8921		15.625000
8922		17.578125
8923		13.671875
8924		17.578125
8925		13.671875
8926		17.578125
8927		13.671875
8928		15.625000
8929		11.718750
8930		15.625000
8931		9.765625
8932		15.625000
8933		9.765625
8934		13.671875
8935		9.765625
8936		13.671875
8937		7.812500
8938		11.718750
8939		7.812500
8940		11.718750
8941		5.859375
8942		9.765625
8943		5.859375
8944		9.765625
8945		5.859375
8946		7.812500
8947		3.906250
8948		7.812500
8949		3.906250
8950		7.812500
8951		1.953125
8952		5.859375
8953		1.953125
8954		5.859375
8955		0.000000
8956		3.906250
8957		0.000000
8958		3.906250
8959		-1.953125
8960		1.953125
8961		-1.953125
8962		1.953125
8963		-3.906250
8964		0.000000
8965		-3.906250
8966		0.000000
8967		-3.906250
8968		-1.953125
8969		-5.859375
8970		-1.953125
8971		-5.859375
8972		-1.953125
8973		-5.859375
8974		-3.906250
8975		-7.812500
8976		-3.906250
8977		-9.765625
8978		-5.859375
8979		-9.765625
8980		-5.859375
8981		-9.765625
8982		-7.812500
8983		-11.718750
8984		-7.812500
8985		-11.718750
8986		-7.812500
8987		-13.671875
8988		-9.765625
8989		-13.671875
8990		-9.765625
8991		-13.671875
8992		-11.718750
8993		-15.625000
8994		-11.718750
8995		-15.625000
8996		-11.718750
8997		-15.625000
8998		-13.671875
8999		-17.578125
9000		-13.671875
9001		-17.578125
9002		-13.671875
9003		-19.531250
9004		-15.625000
9005		-19.531250
9006		-15.625000
9007		-19.531250
9008		-15.625000
9009		-21.484375
9010		-17.578125
9011		-21.484375
9012		-17.578125
9013		-21.484375
9014		-19.531250
9015		-23.437500
9016		-17.578125
9017		-23.437500
9018		-19.531250
9019		-23.437500
9020		-19.531250
9021		-23.437500
9022		-19.531250
9023		-25.390625
9024		-21.484375
9025		-25.390625
9026		-21.484375
9027		-25.390625
9028		-23.437500
9029		-25.390625
9030		-23.437500
9031		-25.390625
9032		-23.437500
9033		-27.343750
9034		-23.437500
9035		-27.343750
9036		-23.437500
9037		-27.343750
9038		-25.390625
9039		-29.296875
9040		-23.437500
9041		-27.343750
9042		-25.390625
9043		-29.296875
9044		-25.390625
9045		-29.296875
9046		-25.390625
9047		-29.296875
9048		-25.390625
9049		-29.296875
9050		-25.390625
9051		-29.296875
9052		-27.343750
9053		-29.296875
9054		-27.343750
9055		-31.250000
9056		-27.343750
9057		-29.296875
9058		-25.390625
9059		-31.250000
9060		-27.343750
9061		-31.250000
9062		-27.343750
9063		-31.250000
9064		-27.343750
9065		-29.296875
9066		-27.343750
9067		-31.250000
9068		-27.343750
9069		-29.296875
9070		-27.343750
9071		-31.250000
9072		-27.343750
9073		-31.250000
9074		-27.343750
9075		-29.296875
9076		-27.343750
9077		-29.296875
9078		-27.343750
9079		-29.296875
9080		-27.343750
9081		-29.296875
9082		-27.343750
9083		-31.250000
9084		-25.390625
9085		-29.296875
9086		-27.343750
9087		-29.296875
9088		-25.390625
9089		-29.296875
9090		-25.390625
9091		-29.296875
9092		-25.390625
9093		-29.296875
9094		-25.390625
9095		-29.296875
9096		-23.437500
9097		-27.343750
9098		-25.390625
9099		-27.343750
9100		-23.437500
9101		-27.343750
9102		-23.437500
9103		-27.343750
9104		-23.437500
9105		-25.390625
9106		-23.437500
9107		-25.390625
9108		-23.437500
9109		-25.390625
9110		-21.484375
9111		-25.390625
9112		-21.484375
9113		-25.390625
9114		-21.484375
9115		-23.437500
9116		-21.484375
9117		-23.437500
9118		-19.531250
9119		-23.437500
9120		-19.531250
9121		-23.437500
9122		-19.531250
9123		-21.484375
9124		-17.578125
9125		-21.484375
9126		-17.578125
9127		-21.484375
9128		-17.578125
9129		-19.531250
9130		-17.578125
9131		-19.531250
9132		-15.625000
9133		-19.531250
9134		-15.625000
9135		-17.578125
9136		-15.625000
9137		-17.578125
9138		-13.671875
9139		-17.578125
9140		-13.671875
9141		-15.625000
9142		-11.718750
9143		-15.625000
9144		-11.718750
9145		-15.625000
9146		-11.718750
9147		-13.671875
9148		-9.765625
9149		-13.671875
9150		-9.765625
9151		-13.671875
9152		-9.765625
9153		-11.718750
9154		-7.812500
9155		-9.765625
9156		-7.812500
9157		-9.765625
9158		-5.859375
9159		-9.765625
9160		-5.859375
9161		-7.812500
9162		-5.859375
9163		-7.812500
9164		-3.906250
9165		-7.812500
9166		-3.906250
9167		-5.859375
9168		-1.953125
9169		-5.859375
9170		-1.953125
9171		-3.906250
9172		-1.953125
9173		-3.906250
9174		0.000000
9175		-1.953125
9176		0.000000
9177		-1.953125
9178		1.953125
9179		0.000000
9180		1.953125
9181		0.000000
9182		3.906250
9183		0.000000
9184		3.906250
9185		1.953125
9186		3.906250
9187		1.953125
9188		5.859375
9189		1.953125
9190		7.812500
9191		3.906250
9192		7.812500
9193		5.859375
9194		7.812500
9195		5.859375
9196		9.765625
9197		7.812500
9198		9.765625
9199		7.812500
9200		11.718750
9201		7.812500
9202		11.718750
9203		9.765625
9204		11.718750
9205		9.765625
9206		13.671875
9207		9.765625
9208		13.671875
9209		11.718750
9210		15.625000
9211		11.718750
9212		15.625000
9213		11.718750
9214		17.578125
9215		13.671875
9216		17.578125
9217		15.625000
9218		17.578125
9219		15.625000
9220		19.531250
9221		15.625000
9222		19.531250
9223		17.578125
9224		21.484375
9225		17.578125
9226		21.484375
9227		17.578125
9228		21.484375
9229		17.578125
9230		23.437500
9231		19.531250
9232		23.437500
9233		21.484375
9234		23.437500
9235		19.531250
9236		25.390625
9237		21.484375
9238		25.390625
9239		23.437500
9240		25.390625
9241		23.437500
9242		27.343750
9243		23.437500
9244		27.343750
9245		23.437500
9246		27.343750
9247		23.437500
9248		29.296875
9249		25.390625
9250		31.250000
9251		25.390625
9252		29.296875
9253		27.343750
9254		29.296875
9255		27.343750
9256		31.250000
9257		27.343750
9258		31.250000
9259		27.343750
9260		31.250000
9261		29.296875
9262		31.250000
9263		27.343750
9264		35.156250
9265		29.296875
9266		33.203125
9267		29.296875
9268		35.156250
9269		31.250000
9270		33.203125
9271		31.250000
9272		33.203125
9273		31.250000
9274		35.156250
9275		29.296875
9276		37.109375
9277		29.296875
9278		37.109375
9279		29.296875
9280		37.109375
9281		29.296875
9282		37.109375
9283		31.250000
9284		37.109375
9285		31.250000
9286		37.109375
9287		33.203125
9288		35.156250
9289		33.203125
9290		37.109375
9291		31.250000
9292		37.109375
9293		33.203125
9294		37.109375
9295		31.250000
9296		39.062500
9297		31.250000
9298		39.062500
9299		31.250000
9300		37.109375
9301		33.203125
9302		39.062500
9303		35.156250
9304		37.109375
9305		33.203125
9306		37.109375
9307		33.203125
9308		39.062500
9309		33.203125
9310		39.062500
9311		31.250000
9312		39.062500
9313		33.203125
9314		39.062500
9315		31.250000
9316		39.062500
9317		31.250000
9318		39.062500
9319		33.203125
9320		37.109375
9321		33.203125
9322		37.109375
9323		31.250000
9324		39.062500
9325		31.250000
9326		39.062500
9327		31.250000
9328		37.109375
9329		31.250000
9330		37.109375
9331		29.296875
9332		37.109375
9333		31.250000
9334		37.109375
9335		31.250000
9336		35.156250
9337		31.250000
9338		35.156250
9339		31.250000
9340		35.156250
9341		29.296875
9342		35.156250
9343		27.343750
9344		35.156250
9345		27.343750
9346		35.156250
9347		27.343750
9348		35.156250
9349		27.343750
9350		33.203125
9351		27.343750
9352		33.203125
9353		27.343750
9354		31.250000
9355		27.343750
9356		31.250000
9357		25.390625
9358		33.203125
9359		25.390625
9360		31.250000
9361		23.437500
9362		31.250000
9363		23.437500
9364		31.250000
9365		23.437500
9366		29.296875
9367		21.484375
9368		29.296875
9369		23.437500
9370		29.296875
9371		23.437500
9372		25.390625
9373		21.484375
9374		27.343750
9375		19.531250
9376		25.390625
9377		17.578125
9378		25.390625
9379		17.578125
9380		25.390625
9381		17.578125
9382		25.390625
9383		17.578125
9384		23.437500
9385		15.625000
9386		23.437500
9387		17.578125
9388		21.484375
9389		15.625000
9390		19.531250
9391		13.671875
9392		21.484375
9393		13.671875
9394		19.531250
9395		11.718750
9396		19.531250
9397		11.718750
9398		19.531250
9399		11.718750
9400		19.531250
9401		9.765625
9402		17.578125
9403		11.718750
9404		15.625000
9405		9.765625
9406		13.671875
9407		7.812500
9408		13.671875
9409		5.859375
9410		13.671875
9411		5.859375
9412		13.671875
9413		3.906250
9414		11.718750
9415		3.906250
9416		11.718750
9417		3.906250
9418		11.718750
9419		1.953125
9420		9.765625
9421		3.906250
9422		5.859375
9423		1.953125
9424		5.859375
9425		0.000000
9426		5.859375
9427		-1.953125
9428		5.859375
9429		-1.953125
9430		5.859375
9431		-3.906250
9432		3.906250
9433		-3.906250
9434		3.906250
9435		-3.906250
9436		1.953125
9437		-3.906250
9438		0.000000
9439		-3.906250
9440		-1.953125
9441		-7.812500
9442		0.000000
9443		-7.812500
9444		-1.953125
9445		-7.812500
9446		-1.953125
9447		-9.765625
9448		-1.953125
9449		-11.718750
9450		-3.906250
9451		-11.718750
9452		-3.906250
9453		-11.718750
9454		-3.906250
9455		-11.718750
9456		-7.812500
9457		-13.671875
9458		-7.812500
9459		-13.671875
9460		-7.812500
9461		-15.625000
9462		-7.812500
9463		-15.625000
9464		-9.765625
9465		-17.578125
9466		-9.765625
9467		-17.578125
9468		-11.718750
9469		-17.578125
9470		-11.718750
9471		-17.578125
9472		-13.671875
9473		-17.578125
9474		-15.625000
9475		-21.484375
9476		-13.671875
9477		-21.484375
9478		-13.671875
9479		-21.484375
9480		-13.671875
9481		-23.437500
9482		-15.625000
9483		-23.437500
9484		-15.625000
9485		-23.437500
9486		-15.625000
9487		-23.437500
9488		-17.578125
9489		-23.437500
9490		-19.531250
9491		-25.390625
9492		-19.531250
9493		-25.390625
9494		-19.531250
9495		-25.390625
9496		-19.531250
9497		-27.343750
9498		-19.531250
9499		-27.343750
9500		-19.531250
9501		-27.343750
9502		-21.484375
9503		-27.343750
9504		-21.484375
9505		-27.343750
9506		-23.437500
9507		-27.343750
9508		-23.437500
9509		-29.296875
9510		-21.484375
9511		-29.296875
9512		-21.484375
9513		-29.296875
9514		-21.484375
9515		-31.250000
9516		-23.437500
9517		-31.250000
9518		-23.437500
9519		-31.250000
9520		-23.437500
9521		-31.250000
9522		-23.437500
9523		-29.296875
9524		-25.390625
9525		-31.250000
9526		-25.390625
9527		-31.250000
9528		-25.390625
9529		-33.203125
9530		-25.390625
9531		-31.250000
9532		-25.390625
9533		-33.203125
9534		-25.390625
9535		-31.250000
9536		-25.390625
9537		-31.250000
9538		-25.390625
9539		-29.296875
9540		-27.343750
9541		-31.250000
9542		-27.343750
9543		-31.250000
9544		-25.390625
9545		-31.250000
9546		-25.390625
9547		-31.250000
9548		-25.390625
9549		-31.250000
9550		-25.390625
9551		-31.250000
9552		-25.390625
9553		-31.250000
9554		-23.437500
9555		-29.296875
9556		-25.390625
9557		-29.296875
9558		-25.390625
9559		-31.250000
9560		-23.437500
9561		-31.250000
9562		-23.437500
9563		-31.250000
9564		-23.437500
9565		-29.296875
9566		-23.437500
9567		-29.296875
9568		-23.437500
9569		-29.296875
9570		-21.484375
9571		-27.343750
9572		-23.437500
9573		-27.343750
9574		-23.437500
9575		-27.343750
9576		-21.484375
9577		-27.343750
9578		-21.484375
9579		-27.343750
9580		-21.484375
9581		-27.343750
9582		-19.531250
9583		-27.343750
9584		-19.531250
9585		-25.390625
9586		-17.578125
9587		-25.390625
9588		-19.531250
9589		-23.437500
9590		-19.531250
9591		-21.484375
9592		-19.531250
9593		-23.437500
9594		-17.578125
9595		-23.437500
9596		-15.625000
9597		-23.437500
9598		-15.625000
9599		-21.484375
9600		-15.625000
9601		-21.484375
9602		-15.625000
9603		-21.484375
9604		-13.671875
9605		-19.531250
9606		-13.671875
9607		-17.578125
9608		-13.671875
9609		-17.578125
9610		-11.718750
9611		-17.578125
9612		-11.718750
9613		-17.578125
9614		-9.765625
9615		-17.578125
9616		-9.765625
9617		-15.625000
9618		-9.765625
9619		-15.625000
9620		-7.812500
9621		-13.671875
9622		-7.812500
9623		-11.718750
9624		-7.812500
9625		-11.718750
9626		-5.859375
9627		-11.718750
9628		-3.906250
9629		-11.718750
9630		-3.906250
9631		-9.765625
9632		-1.953125
9633		-9.765625
9634		-3.906250
9635		-7.812500
9636		-1.953125
9637		-7.812500
9638		-1.953125
9639		-5.859375
9640		-1.953125
9641		-3.906250
9642		-1.953125
9643		-5.859375
9644		1.953125
9645		-5.859375
9646		1.953125
9647		-3.906250
9648		3.906250
9649		-3.906250
9650		3.906250
9651		-1.953125
9652		5.859375
9653		-1.953125
9654		5.859375
9655		0.000000
9656		5.859375
9657		1.953125
9658		5.859375
9659		1.953125
9660		7.812500
9661		1.953125
9662		7.812500
9663		1.953125
9664		9.765625
9665		3.906250
9666		9.765625
9667		3.906250
9668		11.718750
9669		5.859375
9670		11.718750
9671		5.859375
9672		13.671875
9673		9.765625
9674		11.718750
9675		9.765625
9676		13.671875
9677		9.765625
9678		15.625000
9679		9.765625
9680		15.625000
9681		9.765625
9682		17.578125
9683		11.718750
9684		17.578125
9685		11.718750
9686		17.578125
9687		11.718750
9688		19.531250
9689		13.671875
9690		19.531250
9691		15.625000
9692		19.531250
9693		15.625000
9694		21.484375
9695		15.625000
9696		23.437500
9697		15.625000
9698		23.437500
9699		17.578125
9700		23.437500
9701		17.578125
9702		23.437500
9703		17.578125
9704		25.390625
9705		19.531250
9706		25.390625
9707		21.484375
9708		25.390625
9709		21.484375
9710		27.343750
9711		21.484375
9712		27.343750
9713		21.484375
9714		29.296875
9715		21.484375
9716		29.296875
9717		23.437500
9718		29.296875
9719		23.437500
9720		31.250000
9721		23.437500
9722		31.250000
9723		27.343750
9724		29.296875
9725		27.343750
9726		29.296875
9727		25.390625
9728		33.203125
9729		25.390625
9730		33.203125
9731		27.343750
9732		33.203125
9733		27.343750
9734		33.203125
9735		27.343750
9736		35.156250
9737		27.343750
9738		35.156250
9739		29.296875
9740		35.156250
9741		31.250000
9742		33.203125
9743		29.296875
9744		35.156250
9745		29.296875
9746		37.109375
9747		29.296875
9748		37.109375
9749		31.250000
9750		37.109375
9751		31.250000
9752		37.109375
9753		29.296875
9754		39.062500
9755		31.250000
9756		37.109375
9757		33.203125
9758		37.109375
9759		33.203125
9760		37.109375
9761		31.250000
9762		39.062500
9763		31.250000
9764		39.062500
9765		31.250000
9766		39.062500
9767		31.250000
9768		39.062500
9769		31.250000
9770		39.062500
9771		33.203125
9772		39.062500
9773		31.250000
9774		39.062500
9775		33.203125
9776		37.109375
9777		31.250000
9778		37.109375
9779		31.250000
9780		39.062500
9781		31.250000
9782		39.062500
9783		33.203125
9784		39.062500
9785		31.250000
9786		39.062500
9787		31.250000
9788		39.062500
9789		31.250000
9790		39.062500
9791		33.203125
9792		37.109375
9793		33.203125
9794		37.109375
9795		31.250000
9796		39.062500
9797		31.250000
9798		37.109375
9799		31.250000
9800		37.109375
9801		31.250000
9802		37.109375
9803		31.250000
9804		37.109375
9805		29.296875
9806		37.109375
9807		31.250000
9808		35.156250
9809		31.250000
9810		33.203125
9811		29.296875
9812		37.109375
9813		29.296875
9814		35.156250
9815		27.343750
9816		35.156250
9817		29.296875
9818		35.156250
9819		27.343750
9820		35.156250
9821		27.343750
9822		33.203125
9823		27.343750
9824		33.203125
9825		27.343750
9826		31.250000
9827		25.390625
9828		31.250000
9829		25.390625
9830		33.203125
9831		23.437500
9832		31.250000
9833		23.437500
9834		31.250000
9835		23.437500
9836		29.296875
9837		21.484375
9838		29.296875
9839		21.484375
9840		29.296875
9841		23.437500
9842		27.343750
9843		23.437500
9844		25.390625
9845		19.531250
9846		27.343750
9847		19.531250
9848		27.343750
9849		19.531250
9850		25.390625
9851		17.578125
9852		25.390625
9853		17.578125
9854		25.390625
9855		17.578125
9856		23.437500
9857		17.578125
9858		21.484375
9859		17.578125
9860		19.531250
9861		13.671875
9862		19.531250
9863		13.671875
9864		21.484375
9865		13.671875
9866		19.531250
9867		11.718750
9868		19.531250
9869		11.718750
9870		17.578125
9871		9.765625
9872		17.578125
9873		9.765625
9874		17.578125
9875		9.765625
9876		13.671875
9877		9.765625
9878		13.671875
9879		7.812500
9880		13.671875
9881		7.812500
9882		13.671875
9883		5.859375
9884		11.718750
9885		3.906250
9886		9.765625
9887		3.906250
9888		11.718750
9889		1.953125
9890		9.765625
9891		3.906250
9892		5.859375
9893		1.953125
9894		5.859375
9895		0.000000
9896		7.812500
9897		-1.953125
9898		5.859375
9899		-1.953125
9900		5.859375
9901		-1.953125
9902		5.859375
9903		-3.906250
9904		3.906250
9905		-5.859375
9906		1.953125
9907		-3.906250
9908		1.953125
9909		-3.906250
9910		-1.953125
9911		-5.859375
9912		-1.953125
9913		-7.812500
9914		0.000000
9915		-7.812500
9916		0.000000
9917		-9.765625
9918		-1.953125
9919		-9.765625
9920		-1.953125
9921		-11.718750
9922		-3.906250
9923		-11.718750
9924		-5.859375
9925		-9.765625
9926		-7.812500
9927		-11.718750
9928		-7.812500
9929		-15.625000
9930		-7.812500
9931		-15.625000
9932		-7.812500
9933		-15.625000
9934		-9.765625
9935		-15.625000
9936		-9.765625
9937		-17.578125
9938		-9.765625
9939		-17.578125
9940		-9.765625
9941		-17.578125
9942		-11.718750
9943		-17.578125
9944		-13.671875
9945		-19.531250
9946		-13.671875
9947		-21.484375
9948		-13.671875
9949		-21.484375
9950		-13.671875
9951		-21.484375
9952		-15.625000
9953		-23.437500
9954		-15.625000
9955		-23.437500
9956		-17.578125
9957		-23.437500
9958		-17.578125
9959		-23.437500
9960		-19.531250
9961		-23.437500
9962		-19.531250
9963		-25.390625
9964		-19.531250
9965		-27.343750
9966		-19.531250
9967		-27.343750
9968		-19.531250
9969		-27.343750
9970		-19.531250
9971		-27.343750
9972		-21.484375
9973		-29.296875
9974		-21.484375
9975		-27.343750
9976		-23.437500
9977		-27.343750
9978		-23.437500
9979		-27.343750
9980		-23.437500
9981		-29.296875
9982		-23.437500
9983		-29.296875
9984		-23.437500
9985		-31.250000
9986		-23.437500
9987		-31.250000
9988		-23.437500
9989		-31.250000
9990		-23.437500
9991		-31.250000
9992		-25.390625
9993		-29.296875
9994		-25.390625
9995		-29.296875
9996		-25.390625
9997		-31.250000
9998		-25.390625
9999		-31.250000
10000		-25.390625
