Channel              :		CH1
Frequency            :		1.061kHz
Period               :		0.943ms
PK-PK                :		46.88mV
Probe attenuation    :		1X
Voltage per ADC value:		0.122070mV
Time interval        :		2.00000us

index		CH1_Voltage(mV)
1		-1.953125
2		-1.953125
3		0.000000
4		-3.906250
5		0.000000
6		-3.906250
7		0.000000
8		-3.906250
9		-1.953125
10		-5.859375
11		-1.953125
12		-5.859375
13		-1.953125
14		-5.859375
15		-1.953125
16		-7.812500
17		-3.906250
18		-5.859375
19		-3.906250
20		-7.812500
21		-3.906250
22		-7.812500
23		-3.906250
24		-7.812500
25		-3.906250
26		-7.812500
27		-5.859375
28		-9.765625
29		-5.859375
30		-9.765625
31		-5.859375
32		-9.765625
33		-5.859375
34		-9.765625
35		-7.812500
36		-9.765625
37		-7.812500
38		-11.718750
39		-7.812500
40		-11.718750
41		-7.812500
42		-11.718750
43		-7.812500
44		-11.718750
45		-9.765625
46		-13.671875
47		-9.765625
48		-13.671875
49		-9.765625
50		-13.671875
51		-9.765625
52		-13.671875
53		-9.765625
54		-13.671875
55		-9.765625
56		-13.671875
57		-11.718750
58		-13.671875
59		-11.718750
60		-13.671875
61		-11.718750
62		-13.671875
63		-11.718750
64		-15.625000
65		-11.718750
66		-15.625000
67		-11.718750
68		-15.625000
69		-11.718750
70		-15.625000
71		-11.718750
72		-15.625000
73		-13.671875
74		-15.625000
75		-13.671875
76		-15.625000
77		-13.671875
78		-15.625000
79		-13.671875
80		-15.625000
81		-13.671875
82		-17.578125
83		-11.718750
84		-15.625000
85		-13.671875
86		-15.625000
87		-13.671875
88		-17.578125
89		-13.671875
90		-17.578125
91		-13.671875
92		-17.578125
93		-13.671875
94		-17.578125
95		-13.671875
96		-17.578125
97		-13.671875
98		-17.578125
99		-13.671875
100		-15.625000
101		-13.671875
102		-15.625000
103		-13.671875
104		-17.578125
105		-13.671875
106		-15.625000
107		-13.671875
108		-17.578125
109		-13.671875
110		-15.625000
111		-13.671875
112		-17.578125
113		-11.718750
114		-15.625000
115		-13.671875
116		-15.625000
117		-13.671875
118		-15.625000
119		-13.671875
120		-15.625000
121		-13.671875
122		-15.625000
123		-11.718750
124		-15.625000
125		-11.718750
126		-15.625000
127		-11.718750
128		-15.625000
129		-11.718750
130		-15.625000
131		-11.718750
132		-15.625000
133		-11.718750
134		-13.671875
135		-11.718750
136		-13.671875
137		-11.718750
138		-13.671875
139		-9.765625
140		-13.671875
141		-9.765625
142		-13.671875
143		-9.765625
144		-13.671875
145		-9.765625
146		-11.718750
147		-9.765625
148		-11.718750
149		-9.765625
150		-13.671875
151		-9.765625
152		-11.718750
153		-7.812500
154		-11.718750
155		-7.812500
156		-11.718750
157		-7.812500
158		-9.765625
159		-7.812500
160		-11.718750
161		-7.812500
162		-9.765625
163		-5.859375
164		-9.765625
165		-5.859375
166		-9.765625
167		-3.906250
168		-7.812500
169		-5.859375
170		-7.812500
171		-5.859375
172		-7.812500
173		-3.906250
174		-7.812500
175		-3.906250
176		-5.859375
177		-3.906250
178		-5.859375
179		-1.953125
180		-5.859375
181		-1.953125
182		-5.859375
183		-1.953125
184		-3.906250
185		-1.953125
186		-3.906250
187		-1.953125
188		-3.906250
189		0.000000
190		-3.906250
191		0.000000
192		-1.953125
193		0.000000
194		-1.953125
195		1.953125
196		-1.953125
197		1.953125
198		-1.953125
199		1.953125
200		0.000000
201		1.953125
202		0.000000
203		1.953125
204		0.000000
205		3.906250
206		0.000000
207		3.906250
208		0.000000
209		3.906250
210		1.953125
211		5.859375
212		1.953125
213		5.859375
214		1.953125
215		5.859375
216		3.906250
217		5.859375
218		1.953125
219		7.812500
220		3.906250
221		7.812500
222		5.859375
223		7.812500
224		5.859375
225		7.812500
226		5.859375
227		9.765625
228		5.859375
229		9.765625
230		7.812500
231		9.765625
232		7.812500
233		11.718750
234		7.812500
235		11.718750
236		7.812500
237		11.718750
238		9.765625
239		11.718750
240		7.812500
241		11.718750
242		9.765625
243		13.671875
244		9.765625
245		13.671875
246		9.765625
247		13.671875
248		11.718750
249		15.625000
250		11.718750
251		15.625000
252		11.718750
253		15.625000
254		11.718750
255		15.625000
256		11.718750
257		15.625000
258		13.671875
259		15.625000
260		13.671875
261		17.578125
262		13.671875
263		17.578125
264		13.671875
265		17.578125
266		13.671875
267		17.578125
268		13.671875
269		17.578125
270		15.625000
271		19.531250
272		15.625000
273		19.531250
274		15.625000
275		19.531250
276		15.625000
277		19.531250
278		17.578125
279		19.531250
280		17.578125
281		19.531250
282		17.578125
283		19.531250
284		17.578125
285		21.484375
286		17.578125
287		21.484375
288		17.578125
289		21.484375
290		17.578125
291		21.484375
292		17.578125
293		21.484375
294		17.578125
295		23.437500
296		19.531250
297		21.484375
298		19.531250
299		23.437500
300		19.531250
301		23.437500
302		19.531250
303		23.437500
304		19.531250
305		23.437500
306		19.531250
307		23.437500
308		19.531250
309		23.437500
310		19.531250
311		23.437500
312		19.531250
313		23.437500
314		19.531250
315		23.437500
316		19.531250
317		23.437500
318		19.531250
319		23.437500
320		21.484375
321		23.437500
322		21.484375
323		23.437500
324		19.531250
325		23.437500
326		19.531250
327		23.437500
328		21.484375
329		23.437500
330		21.484375
331		23.437500
332		21.484375
333		23.437500
334		21.484375
335		23.437500
336		19.531250
337		23.437500
338		21.484375
339		23.437500
340		19.531250
341		25.390625
342		21.484375
343		23.437500
344		21.484375
345		23.437500
346		19.531250
347		23.437500
348		19.531250
349		23.437500
350		19.531250
351		23.437500
352		19.531250
353		23.437500
354		19.531250
355		23.437500
356		19.531250
357		23.437500
358		19.531250
359		23.437500
360		19.531250
361		23.437500
362		19.531250
363		21.484375
364		19.531250
365		23.437500
366		17.578125
367		21.484375
368		17.578125
369		23.437500
370		17.578125
371		21.484375
372		17.578125
373		21.484375
374		17.578125
375		21.484375
376		17.578125
377		21.484375
378		17.578125
379		19.531250
380		17.578125
381		19.531250
382		17.578125
383		19.531250
384		17.578125
385		19.531250
386		15.625000
387		19.531250
388		15.625000
389		19.531250
390		15.625000
391		19.531250
392		15.625000
393		19.531250
394		15.625000
395		17.578125
396		15.625000
397		17.578125
398		13.671875
399		17.578125
400		13.671875
401		17.578125
402		13.671875
403		15.625000
404		13.671875
405		15.625000
406		13.671875
407		15.625000
408		11.718750
409		15.625000
410		11.718750
411		15.625000
412		11.718750
413		13.671875
414		9.765625
415		15.625000
416		11.718750
417		13.671875
418		9.765625
419		13.671875
420		9.765625
421		13.671875
422		9.765625
423		11.718750
424		9.765625
425		13.671875
426		7.812500
427		11.718750
428		7.812500
429		11.718750
430		7.812500
431		9.765625
432		7.812500
433		9.765625
434		5.859375
435		9.765625
436		5.859375
437		9.765625
438		5.859375
439		7.812500
440		5.859375
441		7.812500
442		3.906250
443		7.812500
444		3.906250
445		7.812500
446		3.906250
447		7.812500
448		3.906250
449		5.859375
450		1.953125
451		5.859375
452		1.953125
453		5.859375
454		1.953125
455		3.906250
456		1.953125
457		3.906250
458		0.000000
459		3.906250
460		0.000000
461		3.906250
462		0.000000
463		1.953125
464		-1.953125
465		1.953125
466		-1.953125
467		1.953125
468		-1.953125
469		1.953125
470		-1.953125
471		1.953125
472		-1.953125
473		0.000000
474		-3.906250
475		0.000000
476		-3.906250
477		-1.953125
478		-3.906250
479		0.000000
480		-3.906250
481		-1.953125
482		-5.859375
483		-1.953125
484		-5.859375
485		-1.953125
486		-5.859375
487		-1.953125
488		-5.859375
489		-3.906250
490		-7.812500
491		-3.906250
492		-7.812500
493		-3.906250
494		-7.812500
495		-5.859375
496		-7.812500
497		-5.859375
498		-9.765625
499		-5.859375
500		-9.765625
501		-5.859375
502		-9.765625
503		-5.859375
504		-9.765625
505		-7.812500
506		-9.765625
507		-7.812500
508		-11.718750
509		-7.812500
510		-11.718750
511		-7.812500
512		-11.718750
513		-7.812500
514		-11.718750
515		-9.765625
516		-11.718750
517		-9.765625
518		-13.671875
519		-9.765625
520		-13.671875
521		-9.765625
522		-13.671875
523		-9.765625
524		-13.671875
525		-9.765625
526		-13.671875
527		-9.765625
528		-13.671875
529		-11.718750
530		-13.671875
531		-11.718750
532		-15.625000
533		-11.718750
534		-15.625000
535		-11.718750
536		-15.625000
537		-11.718750
538		-15.625000
539		-11.718750
540		-15.625000
541		-13.671875
542		-17.578125
543		-11.718750
544		-15.625000
545		-13.671875
546		-15.625000
547		-13.671875
548		-15.625000
549		-13.671875
550		-15.625000
551		-13.671875
552		-15.625000
553		-13.671875
554		-17.578125
555		-13.671875
556		-15.625000
557		-13.671875
558		-17.578125
559		-13.671875
560		-17.578125
561		-13.671875
562		-17.578125
563		-13.671875
564		-17.578125
565		-13.671875
566		-17.578125
567		-13.671875
568		-17.578125
569		-13.671875
570		-17.578125
571		-13.671875
572		-17.578125
573		-13.671875
574		-15.625000
575		-13.671875
576		-17.578125
577		-13.671875
578		-17.578125
579		-13.671875
580		-17.578125
581		-13.671875
582		-15.625000
583		-11.718750
584		-15.625000
585		-13.671875
586		-17.578125
587		-13.671875
588		-17.578125
589		-11.718750
590		-15.625000
591		-13.671875
592		-15.625000
593		-13.671875
594		-15.625000
595		-11.718750
596		-15.625000
597		-11.718750
598		-15.625000
599		-11.718750
600		-15.625000
601		-11.718750
602		-15.625000
603		-11.718750
604		-13.671875
605		-11.718750
606		-13.671875
607		-11.718750
608		-13.671875
609		-11.718750
610		-13.671875
611		-11.718750
612		-13.671875
613		-9.765625
614		-13.671875
615		-9.765625
616		-13.671875
617		-9.765625
618		-13.671875
619		-9.765625
620		-13.671875
621		-7.812500
622		-11.718750
623		-7.812500
624		-11.718750
625		-7.812500
626		-11.718750
627		-7.812500
628		-9.765625
629		-7.812500
630		-9.765625
631		-7.812500
632		-9.765625
633		-7.812500
634		-9.765625
635		-5.859375
636		-9.765625
637		-5.859375
638		-9.765625
639		-5.859375
640		-7.812500
641		-3.906250
642		-7.812500
643		-3.906250
644		-7.812500
645		-3.906250
646		-7.812500
647		-3.906250
648		-5.859375
649		-3.906250
650		-5.859375
651		-3.906250
652		-5.859375
653		-1.953125
654		-5.859375
655		-1.953125
656		-3.906250
657		-1.953125
658		-3.906250
659		-1.953125
660		-3.906250
661		0.000000
662		-1.953125
663		0.000000
664		-1.953125
665		0.000000
666		-1.953125
667		1.953125
668		-1.953125
669		1.953125
670		-1.953125
671		1.953125
672		0.000000
673		1.953125
674		0.000000
675		3.906250
676		0.000000
677		3.906250
678		1.953125
679		3.906250
680		1.953125
681		3.906250
682		1.953125
683		5.859375
684		1.953125
685		5.859375
686		1.953125
687		5.859375
688		3.906250
689		5.859375
690		3.906250
691		7.812500
692		3.906250
693		9.765625
694		3.906250
695		7.812500
696		5.859375
697		9.765625
698		5.859375
699		9.765625
700		5.859375
701		9.765625
702		5.859375
703		9.765625
704		7.812500
705		11.718750
706		7.812500
707		11.718750
708		9.765625
709		11.718750
710		9.765625
711		11.718750
712		9.765625
713		11.718750
714		9.765625
715		13.671875
716		9.765625
717		13.671875
718		11.718750
719		13.671875
720		11.718750
721		13.671875
722		11.718750
723		15.625000
724		11.718750
725		15.625000
726		13.671875
727		15.625000
728		13.671875
729		15.625000
730		13.671875
731		15.625000
732		13.671875
733		17.578125
734		13.671875
735		17.578125
736		13.671875
737		17.578125
738		13.671875
739		19.531250
740		15.625000
741		17.578125
742		15.625000
743		19.531250
744		15.625000
745		19.531250
746		15.625000
747		19.531250
748		17.578125
749		19.531250
750		15.625000
751		21.484375
752		17.578125
753		21.484375
754		17.578125
755		21.484375
756		17.578125
757		21.484375
758		17.578125
759		21.484375
760		17.578125
761		21.484375
762		19.531250
763		21.484375
764		17.578125
765		21.484375
766		19.531250
767		21.484375
768		19.531250
769		21.484375
770		19.531250
771		23.437500
772		19.531250
773		23.437500
774		19.531250
775		23.437500
776		19.531250
777		23.437500
778		19.531250
779		23.437500
780		19.531250
781		23.437500
782		19.531250
783		23.437500
784		19.531250
785		23.437500
786		21.484375
787		23.437500
788		19.531250
789		25.390625
790		21.484375
791		23.437500
792		21.484375
793		23.437500
794		21.484375
795		25.390625
796		21.484375
797		23.437500
798		21.484375
799		23.437500
800		21.484375
801		23.437500
802		21.484375
803		23.437500
804		21.484375
805		23.437500
806		21.484375
807		25.390625
808		21.484375
809		23.437500
810		19.531250
811		23.437500
812		21.484375
813		23.437500
814		21.484375
815		23.437500
816		21.484375
817		23.437500
818		19.531250
819		23.437500
820		21.484375
821		23.437500
822		19.531250
823		23.437500
824		19.531250
825		23.437500
826		19.531250
827		23.437500
828		19.531250
829		23.437500
830		19.531250
831		23.437500
832		19.531250
833		23.437500
834		19.531250
835		23.437500
836		19.531250
837		23.437500
838		17.578125
839		21.484375
840		19.531250
841		21.484375
842		19.531250
843		21.484375
844		17.578125
845		21.484375
846		17.578125
847		21.484375
848		17.578125
849		21.484375
850		17.578125
851		19.531250
852		17.578125
853		19.531250
854		17.578125
855		19.531250
856		15.625000
857		19.531250
858		15.625000
859		19.531250
860		15.625000
861		19.531250
862		15.625000
863		19.531250
864		15.625000
865		17.578125
866		15.625000
867		17.578125
868		13.671875
869		17.578125
870		13.671875
871		17.578125
872		13.671875
873		17.578125
874		13.671875
875		15.625000
876		13.671875
877		15.625000
878		11.718750
879		15.625000
880		11.718750
881		15.625000
882		11.718750
883		15.625000
884		11.718750
885		15.625000
886		11.718750
887		13.671875
888		9.765625
889		13.671875
890		9.765625
891		13.671875
892		9.765625
893		11.718750
894		7.812500
895		13.671875
896		7.812500
897		11.718750
898		7.812500
899		11.718750
900		7.812500
901		11.718750
902		7.812500
903		9.765625
904		7.812500
905		9.765625
906		5.859375
907		9.765625
908		5.859375
909		7.812500
910		5.859375
911		7.812500
912		3.906250
913		7.812500
914		3.906250
915		7.812500
916		3.906250
917		7.812500
918		3.906250
919		5.859375
920		3.906250
921		5.859375
922		1.953125
923		5.859375
924		1.953125
925		5.859375
926		1.953125
927		3.906250
928		0.000000
929		3.906250
930		0.000000
931		3.906250
932		0.000000
933		3.906250
934		0.000000
935		1.953125
936		-1.953125
937		1.953125
938		-1.953125
939		1.953125
940		-1.953125
941		1.953125
942		-1.953125
943		0.000000
944		-3.906250
945		0.000000
946		-3.906250
947		0.000000
948		-3.906250
949		0.000000
950		-3.906250
951		-1.953125
952		-5.859375
953		-1.953125
954		-5.859375
955		-1.953125
956		-5.859375
957		-1.953125
958		-5.859375
959		-3.906250
960		-5.859375
961		-3.906250
962		-7.812500
963		-3.906250
964		-7.812500
965		-3.906250
966		-7.812500
967		-3.906250
968		-9.765625
969		-5.859375
970		-7.812500
971		-5.859375
972		-9.765625
973		-5.859375
974		-9.765625
975		-5.859375
976		-9.765625
977		-7.812500
978		-11.718750
979		-7.812500
980		-11.718750
981		-7.812500
982		-11.718750
983		-7.812500
984		-11.718750
985		-9.765625
986		-11.718750
987		-9.765625
988		-13.671875
989		-7.812500
990		-13.671875
991		-9.765625
992		-13.671875
993		-9.765625
994		-13.671875
995		-9.765625
996		-13.671875
997		-9.765625
998		-13.671875
999		-11.718750
1000		-15.625000
1001		-9.765625
1002		-13.671875
1003		-11.718750
1004		-13.671875
1005		-11.718750
1006		-15.625000
1007		-11.718750
1008		-15.625000
1009		-11.718750
1010		-15.625000
1011		-11.718750
1012		-15.625000
1013		-11.718750
1014		-15.625000
1015		-13.671875
1016		-15.625000
1017		-13.671875
1018		-15.625000
1019		-13.671875
1020		-15.625000
1021		-13.671875
1022		-15.625000
1023		-13.671875
1024		-15.625000
1025		-13.671875
1026		-15.625000
1027		-13.671875
1028		-15.625000
1029		-13.671875
1030		-17.578125
1031		-11.718750
1032		-17.578125
1033		-13.671875
1034		-17.578125
1035		-13.671875
1036		-17.578125
1037		-13.671875
1038		-17.578125
1039		-13.671875
1040		-17.578125
1041		-13.671875
1042		-17.578125
1043		-13.671875
1044		-15.625000
1045		-13.671875
1046		-17.578125
1047		-13.671875
1048		-17.578125
1049		-13.671875
1050		-17.578125
1051		-13.671875
1052		-15.625000
1053		-13.671875
1054		-15.625000
1055		-13.671875
1056		-15.625000
1057		-13.671875
1058		-17.578125
1059		-13.671875
1060		-15.625000
1061		-13.671875
1062		-15.625000
1063		-11.718750
1064		-15.625000
1065		-11.718750
1066		-15.625000
1067		-13.671875
1068		-15.625000
1069		-11.718750
1070		-15.625000
1071		-11.718750
1072		-15.625000
1073		-11.718750
1074		-15.625000
1075		-9.765625
1076		-13.671875
1077		-11.718750
1078		-13.671875
1079		-11.718750
1080		-13.671875
1081		-9.765625
1082		-13.671875
1083		-9.765625
1084		-13.671875
1085		-9.765625
1086		-13.671875
1087		-9.765625
1088		-13.671875
1089		-9.765625
1090		-11.718750
1091		-9.765625
1092		-11.718750
1093		-7.812500
1094		-11.718750
1095		-7.812500
1096		-11.718750
1097		-7.812500
1098		-9.765625
1099		-7.812500
1100		-11.718750
1101		-7.812500
1102		-11.718750
1103		-5.859375
1104		-9.765625
1105		-5.859375
1106		-9.765625
1107		-5.859375
1108		-9.765625
1109		-5.859375
1110		-7.812500
1111		-5.859375
1112		-7.812500
1113		-5.859375
1114		-7.812500
1115		-3.906250
1116		-7.812500
1117		-3.906250
1118		-5.859375
1119		-3.906250
1120		-5.859375
1121		-1.953125
1122		-5.859375
1123		-1.953125
1124		-5.859375
1125		-1.953125
1126		-3.906250
1127		-1.953125
1128		-3.906250
1129		-1.953125
1130		-3.906250
1131		0.000000
1132		-3.906250
1133		0.000000
1134		-3.906250
1135		0.000000
1136		-1.953125
1137		0.000000
1138		-1.953125
1139		1.953125
1140		-1.953125
1141		1.953125
1142		-1.953125
1143		1.953125
1144		0.000000
1145		1.953125
1146		0.000000
1147		3.906250
1148		0.000000
1149		3.906250
1150		1.953125
1151		3.906250
1152		1.953125
1153		5.859375
1154		1.953125
1155		5.859375
1156		1.953125
1157		5.859375
1158		3.906250
1159		7.812500
1160		3.906250
1161		5.859375
1162		3.906250
1163		7.812500
1164		3.906250
1165		7.812500
1166		5.859375
1167		7.812500
1168		3.906250
1169		9.765625
1170		5.859375
1171		9.765625
1172		5.859375
1173		9.765625
1174		7.812500
1175		9.765625
1176		7.812500
1177		11.718750
1178		7.812500
1179		11.718750
1180		9.765625
1181		11.718750
1182		7.812500
1183		11.718750
1184		9.765625
1185		13.671875
1186		9.765625
1187		13.671875
1188		9.765625
1189		13.671875
1190		11.718750
1191		13.671875
1192		9.765625
1193		15.625000
1194		11.718750
1195		15.625000
1196		11.718750
1197		15.625000
1198		11.718750
1199		15.625000
1200		13.671875
1201		15.625000
1202		13.671875
1203		17.578125
1204		13.671875
1205		17.578125
1206		15.625000
1207		17.578125
1208		13.671875
1209		17.578125
1210		15.625000
1211		19.531250
1212		15.625000
1213		17.578125
1214		15.625000
1215		19.531250
1216		15.625000
1217		19.531250
1218		15.625000
1219		19.531250
1220		17.578125
1221		19.531250
1222		15.625000
1223		19.531250
1224		17.578125
1225		19.531250
1226		17.578125
1227		21.484375
1228		17.578125
1229		21.484375
1230		17.578125
1231		21.484375
1232		17.578125
1233		21.484375
1234		19.531250
1235		21.484375
1236		19.531250
1237		21.484375
1238		19.531250
1239		21.484375
1240		19.531250
1241		21.484375
1242		19.531250
1243		23.437500
1244		19.531250
1245		23.437500
1246		19.531250
1247		23.437500
1248		19.531250
1249		23.437500
1250		19.531250
1251		23.437500
1252		19.531250
1253		23.437500
1254		19.531250
1255		23.437500
1256		21.484375
1257		23.437500
1258		21.484375
1259		23.437500
1260		19.531250
1261		25.390625
1262		21.484375
1263		23.437500
1264		21.484375
1265		25.390625
1266		19.531250
1267		23.437500
1268		21.484375
1269		25.390625
1270		21.484375
1271		23.437500
1272		19.531250
1273		23.437500
1274		21.484375
1275		23.437500
1276		19.531250
1277		25.390625
1278		21.484375
1279		23.437500
1280		21.484375
1281		23.437500
1282		21.484375
1283		25.390625
1284		21.484375
1285		23.437500
1286		19.531250
1287		23.437500
1288		19.531250
1289		23.437500
1290		19.531250
1291		23.437500
1292		19.531250
1293		23.437500
1294		19.531250
1295		23.437500
1296		19.531250
1297		23.437500
1298		19.531250
1299		23.437500
1300		19.531250
1301		23.437500
1302		19.531250
1303		23.437500
1304		19.531250
1305		23.437500
1306		17.578125
1307		21.484375
1308		17.578125
1309		21.484375
1310		17.578125
1311		21.484375
1312		19.531250
1313		21.484375
1314		17.578125
1315		21.484375
1316		17.578125
1317		21.484375
1318		17.578125
1319		21.484375
1320		17.578125
1321		21.484375
1322		17.578125
1323		19.531250
1324		17.578125
1325		19.531250
1326		15.625000
1327		19.531250
1328		17.578125
1329		19.531250
1330		15.625000
1331		19.531250
1332		15.625000
1333		19.531250
1334		15.625000
1335		17.578125
1336		15.625000
1337		17.578125
1338		13.671875
1339		17.578125
1340		13.671875
1341		17.578125
1342		13.671875
1343		17.578125
1344		13.671875
1345		17.578125
1346		13.671875
1347		15.625000
1348		11.718750
1349		15.625000
1350		11.718750
1351		15.625000
1352		11.718750
1353		13.671875
1354		11.718750
1355		15.625000
1356		9.765625
1357		13.671875
1358		9.765625
1359		13.671875
1360		9.765625
1361		13.671875
1362		9.765625
1363		13.671875
1364		9.765625
1365		11.718750
1366		7.812500
1367		11.718750
1368		7.812500
1369		11.718750
1370		7.812500
1371		11.718750
1372		7.812500
1373		9.765625
1374		7.812500
1375		9.765625
1376		5.859375
1377		9.765625
1378		5.859375
1379		9.765625
1380		5.859375
1381		7.812500
1382		3.906250
1383		9.765625
1384		3.906250
1385		7.812500
1386		3.906250
1387		7.812500
1388		3.906250
1389		7.812500
1390		3.906250
1391		5.859375
1392		1.953125
1393		5.859375
1394		1.953125
1395		5.859375
1396		1.953125
1397		3.906250
1398		0.000000
1399		3.906250
1400		0.000000
1401		3.906250
1402		0.000000
1403		3.906250
1404		0.000000
1405		1.953125
1406		-1.953125
1407		1.953125
1408		-1.953125
1409		1.953125
1410		-1.953125
1411		1.953125
1412		-1.953125
1413		0.000000
1414		-1.953125
1415		0.000000
1416		-3.906250
1417		0.000000
1418		-3.906250
1419		0.000000
1420		-3.906250
1421		-1.953125
1422		-3.906250
1423		0.000000
1424		-5.859375
1425		-1.953125
1426		-5.859375
1427		-1.953125
1428		-5.859375
1429		-1.953125
1430		-5.859375
1431		-3.906250
1432		-7.812500
1433		-3.906250
1434		-7.812500
1435		-3.906250
1436		-7.812500
1437		-3.906250
1438		-7.812500
1439		-5.859375
1440		-9.765625
1441		-5.859375
1442		-9.765625
1443		-5.859375
1444		-9.765625
1445		-5.859375
1446		-9.765625
1447		-7.812500
1448		-9.765625
1449		-7.812500
1450		-11.718750
1451		-7.812500
1452		-11.718750
1453		-7.812500
1454		-11.718750
1455		-7.812500
1456		-11.718750
1457		-9.765625
1458		-13.671875
1459		-9.765625
1460		-13.671875
1461		-9.765625
1462		-11.718750
1463		-9.765625
1464		-13.671875
1465		-9.765625
1466		-13.671875
1467		-9.765625
1468		-13.671875
1469		-9.765625
1470		-13.671875
1471		-11.718750
1472		-13.671875
1473		-11.718750
1474		-13.671875
1475		-11.718750
1476		-15.625000
1477		-11.718750
1478		-15.625000
1479		-11.718750
1480		-15.625000
1481		-11.718750
1482		-15.625000
1483		-11.718750
1484		-15.625000
1485		-11.718750
1486		-15.625000
1487		-11.718750
1488		-15.625000
1489		-13.671875
1490		-17.578125
1491		-11.718750
1492		-15.625000
1493		-13.671875
1494		-17.578125
1495		-13.671875
1496		-15.625000
1497		-13.671875
1498		-15.625000
1499		-13.671875
1500		-17.578125
1501		-13.671875
1502		-17.578125
1503		-13.671875
1504		-17.578125
1505		-13.671875
1506		-15.625000
1507		-13.671875
1508		-17.578125
1509		-13.671875
1510		-17.578125
1511		-13.671875
1512		-17.578125
1513		-13.671875
1514		-15.625000
1515		-13.671875
1516		-17.578125
1517		-11.718750
1518		-17.578125
1519		-13.671875
1520		-17.578125
1521		-13.671875
1522		-15.625000
1523		-13.671875
1524		-15.625000
1525		-13.671875
1526		-15.625000
1527		-13.671875
1528		-15.625000
1529		-11.718750
1530		-15.625000
1531		-13.671875
1532		-15.625000
1533		-13.671875
1534		-15.625000
1535		-11.718750
1536		-15.625000
1537		-11.718750
1538		-15.625000
1539		-11.718750
1540		-13.671875
1541		-11.718750
1542		-15.625000
1543		-11.718750
1544		-13.671875
1545		-11.718750
1546		-15.625000
1547		-9.765625
1548		-13.671875
1549		-11.718750
1550		-13.671875
1551		-11.718750
1552		-13.671875
1553		-9.765625
1554		-13.671875
1555		-9.765625
1556		-11.718750
1557		-9.765625
1558		-11.718750
1559		-9.765625
1560		-11.718750
1561		-7.812500
1562		-11.718750
1563		-7.812500
1564		-11.718750
1565		-9.765625
1566		-11.718750
1567		-7.812500
1568		-11.718750
1569		-7.812500
1570		-9.765625
1571		-7.812500
1572		-9.765625
1573		-7.812500
1574		-9.765625
1575		-5.859375
1576		-9.765625
1577		-5.859375
1578		-9.765625
1579		-5.859375
1580		-7.812500
1581		-5.859375
1582		-7.812500
1583		-5.859375
1584		-7.812500
1585		-3.906250
1586		-7.812500
1587		-3.906250
1588		-5.859375
1589		-3.906250
1590		-5.859375
1591		-1.953125
1592		-5.859375
1593		-1.953125
1594		-5.859375
1595		-1.953125
1596		-5.859375
1597		-1.953125
1598		-3.906250
1599		-1.953125
1600		-3.906250
1601		0.000000
1602		-1.953125
1603		0.000000
1604		-1.953125
1605		0.000000
1606		-3.906250
1607		0.000000
1608		-1.953125
1609		1.953125
1610		-1.953125
1611		1.953125
1612		-1.953125
1613		3.906250
1614		0.000000
1615		1.953125
1616		0.000000
1617		3.906250
1618		0.000000
1619		3.906250
1620		0.000000
1621		3.906250
1622		1.953125
1623		5.859375
1624		1.953125
1625		5.859375
1626		1.953125
1627		5.859375
1628		3.906250
1629		5.859375
1630		3.906250
1631		7.812500
1632		3.906250
1633		7.812500
1634		3.906250
1635		7.812500
1636		5.859375
1637		7.812500
1638		5.859375
1639		7.812500
1640		5.859375
1641		9.765625
1642		5.859375
1643		9.765625
1644		7.812500
1645		11.718750
1646		7.812500
1647		11.718750
1648		7.812500
1649		11.718750
1650		9.765625
1651		11.718750
1652		9.765625
1653		11.718750
1654		9.765625
1655		13.671875
1656		9.765625
1657		13.671875
1658		11.718750
1659		13.671875
1660		11.718750
1661		13.671875
1662		11.718750
1663		15.625000
1664		11.718750
1665		15.625000
1666		13.671875
1667		15.625000
1668		11.718750
1669		15.625000
1670		13.671875
1671		15.625000
1672		13.671875
1673		17.578125
1674		13.671875
1675		17.578125
1676		15.625000
1677		17.578125
1678		13.671875
1679		17.578125
1680		13.671875
1681		19.531250
1682		15.625000
1683		17.578125
1684		15.625000
1685		19.531250
1686		15.625000
1687		19.531250
1688		17.578125
1689		19.531250
1690		17.578125
1691		19.531250
1692		17.578125
1693		19.531250
1694		17.578125
1695		21.484375
1696		17.578125
1697		21.484375
1698		17.578125
1699		21.484375
1700		17.578125
1701		21.484375
1702		17.578125
1703		21.484375
1704		19.531250
1705		21.484375
1706		19.531250
1707		21.484375
1708		19.531250
1709		23.437500
1710		19.531250
1711		23.437500
1712		19.531250
1713		23.437500
1714		19.531250
1715		23.437500
1716		19.531250
1717		23.437500
1718		19.531250
1719		23.437500
1720		21.484375
1721		23.437500
1722		21.484375
1723		23.437500
1724		21.484375
1725		23.437500
1726		21.484375
1727		23.437500
1728		21.484375
1729		23.437500
1730		21.484375
1731		23.437500
1732		21.484375
1733		23.437500
1734		21.484375
1735		23.437500
1736		19.531250
1737		25.390625
1738		21.484375
1739		25.390625
1740		21.484375
1741		23.437500
1742		21.484375
1743		23.437500
1744		21.484375
1745		23.437500
1746		21.484375
1747		23.437500
1748		19.531250
1749		23.437500
1750		21.484375
1751		23.437500
1752		21.484375
1753		23.437500
1754		21.484375
1755		23.437500
1756		21.484375
1757		23.437500
1758		21.484375
1759		23.437500
1760		21.484375
1761		23.437500
1762		21.484375
1763		23.437500
1764		19.531250
1765		23.437500
1766		19.531250
1767		23.437500
1768		19.531250
1769		23.437500
1770		19.531250
1771		23.437500
1772		19.531250
1773		23.437500
1774		19.531250
1775		23.437500
1776		19.531250
1777		23.437500
1778		19.531250
1779		23.437500
1780		19.531250
1781		21.484375
1782		19.531250
1783		21.484375
1784		19.531250
1785		21.484375
1786		17.578125
1787		21.484375
1788		17.578125
1789		21.484375
1790		17.578125
1791		21.484375
1792		17.578125
1793		21.484375
1794		17.578125
1795		21.484375
1796		17.578125
1797		19.531250
1798		17.578125
1799		19.531250
1800		17.578125
1801		19.531250
1802		15.625000
1803		19.531250
1804		15.625000
1805		19.531250
1806		15.625000
1807		19.531250
1808		15.625000
1809		17.578125
1810		15.625000
1811		17.578125
1812		13.671875
1813		17.578125
1814		13.671875
1815		17.578125
1816		13.671875
1817		15.625000
1818		13.671875
1819		15.625000
1820		11.718750
1821		15.625000
1822		11.718750
1823		15.625000
1824		11.718750
1825		15.625000
1826		11.718750
1827		15.625000
1828		11.718750
1829		13.671875
1830		9.765625
1831		13.671875
1832		9.765625
1833		13.671875
1834		9.765625
1835		11.718750
1836		9.765625
1837		11.718750
1838		7.812500
1839		11.718750
1840		7.812500
1841		11.718750
1842		7.812500
1843		11.718750
1844		7.812500
1845		9.765625
1846		7.812500
1847		9.765625
1848		5.859375
1849		9.765625
1850		5.859375
1851		9.765625
1852		3.906250
1853		9.765625
1854		5.859375
1855		7.812500
1856		3.906250
1857		7.812500
1858		3.906250
1859		7.812500
1860		3.906250
1861		7.812500
1862		3.906250
1863		5.859375
1864		1.953125
1865		5.859375
1866		1.953125
1867		5.859375
1868		1.953125
1869		3.906250
1870		0.000000
1871		3.906250
1872		0.000000
1873		3.906250
1874		0.000000
1875		3.906250
1876		0.000000
1877		1.953125
1878		-1.953125
1879		1.953125
1880		-1.953125
1881		1.953125
1882		-1.953125
1883		1.953125
1884		-1.953125
1885		0.000000
1886		-3.906250
1887		0.000000
1888		-3.906250
1889		0.000000
1890		-3.906250
1891		0.000000
1892		-3.906250
1893		-1.953125
1894		-3.906250
1895		-1.953125
1896		-5.859375
1897		-1.953125
1898		-5.859375
1899		-1.953125
1900		-5.859375
1901		-3.906250
1902		-5.859375
1903		-3.906250
1904		-7.812500
1905		-3.906250
1906		-7.812500
1907		-3.906250
1908		-7.812500
1909		-3.906250
1910		-9.765625
1911		-5.859375
1912		-7.812500
1913		-5.859375
1914		-9.765625
1915		-5.859375
1916		-9.765625
1917		-5.859375
1918		-9.765625
1919		-7.812500
1920		-9.765625
1921		-7.812500
1922		-9.765625
1923		-7.812500
1924		-11.718750
1925		-7.812500
1926		-11.718750
1927		-7.812500
1928		-11.718750
1929		-7.812500
1930		-11.718750
1931		-9.765625
1932		-13.671875
1933		-7.812500
1934		-11.718750
1935		-9.765625
1936		-13.671875
1937		-9.765625
1938		-13.671875
1939		-9.765625
1940		-13.671875
1941		-9.765625
1942		-13.671875
1943		-11.718750
1944		-13.671875
1945		-11.718750
1946		-13.671875
1947		-11.718750
1948		-15.625000
1949		-11.718750
1950		-13.671875
1951		-11.718750
1952		-15.625000
1953		-11.718750
1954		-15.625000
1955		-11.718750
1956		-15.625000
1957		-11.718750
1958		-15.625000
1959		-11.718750
1960		-15.625000
1961		-13.671875
1962		-15.625000
1963		-13.671875
1964		-15.625000
1965		-11.718750
1966		-15.625000
1967		-11.718750
1968		-15.625000
1969		-13.671875
1970		-15.625000
1971		-11.718750
1972		-17.578125
1973		-13.671875
1974		-17.578125
1975		-13.671875
1976		-15.625000
1977		-13.671875
1978		-15.625000
1979		-13.671875
1980		-15.625000
1981		-13.671875
1982		-17.578125
1983		-13.671875
1984		-15.625000
1985		-13.671875
1986		-15.625000
1987		-13.671875
1988		-15.625000
1989		-13.671875
1990		-15.625000
1991		-13.671875
1992		-15.625000
1993		-13.671875
1994		-17.578125
1995		-11.718750
1996		-15.625000
1997		-13.671875
1998		-15.625000
1999		-13.671875
2000		-15.625000
2001		-11.718750
2002		-15.625000
2003		-13.671875
2004		-15.625000
2005		-11.718750
2006		-15.625000
2007		-11.718750
2008		-15.625000
2009		-11.718750
2010		-13.671875
2011		-11.718750
2012		-15.625000
2013		-11.718750
2014		-13.671875
2015		-11.718750
2016		-13.671875
2017		-11.718750
2018		-13.671875
2019		-11.718750
2020		-13.671875
2021		-11.718750
2022		-13.671875
2023		-9.765625
2024		-13.671875
2025		-9.765625
2026		-13.671875
2027		-9.765625
2028		-13.671875
2029		-9.765625
2030		-11.718750
2031		-9.765625
2032		-11.718750
2033		-7.812500
2034		-11.718750
2035		-7.812500
2036		-11.718750
2037		-7.812500
2038		-9.765625
2039		-7.812500
2040		-11.718750
2041		-7.812500
2042		-9.765625
2043		-5.859375
2044		-9.765625
2045		-5.859375
2046		-9.765625
2047		-5.859375
2048		-9.765625
2049		-5.859375
2050		-9.765625
2051		-3.906250
2052		-7.812500
2053		-5.859375
2054		-7.812500
2055		-3.906250
2056		-7.812500
2057		-3.906250
2058		-5.859375
2059		-3.906250
2060		-5.859375
2061		-3.906250
2062		-7.812500
2063		-1.953125
2064		-5.859375
2065		-1.953125
2066		-3.906250
2067		-1.953125
2068		-3.906250
2069		-1.953125
2070		-3.906250
2071		-1.953125
2072		-3.906250
2073		0.000000
2074		-1.953125
2075		0.000000
2076		-1.953125
2077		0.000000
2078		-1.953125
2079		1.953125
2080		-1.953125
2081		1.953125
2082		0.000000
2083		1.953125
2084		-1.953125
2085		1.953125
2086		0.000000
2087		3.906250
2088		-1.953125
2089		3.906250
2090		0.000000
2091		5.859375
2092		1.953125
2093		5.859375
2094		1.953125
2095		5.859375
2096		1.953125
2097		5.859375
2098		1.953125
2099		5.859375
2100		3.906250
2101		7.812500
2102		3.906250
2103		7.812500
2104		3.906250
2105		7.812500
2106		3.906250
2107		9.765625
2108		3.906250
2109		9.765625
2110		5.859375
2111		9.765625
2112		5.859375
2113		9.765625
2114		7.812500
2115		9.765625
2116		5.859375
2117		11.718750
2118		7.812500
2119		11.718750
2120		7.812500
2121		11.718750
2122		7.812500
2123		13.671875
2124		7.812500
2125		13.671875
2126		9.765625
2127		13.671875
2128		9.765625
2129		13.671875
2130		9.765625
2131		15.625000
2132		9.765625
2133		15.625000
2134		11.718750
2135		15.625000
2136		11.718750
2137		15.625000
2138		11.718750
2139		17.578125
2140		11.718750
2141		17.578125
2142		11.718750
2143		17.578125
2144		13.671875
2145		17.578125
2146		13.671875
2147		17.578125
2148		15.625000
2149		17.578125
2150		13.671875
2151		19.531250
2152		15.625000
2153		17.578125
2154		15.625000
2155		17.578125
2156		13.671875
2157		21.484375
2158		15.625000
2159		21.484375
2160		15.625000
2161		21.484375
2162		15.625000
2163		21.484375
2164		17.578125
2165		19.531250
2166		15.625000
2167		21.484375
2168		17.578125
2169		21.484375
2170		17.578125
2171		21.484375
2172		17.578125
2173		21.484375
2174		17.578125
2175		23.437500
2176		17.578125
2177		23.437500
2178		17.578125
2179		23.437500
2180		17.578125
2181		23.437500
2182		17.578125
2183		23.437500
2184		17.578125
2185		25.390625
2186		19.531250
2187		23.437500
2188		19.531250
2189		23.437500
2190		19.531250
2191		25.390625
2192		19.531250
2193		25.390625
2194		19.531250
2195		25.390625
2196		19.531250
2197		25.390625
2198		19.531250
2199		25.390625
2200		19.531250
2201		25.390625
2202		19.531250
2203		25.390625
2204		21.484375
2205		23.437500
2206		19.531250
2207		25.390625
2208		19.531250
2209		25.390625
2210		19.531250
2211		25.390625
2212		19.531250
2213		25.390625
2214		19.531250
2215		25.390625
2216		19.531250
2217		25.390625
2218		19.531250
2219		25.390625
2220		21.484375
2221		23.437500
2222		19.531250
2223		25.390625
2224		19.531250
2225		25.390625
2226		19.531250
2227		25.390625
2228		19.531250
2229		25.390625
2230		19.531250
2231		25.390625
2232		19.531250
2233		25.390625
2234		19.531250
2235		25.390625
2236		21.484375
2237		23.437500
2238		21.484375
2239		23.437500
2240		17.578125
2241		25.390625
2242		17.578125
2243		25.390625
2244		17.578125
2245		25.390625
2246		17.578125
2247		23.437500
2248		17.578125
2249		25.390625
2250		17.578125
2251		23.437500
2252		17.578125
2253		23.437500
2254		19.531250
2255		21.484375
2256		15.625000
2257		23.437500
2258		15.625000
2259		23.437500
2260		15.625000
2261		23.437500
2262		15.625000
2263		23.437500
2264		15.625000
2265		21.484375
2266		15.625000
2267		21.484375
2268		15.625000
2269		21.484375
2270		17.578125
2271		19.531250
2272		15.625000
2273		21.484375
2274		13.671875
2275		21.484375
2276		13.671875
2277		19.531250
2278		13.671875
2279		21.484375
2280		13.671875
2281		19.531250
2282		11.718750
2283		19.531250
2284		11.718750
2285		19.531250
2286		13.671875
2287		17.578125
2288		13.671875
2289		15.625000
2290		11.718750
2291		17.578125
2292		9.765625
2293		17.578125
2294		9.765625
2295		17.578125
2296		9.765625
2297		15.625000
2298		9.765625
2299		15.625000
2300		9.765625
2301		15.625000
2302		7.812500
2303		15.625000
2304		9.765625
2305		13.671875
2306		9.765625
2307		13.671875
2308		7.812500
2309		13.671875
2310		5.859375
2311		13.671875
2312		5.859375
2313		13.671875
2314		5.859375
2315		13.671875
2316		5.859375
2317		11.718750
2318		5.859375
2319		11.718750
2320		5.859375
2321		9.765625
2322		5.859375
2323		9.765625
2324		3.906250
2325		9.765625
2326		1.953125
2327		9.765625
2328		1.953125
2329		9.765625
2330		1.953125
2331		9.765625
2332		1.953125
2333		7.812500
2334		1.953125
2335		7.812500
2336		1.953125
2337		7.812500
2338		1.953125
2339		5.859375
2340		0.000000
2341		5.859375
2342		-1.953125
2343		5.859375
2344		0.000000
2345		5.859375
2346		-1.953125
2347		5.859375
2348		-1.953125
2349		3.906250
2350		-1.953125
2351		3.906250
2352		-3.906250
2353		3.906250
2354		-1.953125
2355		1.953125
2356		-1.953125
2357		0.000000
2358		-3.906250
2359		1.953125
2360		-5.859375
2361		1.953125
2362		-5.859375
2363		1.953125
2364		-5.859375
2365		0.000000
2366		-5.859375
2367		0.000000
2368		-7.812500
2369		0.000000
2370		-5.859375
2371		-1.953125
2372		-5.859375
2373		-3.906250
2374		-9.765625
2375		-1.953125
2376		-9.765625
2377		-1.953125
2378		-9.765625
2379		-1.953125
2380		-9.765625
2381		-3.906250
2382		-9.765625
2383		-3.906250
2384		-9.765625
2385		-3.906250
2386		-11.718750
2387		-3.906250
2388		-9.765625
2389		-5.859375
2390		-9.765625
2391		-5.859375
2392		-11.718750
2393		-5.859375
2394		-11.718750
2395		-3.906250
2396		-13.671875
2397		-5.859375
2398		-13.671875
2399		-5.859375
2400		-13.671875
2401		-5.859375
2402		-13.671875
2403		-7.812500
2404		-11.718750
2405		-9.765625
2406		-11.718750
2407		-9.765625
2408		-15.625000
2409		-7.812500
2410		-15.625000
2411		-7.812500
2412		-15.625000
2413		-7.812500
2414		-15.625000
2415		-9.765625
2416		-15.625000
2417		-7.812500
2418		-17.578125
2419		-9.765625
2420		-15.625000
2421		-9.765625
2422		-13.671875
2423		-11.718750
2424		-15.625000
2425		-11.718750
2426		-17.578125
2427		-9.765625
2428		-17.578125
2429		-9.765625
2430		-17.578125
2431		-9.765625
2432		-17.578125
2433		-9.765625
2434		-17.578125
2435		-11.718750
2436		-17.578125
2437		-11.718750
2438		-15.625000
2439		-13.671875
2440		-15.625000
2441		-13.671875
2442		-17.578125
2443		-11.718750
2444		-17.578125
2445		-11.718750
2446		-17.578125
2447		-11.718750
2448		-17.578125
2449		-11.718750
2450		-17.578125
2451		-11.718750
2452		-17.578125
2453		-11.718750
2454		-17.578125
2455		-11.718750
2456		-15.625000
2457		-13.671875
2458		-17.578125
2459		-11.718750
2460		-17.578125
2461		-11.718750
2462		-17.578125
2463		-11.718750
2464		-17.578125
2465		-9.765625
2466		-17.578125
2467		-11.718750
2468		-17.578125
2469		-11.718750
2470		-17.578125
2471		-11.718750
2472		-15.625000
2473		-13.671875
2474		-15.625000
2475		-11.718750
2476		-17.578125
2477		-9.765625
2478		-17.578125
2479		-9.765625
2480		-17.578125
2481		-9.765625
2482		-15.625000
2483		-9.765625
2484		-15.625000
2485		-9.765625
2486		-15.625000
2487		-7.812500
2488		-13.671875
2489		-11.718750
2490		-13.671875
2491		-9.765625
2492		-15.625000
2493		-7.812500
2494		-15.625000
2495		-9.765625
2496		-13.671875
2497		-7.812500
2498		-13.671875
2499		-7.812500
2500		-13.671875
2501		-7.812500
2502		-13.671875
2503		-7.812500
2504		-11.718750
2505		-5.859375
2506		-11.718750
2507		-7.812500
2508		-11.718750
2509		-5.859375
2510		-11.718750
2511		-5.859375
2512		-11.718750
2513		-5.859375
2514		-11.718750
2515		-3.906250
2516		-11.718750
2517		-3.906250
2518		-9.765625
2519		-3.906250
2520		-9.765625
2521		-1.953125
2522		-7.812500
2523		-5.859375
2524		-7.812500
2525		-3.906250
2526		-7.812500
2527		-1.953125
2528		-9.765625
2529		-1.953125
2530		-7.812500
2531		0.000000
2532		-7.812500
2533		0.000000
2534		-7.812500
2535		0.000000
2536		-5.859375
2537		0.000000
2538		-5.859375
2539		0.000000
2540		-3.906250
2541		0.000000
2542		-3.906250
2543		1.953125
2544		-3.906250
2545		1.953125
2546		-3.906250
2547		1.953125
2548		-3.906250
2549		3.906250
2550		-3.906250
2551		3.906250
2552		-1.953125
2553		3.906250
2554		-1.953125
2555		3.906250
2556		0.000000
2557		3.906250
2558		0.000000
2559		5.859375
2560		-1.953125
2561		5.859375
2562		0.000000
2563		5.859375
2564		0.000000
2565		7.812500
2566		1.953125
2567		7.812500
2568		1.953125
2569		7.812500
2570		1.953125
2571		9.765625
2572		3.906250
2573		7.812500
2574		5.859375
2575		7.812500
2576		3.906250
2577		9.765625
2578		3.906250
2579		11.718750
2580		3.906250
2581		11.718750
2582		3.906250
2583		11.718750
2584		5.859375
2585		11.718750
2586		5.859375
2587		13.671875
2588		7.812500
2589		13.671875
2590		9.765625
2591		11.718750
2592		9.765625
2593		13.671875
2594		7.812500
2595		13.671875
2596		7.812500
2597		13.671875
2598		7.812500
2599		15.625000
2600		9.765625
2601		17.578125
2602		9.765625
2603		17.578125
2604		9.765625
2605		17.578125
2606		11.718750
2607		15.625000
2608		13.671875
2609		15.625000
2610		11.718750
2611		17.578125
2612		11.718750
2613		19.531250
2614		11.718750
2615		19.531250
2616		11.718750
2617		19.531250
2618		13.671875
2619		19.531250
2620		13.671875
2621		19.531250
2622		13.671875
2623		19.531250
2624		15.625000
2625		19.531250
2626		15.625000
2627		21.484375
2628		15.625000
2629		21.484375
2630		15.625000
2631		21.484375
2632		15.625000
2633		21.484375
2634		15.625000
2635		23.437500
2636		15.625000
2637		21.484375
2638		15.625000
2639		23.437500
2640		19.531250
2641		21.484375
2642		19.531250
2643		23.437500
2644		17.578125
2645		23.437500
2646		17.578125
2647		23.437500
2648		17.578125
2649		25.390625
2650		17.578125
2651		25.390625
2652		17.578125
2653		25.390625
2654		17.578125
2655		25.390625
2656		21.484375
2657		23.437500
2658		21.484375
2659		23.437500
2660		19.531250
2661		25.390625
2662		19.531250
2663		25.390625
2664		19.531250
2665		25.390625
2666		19.531250
2667		25.390625
2668		19.531250
2669		25.390625
2670		19.531250
2671		27.343750
2672		19.531250
2673		27.343750
2674		21.484375
2675		25.390625
2676		19.531250
2677		25.390625
2678		19.531250
2679		27.343750
2680		19.531250
2681		27.343750
2682		19.531250
2683		27.343750
2684		19.531250
2685		27.343750
2686		19.531250
2687		27.343750
2688		19.531250
2689		27.343750
2690		21.484375
2691		25.390625
2692		21.484375
2693		25.390625
2694		19.531250
2695		27.343750
2696		19.531250
2697		27.343750
2698		19.531250
2699		27.343750
2700		19.531250
2701		25.390625
2702		19.531250
2703		25.390625
2704		19.531250
2705		25.390625
2706		19.531250
2707		27.343750
2708		21.484375
2709		23.437500
2710		19.531250
2711		25.390625
2712		19.531250
2713		25.390625
2714		19.531250
2715		25.390625
2716		17.578125
2717		25.390625
2718		17.578125
2719		25.390625
2720		17.578125
2721		25.390625
2722		17.578125
2723		25.390625
2724		19.531250
2725		21.484375
2726		19.531250
2727		21.484375
2728		17.578125
2729		23.437500
2730		15.625000
2731		23.437500
2732		15.625000
2733		23.437500
2734		15.625000
2735		23.437500
2736		15.625000
2737		23.437500
2738		15.625000
2739		23.437500
2740		17.578125
2741		19.531250
2742		17.578125
2743		19.531250
2744		15.625000
2745		21.484375
2746		15.625000
2747		21.484375
2748		13.671875
2749		21.484375
2750		13.671875
2751		19.531250
2752		13.671875
2753		19.531250
2754		13.671875
2755		19.531250
2756		13.671875
2757		19.531250
2758		13.671875
2759		17.578125
2760		13.671875
2761		17.578125
2762		11.718750
2763		17.578125
2764		11.718750
2765		17.578125
2766		9.765625
2767		17.578125
2768		9.765625
2769		17.578125
2770		9.765625
2771		17.578125
2772		9.765625
2773		15.625000
2774		11.718750
2775		13.671875
2776		9.765625
2777		13.671875
2778		7.812500
2779		15.625000
2780		7.812500
2781		13.671875
2782		5.859375
2783		13.671875
2784		7.812500
2785		13.671875
2786		5.859375
2787		13.671875
2788		5.859375
2789		11.718750
2790		5.859375
2791		11.718750
2792		5.859375
2793		9.765625
2794		3.906250
2795		11.718750
2796		3.906250
2797		9.765625
2798		3.906250
2799		11.718750
2800		3.906250
2801		9.765625
2802		1.953125
2803		9.765625
2804		1.953125
2805		7.812500
2806		1.953125
2807		7.812500
2808		1.953125
2809		5.859375
2810		1.953125
2811		5.859375
2812		0.000000
2813		5.859375
2814		0.000000
2815		5.859375
2816		-1.953125
2817		5.859375
2818		-1.953125
2819		5.859375
2820		-1.953125
2821		5.859375
2822		-1.953125
2823		3.906250
2824		-1.953125
2825		1.953125
2826		-1.953125
2827		1.953125
2828		-1.953125
2829		1.953125
2830		-3.906250
2831		1.953125
2832		-5.859375
2833		1.953125
2834		-5.859375
2835		1.953125
2836		-5.859375
2837		0.000000
2838		-5.859375
2839		0.000000
2840		-5.859375
2841		0.000000
2842		-5.859375
2843		-1.953125
2844		-5.859375
2845		-1.953125
2846		-7.812500
2847		-1.953125
2848		-9.765625
2849		-1.953125
2850		-9.765625
2851		-1.953125
2852		-9.765625
2853		-1.953125
2854		-9.765625
2855		-1.953125
2856		-9.765625
2857		-3.906250
2858		-7.812500
2859		-5.859375
2860		-7.812500
2861		-5.859375
2862		-9.765625
2863		-5.859375
2864		-9.765625
2865		-5.859375
2866		-9.765625
2867		-5.859375
2868		-11.718750
2869		-5.859375
2870		-11.718750
2871		-5.859375
2872		-13.671875
2873		-7.812500
2874		-13.671875
2875		-7.812500
2876		-11.718750
2877		-9.765625
2878		-11.718750
2879		-9.765625
2880		-11.718750
2881		-9.765625
2882		-13.671875
2883		-9.765625
2884		-13.671875
2885		-7.812500
2886		-15.625000
2887		-7.812500
2888		-15.625000
2889		-9.765625
2890		-15.625000
2891		-9.765625
2892		-13.671875
2893		-11.718750
2894		-13.671875
2895		-11.718750
2896		-15.625000
2897		-11.718750
2898		-15.625000
2899		-11.718750
2900		-15.625000
2901		-11.718750
2902		-15.625000
2903		-11.718750
2904		-15.625000
2905		-9.765625
2906		-15.625000
2907		-9.765625
2908		-15.625000
2909		-11.718750
2910		-15.625000
2911		-11.718750
2912		-15.625000
2913		-11.718750
2914		-15.625000
2915		-11.718750
2916		-15.625000
2917		-11.718750
2918		-15.625000
2919		-13.671875
2920		-15.625000
2921		-11.718750
2922		-15.625000
2923		-11.718750
2924		-15.625000
2925		-11.718750
2926		-15.625000
2927		-13.671875
2928		-15.625000
2929		-11.718750
2930		-15.625000
2931		-11.718750
2932		-15.625000
2933		-11.718750
2934		-15.625000
2935		-11.718750
2936		-15.625000
2937		-11.718750
2938		-15.625000
2939		-11.718750
2940		-15.625000
2941		-11.718750
2942		-15.625000
2943		-11.718750
2944		-15.625000
2945		-11.718750
2946		-15.625000
2947		-11.718750
2948		-13.671875
2949		-11.718750
2950		-13.671875
2951		-11.718750
2952		-13.671875
2953		-11.718750
2954		-13.671875
2955		-9.765625
2956		-13.671875
2957		-9.765625
2958		-13.671875
2959		-9.765625
2960		-13.671875
2961		-9.765625
2962		-13.671875
2963		-9.765625
2964		-13.671875
2965		-9.765625
2966		-11.718750
2967		-9.765625
2968		-11.718750
2969		-9.765625
2970		-11.718750
2971		-7.812500
2972		-11.718750
2973		-7.812500
2974		-11.718750
2975		-7.812500
2976		-11.718750
2977		-7.812500
2978		-9.765625
2979		-7.812500
2980		-11.718750
2981		-5.859375
2982		-9.765625
2983		-5.859375
2984		-9.765625
2985		-5.859375
2986		-9.765625
2987		-5.859375
2988		-7.812500
2989		-5.859375
2990		-7.812500
2991		-3.906250
2992		-7.812500
2993		-3.906250
2994		-7.812500
2995		-3.906250
2996		-7.812500
2997		-3.906250
2998		-5.859375
2999		-3.906250
3000		-5.859375
3001		-1.953125
3002		-5.859375
3003		-1.953125
3004		-5.859375
3005		-1.953125
3006		-3.906250
3007		-1.953125
3008		-5.859375
3009		0.000000
3010		-3.906250
3011		0.000000
3012		-3.906250
3013		0.000000
3014		-1.953125
3015		0.000000
3016		-1.953125
3017		0.000000
3018		-1.953125
3019		1.953125
3020		-1.953125
3021		1.953125
3022		-1.953125
3023		1.953125
3024		0.000000
3025		3.906250
3026		0.000000
3027		3.906250
3028		0.000000
3029		3.906250
3030		1.953125
3031		3.906250
3032		1.953125
3033		5.859375
3034		1.953125
3035		5.859375
3036		3.906250
3037		5.859375
3038		3.906250
3039		5.859375
3040		3.906250
3041		7.812500
3042		3.906250
3043		7.812500
3044		5.859375
3045		7.812500
3046		5.859375
3047		9.765625
3048		5.859375
3049		9.765625
3050		5.859375
3051		9.765625
3052		7.812500
3053		9.765625
3054		7.812500
3055		11.718750
3056		7.812500
3057		11.718750
3058		7.812500
3059		11.718750
3060		9.765625
3061		11.718750
3062		9.765625
3063		11.718750
3064		9.765625
3065		13.671875
3066		9.765625
3067		13.671875
3068		11.718750
3069		13.671875
3070		11.718750
3071		15.625000
3072		11.718750
3073		15.625000
3074		11.718750
3075		15.625000
3076		11.718750
3077		15.625000
3078		13.671875
3079		15.625000
3080		13.671875
3081		17.578125
3082		13.671875
3083		17.578125
3084		13.671875
3085		17.578125
3086		15.625000
3087		17.578125
3088		15.625000
3089		17.578125
3090		15.625000
3091		17.578125
3092		15.625000
3093		19.531250
3094		15.625000
3095		19.531250
3096		15.625000
3097		19.531250
3098		17.578125
3099		19.531250
3100		17.578125
3101		21.484375
3102		17.578125
3103		21.484375
3104		17.578125
3105		21.484375
3106		17.578125
3107		21.484375
3108		17.578125
3109		23.437500
3110		19.531250
3111		21.484375
3112		19.531250
3113		21.484375
3114		17.578125
3115		23.437500
3116		19.531250
3117		23.437500
3118		19.531250
3119		23.437500
3120		19.531250
3121		23.437500
3122		19.531250
3123		23.437500
3124		19.531250
3125		23.437500
3126		21.484375
3127		23.437500
3128		21.484375
3129		23.437500
3130		19.531250
3131		25.390625
3132		21.484375
3133		25.390625
3134		21.484375
3135		25.390625
3136		21.484375
3137		25.390625
3138		21.484375
3139		25.390625
3140		21.484375
3141		25.390625
3142		21.484375
3143		25.390625
3144		21.484375
3145		25.390625
3146		21.484375
3147		25.390625
3148		21.484375
3149		25.390625
3150		21.484375
3151		25.390625
3152		21.484375
3153		25.390625
3154		21.484375
3155		25.390625
3156		21.484375
3157		25.390625
3158		21.484375
3159		25.390625
3160		21.484375
3161		25.390625
3162		21.484375
3163		25.390625
3164		21.484375
3165		25.390625
3166		21.484375
3167		25.390625
3168		21.484375
3169		25.390625
3170		21.484375
3171		25.390625
3172		21.484375
3173		25.390625
3174		21.484375
3175		25.390625
3176		21.484375
3177		25.390625
3178		21.484375
3179		23.437500
3180		19.531250
3181		25.390625
3182		21.484375
3183		23.437500
3184		21.484375
3185		25.390625
3186		19.531250
3187		23.437500
3188		21.484375
3189		23.437500
3190		19.531250
3191		23.437500
3192		19.531250
3193		25.390625
3194		19.531250
3195		23.437500
3196		19.531250
3197		23.437500
3198		17.578125
3199		23.437500
3200		19.531250
3201		21.484375
3202		19.531250
3203		23.437500
3204		19.531250
3205		21.484375
3206		17.578125
3207		21.484375
3208		17.578125
3209		21.484375
3210		17.578125
3211		21.484375
3212		17.578125
3213		19.531250
3214		15.625000
3215		21.484375
3216		17.578125
3217		19.531250
3218		15.625000
3219		19.531250
3220		15.625000
3221		19.531250
3222		15.625000
3223		19.531250
3224		15.625000
3225		17.578125
3226		13.671875
3227		17.578125
3228		15.625000
3229		17.578125
3230		13.671875
3231		17.578125
3232		11.718750
3233		17.578125
3234		13.671875
3235		15.625000
3236		13.671875
3237		15.625000
3238		11.718750
3239		15.625000
3240		11.718750
3241		15.625000
3242		11.718750
3243		15.625000
3244		11.718750
3245		15.625000
3246		11.718750
3247		13.671875
3248		9.765625
3249		15.625000
3250		9.765625
3251		13.671875
3252		9.765625
3253		13.671875
3254		9.765625
3255		11.718750
3256		7.812500
3257		11.718750
3258		7.812500
3259		11.718750
3260		7.812500
3261		11.718750
3262		7.812500
3263		9.765625
3264		5.859375
3265		9.765625
3266		5.859375
3267		9.765625
3268		5.859375
3269		7.812500
3270		3.906250
3271		7.812500
3272		3.906250
3273		7.812500
3274		3.906250
3275		7.812500
3276		3.906250
3277		5.859375
3278		3.906250
3279		5.859375
3280		1.953125
3281		5.859375
3282		1.953125
3283		5.859375
3284		1.953125
3285		5.859375
3286		1.953125
3287		3.906250
3288		0.000000
3289		3.906250
3290		0.000000
3291		3.906250
3292		0.000000
3293		1.953125
3294		-1.953125
3295		3.906250
3296		0.000000
3297		1.953125
3298		-1.953125
3299		1.953125
3300		-1.953125
3301		0.000000
3302		-1.953125
3303		0.000000
3304		-1.953125
3305		0.000000
3306		-3.906250
3307		0.000000
3308		-3.906250
3309		0.000000
3310		-5.859375
3311		-1.953125
3312		-5.859375
3313		-1.953125
3314		-5.859375
3315		-1.953125
3316		-5.859375
3317		-1.953125
3318		-5.859375
3319		-1.953125
3320		-7.812500
3321		-3.906250
3322		-7.812500
3323		-3.906250
3324		-7.812500
3325		-3.906250
3326		-7.812500
3327		-5.859375
3328		-7.812500
3329		-3.906250
3330		-7.812500
3331		-5.859375
3332		-9.765625
3333		-3.906250
3334		-9.765625
3335		-5.859375
3336		-9.765625
3337		-7.812500
3338		-9.765625
3339		-5.859375
3340		-11.718750
3341		-7.812500
3342		-11.718750
3343		-7.812500
3344		-11.718750
3345		-7.812500
3346		-11.718750
3347		-7.812500
3348		-11.718750
3349		-7.812500
3350		-11.718750
3351		-7.812500
3352		-13.671875
3353		-9.765625
3354		-13.671875
3355		-9.765625
3356		-13.671875
3357		-9.765625
3358		-13.671875
3359		-9.765625
3360		-13.671875
3361		-9.765625
3362		-13.671875
3363		-9.765625
3364		-13.671875
3365		-9.765625
3366		-13.671875
3367		-11.718750
3368		-15.625000
3369		-11.718750
3370		-15.625000
3371		-11.718750
3372		-13.671875
3373		-11.718750
3374		-15.625000
3375		-11.718750
3376		-15.625000
3377		-11.718750
3378		-15.625000
3379		-11.718750
3380		-15.625000
3381		-13.671875
3382		-15.625000
3383		-11.718750
3384		-15.625000
3385		-11.718750
3386		-15.625000
3387		-11.718750
3388		-15.625000
3389		-11.718750
3390		-15.625000
3391		-11.718750
3392		-15.625000
3393		-11.718750
3394		-15.625000
3395		-11.718750
3396		-15.625000
3397		-11.718750
3398		-15.625000
3399		-13.671875
3400		-15.625000
3401		-11.718750
3402		-15.625000
3403		-11.718750
3404		-15.625000
3405		-11.718750
3406		-15.625000
3407		-11.718750
3408		-15.625000
3409		-11.718750
3410		-15.625000
3411		-11.718750
3412		-15.625000
3413		-11.718750
3414		-13.671875
3415		-11.718750
3416		-15.625000
3417		-9.765625
3418		-15.625000
3419		-11.718750
3420		-13.671875
3421		-11.718750
3422		-13.671875
3423		-11.718750
3424		-13.671875
3425		-9.765625
3426		-13.671875
3427		-9.765625
3428		-13.671875
3429		-9.765625
3430		-13.671875
3431		-9.765625
3432		-11.718750
3433		-9.765625
3434		-11.718750
3435		-9.765625
3436		-11.718750
3437		-9.765625
3438		-11.718750
3439		-9.765625
3440		-11.718750
3441		-7.812500
3442		-11.718750
3443		-7.812500
3444		-11.718750
3445		-7.812500
3446		-11.718750
3447		-7.812500
3448		-9.765625
3449		-7.812500
3450		-9.765625
3451		-5.859375
3452		-9.765625
3453		-5.859375
3454		-9.765625
3455		-5.859375
3456		-9.765625
3457		-5.859375
3458		-7.812500
3459		-5.859375
3460		-7.812500
3461		-3.906250
3462		-7.812500
3463		-3.906250
3464		-7.812500
3465		-3.906250
3466		-7.812500
3467		-3.906250
3468		-5.859375
3469		-1.953125
3470		-5.859375
3471		-1.953125
3472		-5.859375
3473		-1.953125
3474		-5.859375
3475		-1.953125
3476		-5.859375
3477		-1.953125
3478		-3.906250
3479		0.000000
3480		-3.906250
3481		0.000000
3482		-1.953125
3483		0.000000
3484		-3.906250
3485		0.000000
3486		-1.953125
3487		1.953125
3488		-1.953125
3489		1.953125
3490		-1.953125
3491		1.953125
3492		0.000000
3493		1.953125
3494		0.000000
3495		3.906250
3496		0.000000
3497		3.906250
3498		1.953125
3499		3.906250
3500		1.953125
3501		5.859375
3502		1.953125
3503		5.859375
3504		1.953125
3505		5.859375
3506		1.953125
3507		5.859375
3508		3.906250
3509		5.859375
3510		3.906250
3511		7.812500
3512		3.906250
3513		7.812500
3514		5.859375
3515		7.812500
3516		5.859375
3517		7.812500
3518		5.859375
3519		9.765625
3520		5.859375
3521		9.765625
3522		7.812500
3523		9.765625
3524		7.812500
3525		11.718750
3526		7.812500
3527		11.718750
3528		7.812500
3529		11.718750
3530		9.765625
3531		11.718750
3532		9.765625
3533		11.718750
3534		9.765625
3535		13.671875
3536		9.765625
3537		13.671875
3538		9.765625
3539		13.671875
3540		11.718750
3541		13.671875
3542		11.718750
3543		15.625000
3544		11.718750
3545		15.625000
3546		11.718750
3547		15.625000
3548		13.671875
3549		15.625000
3550		13.671875
3551		17.578125
3552		13.671875
3553		17.578125
3554		13.671875
3555		17.578125
3556		13.671875
3557		17.578125
3558		15.625000
3559		17.578125
3560		15.625000
3561		19.531250
3562		15.625000
3563		19.531250
3564		17.578125
3565		19.531250
3566		17.578125
3567		19.531250
3568		15.625000
3569		21.484375
3570		17.578125
3571		19.531250
3572		17.578125
3573		21.484375
3574		17.578125
3575		21.484375
3576		17.578125
3577		21.484375
3578		17.578125
3579		21.484375
3580		17.578125
3581		21.484375
3582		19.531250
3583		21.484375
3584		19.531250
3585		23.437500
3586		19.531250
3587		23.437500
3588		19.531250
3589		23.437500
3590		19.531250
3591		23.437500
3592		19.531250
3593		23.437500
3594		19.531250
3595		23.437500
3596		19.531250
3597		25.390625
3598		21.484375
3599		23.437500
3600		21.484375
3601		23.437500
3602		19.531250
3603		25.390625
3604		21.484375
3605		25.390625
3606		21.484375
3607		25.390625
3608		19.531250
3609		25.390625
3610		21.484375
3611		25.390625
3612		21.484375
3613		25.390625
3614		21.484375
3615		25.390625
3616		21.484375
3617		25.390625
3618		21.484375
3619		25.390625
3620		21.484375
3621		25.390625
3622		21.484375
3623		25.390625
3624		21.484375
3625		25.390625
3626		21.484375
3627		25.390625
3628		21.484375
3629		25.390625
3630		21.484375
3631		25.390625
3632		21.484375
3633		25.390625
3634		21.484375
3635		25.390625
3636		21.484375
3637		25.390625
3638		21.484375
3639		25.390625
3640		21.484375
3641		25.390625
3642		21.484375
3643		25.390625
3644		21.484375
3645		25.390625
3646		21.484375
3647		25.390625
3648		21.484375
3649		25.390625
3650		21.484375
3651		23.437500
3652		21.484375
3653		23.437500
3654		21.484375
3655		23.437500
3656		19.531250
3657		25.390625
3658		21.484375
3659		23.437500
3660		19.531250
3661		23.437500
3662		19.531250
3663		23.437500
3664		19.531250
3665		23.437500
3666		19.531250
3667		23.437500
3668		19.531250
3669		23.437500
3670		19.531250
3671		23.437500
3672		19.531250
3673		23.437500
3674		17.578125
3675		21.484375
3676		19.531250
3677		21.484375
3678		17.578125
3679		21.484375
3680		17.578125
3681		21.484375
3682		17.578125
3683		21.484375
3684		17.578125
3685		19.531250
3686		15.625000
3687		21.484375
3688		15.625000
3689		19.531250
3690		17.578125
3691		19.531250
3692		15.625000
3693		19.531250
3694		15.625000
3695		19.531250
3696		15.625000
3697		19.531250
3698		13.671875
3699		17.578125
3700		15.625000
3701		17.578125
3702		13.671875
3703		17.578125
3704		13.671875
3705		17.578125
3706		13.671875
3707		17.578125
3708		11.718750
3709		15.625000
3710		11.718750
3711		15.625000
3712		11.718750
3713		15.625000
3714		11.718750
3715		15.625000
3716		11.718750
3717		13.671875
3718		11.718750
3719		13.671875
3720		9.765625
3721		13.671875
3722		9.765625
3723		13.671875
3724		9.765625
3725		13.671875
3726		7.812500
3727		11.718750
3728		7.812500
3729		11.718750
3730		7.812500
3731		11.718750
3732		7.812500
3733		9.765625
3734		7.812500
3735		9.765625
3736		5.859375
3737		9.765625
3738		5.859375
3739		9.765625
3740		5.859375
3741		9.765625
3742		5.859375
3743		7.812500
3744		3.906250
3745		7.812500
3746		3.906250
3747		7.812500
3748		3.906250
3749		7.812500
3750		3.906250
3751		5.859375
3752		1.953125
3753		5.859375
3754		1.953125
3755		5.859375
3756		1.953125
3757		3.906250
3758		1.953125
3759		3.906250
3760		0.000000
3761		3.906250
3762		0.000000
3763		3.906250
3764		-1.953125
3765		3.906250
3766		0.000000
3767		1.953125
3768		0.000000
3769		1.953125
3770		-1.953125
3771		1.953125
3772		-3.906250
3773		1.953125
3774		-1.953125
3775		0.000000
3776		-3.906250
3777		1.953125
3778		-3.906250
3779		0.000000
3780		-3.906250
3781		0.000000
3782		-5.859375
3783		0.000000
3784		-5.859375
3785		-1.953125
3786		-5.859375
3787		-1.953125
3788		-5.859375
3789		-1.953125
3790		-5.859375
3791		-3.906250
3792		-5.859375
3793		-3.906250
3794		-7.812500
3795		-3.906250
3796		-7.812500
3797		-3.906250
3798		-7.812500
3799		-3.906250
3800		-7.812500
3801		-5.859375
3802		-9.765625
3803		-5.859375
3804		-9.765625
3805		-5.859375
3806		-9.765625
3807		-5.859375
3808		-9.765625
3809		-5.859375
3810		-9.765625
3811		-7.812500
3812		-9.765625
3813		-7.812500
3814		-11.718750
3815		-7.812500
3816		-11.718750
3817		-7.812500
3818		-11.718750
3819		-9.765625
3820		-13.671875
3821		-7.812500
3822		-11.718750
3823		-9.765625
3824		-11.718750
3825		-9.765625
3826		-13.671875
3827		-9.765625
3828		-13.671875
3829		-9.765625
3830		-13.671875
3831		-9.765625
3832		-13.671875
3833		-9.765625
3834		-13.671875
3835		-11.718750
3836		-13.671875
3837		-9.765625
3838		-13.671875
3839		-11.718750
3840		-13.671875
3841		-11.718750
3842		-13.671875
3843		-11.718750
3844		-13.671875
3845		-11.718750
3846		-15.625000
3847		-11.718750
3848		-15.625000
3849		-11.718750
3850		-15.625000
3851		-11.718750
3852		-15.625000
3853		-11.718750
3854		-15.625000
3855		-11.718750
3856		-15.625000
3857		-11.718750
3858		-15.625000
3859		-11.718750
3860		-15.625000
3861		-11.718750
3862		-15.625000
3863		-11.718750
3864		-15.625000
3865		-11.718750
3866		-15.625000
3867		-11.718750
3868		-15.625000
3869		-11.718750
3870		-15.625000
3871		-11.718750
3872		-15.625000
3873		-11.718750
3874		-15.625000
3875		-11.718750
3876		-15.625000
3877		-11.718750
3878		-15.625000
3879		-11.718750
3880		-15.625000
3881		-11.718750
3882		-15.625000
3883		-11.718750
3884		-13.671875
3885		-11.718750
3886		-13.671875
3887		-11.718750
3888		-15.625000
3889		-11.718750
3890		-13.671875
3891		-11.718750
3892		-13.671875
3893		-9.765625
3894		-13.671875
3895		-9.765625
3896		-13.671875
3897		-9.765625
3898		-13.671875
3899		-9.765625
3900		-13.671875
3901		-9.765625
3902		-11.718750
3903		-9.765625
3904		-13.671875
3905		-9.765625
3906		-11.718750
3907		-9.765625
3908		-11.718750
3909		-9.765625
3910		-11.718750
3911		-7.812500
3912		-11.718750
3913		-7.812500
3914		-11.718750
3915		-7.812500
3916		-11.718750
3917		-7.812500
3918		-9.765625
3919		-7.812500
3920		-9.765625
3921		-7.812500
3922		-9.765625
3923		-5.859375
3924		-9.765625
3925		-5.859375
3926		-9.765625
3927		-5.859375
3928		-9.765625
3929		-5.859375
3930		-7.812500
3931		-5.859375
3932		-7.812500
3933		-3.906250
3934		-7.812500
3935		-3.906250
3936		-5.859375
3937		-3.906250
3938		-7.812500
3939		-1.953125
3940		-5.859375
3941		-1.953125
3942		-5.859375
3943		-1.953125
3944		-5.859375
3945		-1.953125
3946		-3.906250
3947		-1.953125
3948		-3.906250
3949		-1.953125
3950		-5.859375
3951		0.000000
3952		-1.953125
3953		0.000000
3954		-3.906250
3955		0.000000
3956		-1.953125
3957		0.000000
3958		-1.953125
3959		1.953125
3960		-1.953125
3961		1.953125
3962		-1.953125
3963		1.953125
3964		0.000000
3965		1.953125
3966		0.000000
3967		3.906250
3968		1.953125
3969		3.906250
3970		1.953125
3971		3.906250
3972		1.953125
3973		5.859375
3974		1.953125
3975		5.859375
3976		1.953125
3977		5.859375
3978		3.906250
3979		7.812500
3980		3.906250
3981		5.859375
3982		3.906250
3983		7.812500
3984		3.906250
3985		7.812500
3986		5.859375
3987		7.812500
3988		5.859375
3989		7.812500
3990		5.859375
3991		9.765625
3992		7.812500
3993		9.765625
3994		7.812500
3995		9.765625
3996		7.812500
3997		11.718750
3998		7.812500
3999		11.718750
4000		7.812500
4001		11.718750
4002		9.765625
4003		11.718750
4004		9.765625
4005		13.671875
4006		9.765625
4007		13.671875
4008		9.765625
4009		13.671875
4010		9.765625
4011		13.671875
4012		11.718750
4013		13.671875
4014		11.718750
4015		15.625000
4016		11.718750
4017		15.625000
4018		13.671875
4019		15.625000
4020		13.671875
4021		15.625000
4022		11.718750
4023		17.578125
4024		13.671875
4025		17.578125
4026		13.671875
4027		17.578125
4028		15.625000
4029		17.578125
4030		15.625000
4031		17.578125
4032		15.625000
4033		19.531250
4034		15.625000
4035		19.531250
4036		17.578125
4037		19.531250
4038		15.625000
4039		21.484375
4040		17.578125
4041		19.531250
4042		17.578125
4043		21.484375
4044		17.578125
4045		21.484375
4046		17.578125
4047		21.484375
4048		17.578125
4049		21.484375
4050		17.578125
4051		21.484375
4052		19.531250
4053		23.437500
4054		19.531250
4055		21.484375
4056		19.531250
4057		23.437500
4058		19.531250
4059		23.437500
4060		19.531250
4061		23.437500
4062		19.531250
4063		23.437500
4064		21.484375
4065		23.437500
4066		19.531250
4067		23.437500
4068		21.484375
4069		23.437500
4070		21.484375
4071		23.437500
4072		21.484375
4073		23.437500
4074		21.484375
4075		23.437500
4076		21.484375
4077		25.390625
4078		21.484375
4079		25.390625
4080		21.484375
4081		25.390625
4082		21.484375
4083		25.390625
4084		21.484375
4085		25.390625
4086		21.484375
4087		25.390625
4088		21.484375
4089		25.390625
4090		21.484375
4091		25.390625
4092		21.484375
4093		25.390625
4094		21.484375
4095		25.390625
4096		23.437500
4097		25.390625
4098		21.484375
4099		25.390625
4100		21.484375
4101		25.390625
4102		23.437500
4103		25.390625
4104		21.484375
4105		25.390625
4106		21.484375
4107		25.390625
4108		23.437500
4109		25.390625
4110		21.484375
4111		25.390625
4112		21.484375
4113		25.390625
4114		21.484375
4115		25.390625
4116		21.484375
4117		25.390625
4118		21.484375
4119		25.390625
4120		21.484375
4121		25.390625
4122		21.484375
4123		25.390625
4124		21.484375
4125		23.437500
4126		21.484375
4127		25.390625
4128		21.484375
4129		23.437500
4130		21.484375
4131		23.437500
4132		21.484375
4133		23.437500
4134		19.531250
4135		25.390625
4136		21.484375
4137		23.437500
4138		21.484375
4139		23.437500
4140		19.531250
4141		23.437500
4142		19.531250
4143		23.437500
4144		19.531250
4145		23.437500
4146		19.531250
4147		21.484375
4148		19.531250
4149		21.484375
4150		17.578125
4151		21.484375
4152		17.578125
4153		21.484375
4154		17.578125
4155		21.484375
4156		17.578125
4157		21.484375
4158		17.578125
4159		19.531250
4160		17.578125
4161		19.531250
4162		15.625000
4163		19.531250
4164		15.625000
4165		19.531250
4166		15.625000
4167		19.531250
4168		13.671875
4169		19.531250
4170		15.625000
4171		17.578125
4172		13.671875
4173		19.531250
4174		13.671875
4175		17.578125
4176		13.671875
4177		17.578125
4178		13.671875
4179		17.578125
4180		11.718750
4181		15.625000
4182		11.718750
4183		15.625000
4184		11.718750
4185		15.625000
4186		11.718750
4187		15.625000
4188		11.718750
4189		13.671875
4190		11.718750
4191		15.625000
4192		9.765625
4193		13.671875
4194		9.765625
4195		13.671875
4196		9.765625
4197		11.718750
4198		7.812500
4199		11.718750
4200		7.812500
4201		11.718750
4202		7.812500
4203		11.718750
4204		7.812500
4205		9.765625
4206		7.812500
4207		9.765625
4208		7.812500
4209		9.765625
4210		5.859375
4211		9.765625
4212		5.859375
4213		9.765625
4214		5.859375
4215		7.812500
4216		5.859375
4217		7.812500
4218		3.906250
4219		7.812500
4220		3.906250
4221		5.859375
4222		3.906250
4223		5.859375
4224		1.953125
4225		5.859375
4226		1.953125
4227		5.859375
4228		0.000000
4229		5.859375
4230		0.000000
4231		3.906250
4232		1.953125
4233		3.906250
4234		0.000000
4235		3.906250
4236		0.000000
4237		3.906250
4238		0.000000
4239		1.953125
4240		-1.953125
4241		1.953125
4242		-1.953125
4243		1.953125
4244		-1.953125
4245		0.000000
4246		-1.953125
4247		0.000000
4248		-3.906250
4249		0.000000
4250		-3.906250
4251		0.000000
4252		-5.859375
4253		0.000000
4254		-3.906250
4255		-1.953125
4256		-5.859375
4257		0.000000
4258		-5.859375
4259		-1.953125
4260		-5.859375
4261		-1.953125
4262		-5.859375
4263		-3.906250
4264		-5.859375
4265		-3.906250
4266		-7.812500
4267		-3.906250
4268		-7.812500
4269		-3.906250
4270		-7.812500
4271		-5.859375
4272		-7.812500
4273		-5.859375
4274		-7.812500
4275		-5.859375
4276		-7.812500
4277		-5.859375
4278		-9.765625
4279		-5.859375
4280		-9.765625
4281		-5.859375
4282		-9.765625
4283		-7.812500
4284		-9.765625
4285		-7.812500
4286		-11.718750
4287		-7.812500
4288		-11.718750
4289		-7.812500
4290		-11.718750
4291		-7.812500
4292		-11.718750
4293		-7.812500
4294		-11.718750
4295		-9.765625
4296		-11.718750
4297		-9.765625
4298		-11.718750
4299		-9.765625
4300		-11.718750
4301		-9.765625
4302		-13.671875
4303		-9.765625
4304		-13.671875
4305		-9.765625
4306		-13.671875
4307		-9.765625
4308		-13.671875
4309		-9.765625
4310		-13.671875
4311		-9.765625
4312		-13.671875
4313		-9.765625
4314		-13.671875
4315		-11.718750
4316		-15.625000
4317		-11.718750
4318		-13.671875
4319		-11.718750
4320		-13.671875
4321		-11.718750
4322		-15.625000
4323		-11.718750
4324		-15.625000
4325		-11.718750
4326		-15.625000
4327		-11.718750
4328		-15.625000
4329		-11.718750
4330		-15.625000
4331		-11.718750
4332		-15.625000
4333		-11.718750
4334		-15.625000
4335		-11.718750
4336		-15.625000
4337		-11.718750
4338		-15.625000
4339		-11.718750
4340		-15.625000
4341		-11.718750
4342		-15.625000
4343		-11.718750
4344		-15.625000
4345		-11.718750
4346		-15.625000
4347		-11.718750
4348		-15.625000
4349		-11.718750
4350		-15.625000
4351		-11.718750
4352		-13.671875
4353		-11.718750
4354		-13.671875
4355		-11.718750
4356		-13.671875
4357		-11.718750
4358		-13.671875
4359		-9.765625
4360		-13.671875
4361		-11.718750
4362		-13.671875
4363		-9.765625
4364		-13.671875
4365		-11.718750
4366		-13.671875
4367		-9.765625
4368		-13.671875
4369		-9.765625
4370		-13.671875
4371		-9.765625
4372		-11.718750
4373		-9.765625
4374		-11.718750
4375		-9.765625
4376		-11.718750
4377		-9.765625
4378		-11.718750
4379		-7.812500
4380		-11.718750
4381		-7.812500
4382		-11.718750
4383		-7.812500
4384		-9.765625
4385		-7.812500
4386		-11.718750
4387		-7.812500
4388		-9.765625
4389		-7.812500
4390		-9.765625
4391		-7.812500
4392		-9.765625
4393		-5.859375
4394		-9.765625
4395		-5.859375
4396		-7.812500
4397		-5.859375
4398		-7.812500
4399		-5.859375
4400		-7.812500
4401		-5.859375
4402		-7.812500
4403		-3.906250
4404		-7.812500
4405		-3.906250
4406		-7.812500
4407		-3.906250
4408		-5.859375
4409		-3.906250
4410		-5.859375
4411		-3.906250
4412		-5.859375
4413		-1.953125
4414		-5.859375
4415		-1.953125
4416		-3.906250
4417		-1.953125
4418		-3.906250
4419		0.000000
4420		-3.906250
4421		0.000000
4422		-1.953125
4423		0.000000
4424		-1.953125
4425		0.000000
4426		-1.953125
4427		0.000000
4428		-1.953125
4429		1.953125
4430		-1.953125
4431		1.953125
4432		0.000000
4433		1.953125
4434		0.000000
4435		1.953125
4436		0.000000
4437		3.906250
4438		0.000000
4439		3.906250
4440		1.953125
4441		3.906250
4442		1.953125
4443		5.859375
4444		1.953125
4445		5.859375
4446		1.953125
4447		5.859375
4448		1.953125
4449		7.812500
4450		3.906250
4451		7.812500
4452		3.906250
4453		7.812500
4454		3.906250
4455		7.812500
4456		5.859375
4457		7.812500
4458		3.906250
4459		9.765625
4460		5.859375
4461		9.765625
4462		7.812500
4463		9.765625
4464		7.812500
4465		11.718750
4466		7.812500
4467		11.718750
4468		7.812500
4469		11.718750
4470		9.765625
4471		11.718750
4472		9.765625
4473		11.718750
4474		9.765625
4475		13.671875
4476		9.765625
4477		13.671875
4478		9.765625
4479		13.671875
4480		11.718750
4481		13.671875
4482		11.718750
4483		15.625000
4484		11.718750
4485		15.625000
4486		11.718750
4487		15.625000
4488		11.718750
4489		17.578125
4490		13.671875
4491		15.625000
4492		13.671875
4493		17.578125
4494		13.671875
4495		17.578125
4496		13.671875
4497		17.578125
4498		15.625000
4499		17.578125
4500		15.625000
4501		19.531250
4502		15.625000
4503		19.531250
4504		15.625000
4505		19.531250
4506		17.578125
4507		19.531250
4508		17.578125
4509		21.484375
4510		17.578125
4511		19.531250
4512		17.578125
4513		21.484375
4514		17.578125
4515		21.484375
4516		17.578125
4517		21.484375
4518		17.578125
4519		21.484375
4520		19.531250
4521		23.437500
4522		19.531250
4523		21.484375
4524		19.531250
4525		23.437500
4526		19.531250
4527		23.437500
4528		19.531250
4529		23.437500
4530		19.531250
4531		23.437500
4532		19.531250
4533		23.437500
4534		21.484375
4535		23.437500
4536		21.484375
4537		25.390625
4538		21.484375
4539		25.390625
4540		21.484375
4541		23.437500
4542		21.484375
4543		25.390625
4544		21.484375
4545		25.390625
4546		21.484375
4547		25.390625
4548		21.484375
4549		25.390625
4550		23.437500
4551		25.390625
4552		23.437500
4553		25.390625
4554		21.484375
4555		25.390625
4556		23.437500
4557		25.390625
4558		23.437500
4559		25.390625
4560		23.437500
4561		25.390625
4562		23.437500
4563		25.390625
4564		23.437500
4565		25.390625
4566		21.484375
4567		27.343750
4568		23.437500
4569		25.390625
4570		23.437500
4571		27.343750
4572		21.484375
4573		27.343750
4574		23.437500
4575		25.390625
4576		21.484375
4577		25.390625
4578		23.437500
4579		25.390625
4580		23.437500
4581		25.390625
4582		21.484375
4583		25.390625
4584		21.484375
4585		25.390625
4586		21.484375
4587		25.390625
4588		23.437500
4589		25.390625
4590		21.484375
4591		25.390625
4592		21.484375
4593		25.390625
4594		21.484375
4595		25.390625
4596		21.484375
4597		25.390625
4598		21.484375
4599		25.390625
4600		21.484375
4601		23.437500
4602		21.484375
4603		23.437500
4604		19.531250
4605		25.390625
4606		21.484375
4607		23.437500
4608		21.484375
4609		23.437500
4610		19.531250
4611		23.437500
4612		19.531250
4613		23.437500
4614		19.531250
4615		23.437500
4616		19.531250
4617		23.437500
4618		17.578125
4619		23.437500
4620		19.531250
4621		23.437500
4622		17.578125
4623		23.437500
4624		19.531250
4625		21.484375
4626		17.578125
4627		21.484375
4628		17.578125
4629		21.484375
4630		17.578125
4631		19.531250
4632		17.578125
4633		19.531250
4634		15.625000
4635		21.484375
4636		17.578125
4637		19.531250
4638		15.625000
4639		19.531250
4640		15.625000
4641		19.531250
4642		15.625000
4643		19.531250
4644		15.625000
4645		17.578125
4646		13.671875
4647		17.578125
4648		13.671875
4649		17.578125
4650		13.671875
4651		17.578125
4652		13.671875
4653		15.625000
4654		13.671875
4655		17.578125
4656		11.718750
4657		15.625000
4658		11.718750
4659		15.625000
4660		11.718750
4661		15.625000
4662		11.718750
4663		13.671875
4664		9.765625
4665		13.671875
4666		9.765625
4667		13.671875
4668		9.765625
4669		13.671875
4670		9.765625
4671		11.718750
4672		7.812500
4673		11.718750
4674		7.812500
4675		11.718750
4676		7.812500
4677		9.765625
4678		7.812500
4679		11.718750
4680		5.859375
4681		9.765625
4682		5.859375
4683		9.765625
4684		5.859375
4685		9.765625
4686		5.859375
4687		7.812500
4688		3.906250
4689		7.812500
4690		3.906250
4691		7.812500
4692		3.906250
4693		5.859375
4694		3.906250
4695		7.812500
4696		1.953125
4697		5.859375
4698		1.953125
4699		5.859375
4700		1.953125
4701		5.859375
4702		1.953125
4703		3.906250
4704		0.000000
4705		3.906250
4706		0.000000
4707		3.906250
4708		0.000000
4709		1.953125
4710		-1.953125
4711		1.953125
4712		-1.953125
4713		1.953125
4714		-1.953125
4715		1.953125
4716		-1.953125
4717		1.953125
4718		-1.953125
4719		0.000000
4720		-1.953125
4721		0.000000
4722		-3.906250
4723		0.000000
4724		-3.906250
4725		0.000000
4726		-3.906250
4727		-1.953125
4728		-5.859375
4729		0.000000
4730		-3.906250
4731		-1.953125
4732		-5.859375
4733		-1.953125
4734		-5.859375
4735		-3.906250
4736		-5.859375
4737		-3.906250
4738		-7.812500
4739		-3.906250
4740		-7.812500
4741		-3.906250
4742		-7.812500
4743		-5.859375
4744		-7.812500
4745		-3.906250
4746		-9.765625
4747		-5.859375
4748		-9.765625
4749		-5.859375
4750		-9.765625
4751		-5.859375
4752		-9.765625
4753		-5.859375
4754		-9.765625
4755		-7.812500
4756		-11.718750
4757		-5.859375
4758		-9.765625
4759		-7.812500
4760		-9.765625
4761		-7.812500
4762		-11.718750
4763		-7.812500
4764		-11.718750
4765		-7.812500
4766		-11.718750
4767		-7.812500
4768		-11.718750
4769		-7.812500
4770		-11.718750
4771		-9.765625
4772		-11.718750
4773		-9.765625
4774		-13.671875
4775		-9.765625
4776		-11.718750
4777		-9.765625
4778		-13.671875
4779		-9.765625
4780		-13.671875
4781		-9.765625
4782		-13.671875
4783		-9.765625
4784		-13.671875
4785		-9.765625
4786		-13.671875
4787		-9.765625
4788		-13.671875
4789		-9.765625
4790		-13.671875
4791		-9.765625
4792		-13.671875
4793		-11.718750
4794		-15.625000
4795		-11.718750
4796		-13.671875
4797		-11.718750
4798		-13.671875
4799		-11.718750
4800		-13.671875
4801		-11.718750
4802		-13.671875
4803		-11.718750
4804		-13.671875
4805		-11.718750
4806		-15.625000
4807		-11.718750
4808		-13.671875
4809		-11.718750
4810		-13.671875
4811		-11.718750
4812		-15.625000
4813		-11.718750
4814		-13.671875
4815		-11.718750
4816		-15.625000
4817		-11.718750
4818		-13.671875
4819		-11.718750
4820		-15.625000
4821		-11.718750
4822		-13.671875
4823		-11.718750
4824		-15.625000
4825		-11.718750
4826		-13.671875
4827		-11.718750
4828		-13.671875
4829		-9.765625
4830		-13.671875
4831		-11.718750
4832		-13.671875
4833		-9.765625
4834		-13.671875
4835		-9.765625
4836		-13.671875
4837		-9.765625
4838		-13.671875
4839		-9.765625
4840		-13.671875
4841		-9.765625
4842		-11.718750
4843		-9.765625
4844		-11.718750
4845		-9.765625
4846		-11.718750
4847		-9.765625
4848		-11.718750
4849		-7.812500
4850		-11.718750
4851		-7.812500
4852		-11.718750
4853		-7.812500
4854		-11.718750
4855		-7.812500
4856		-11.718750
4857		-7.812500
4858		-9.765625
4859		-7.812500
4860		-9.765625
4861		-7.812500
4862		-11.718750
4863		-5.859375
4864		-9.765625
4865		-5.859375
4866		-9.765625
4867		-5.859375
4868		-9.765625
4869		-5.859375
4870		-7.812500
4871		-5.859375
4872		-7.812500
4873		-3.906250
4874		-7.812500
4875		-3.906250
4876		-5.859375
4877		-3.906250
4878		-5.859375
4879		-1.953125
4880		-5.859375
4881		-3.906250
4882		-5.859375
4883		-1.953125
4884		-5.859375
4885		-1.953125
4886		-3.906250
4887		-1.953125
4888		-3.906250
4889		-1.953125
4890		-3.906250
4891		0.000000
4892		-3.906250
4893		0.000000
4894		-1.953125
4895		0.000000
4896		-3.906250
4897		1.953125
4898		-1.953125
4899		1.953125
4900		-1.953125
4901		1.953125
4902		-1.953125
4903		1.953125
4904		0.000000
4905		1.953125
4906		0.000000
4907		3.906250
4908		0.000000
4909		3.906250
4910		1.953125
4911		3.906250
4912		1.953125
4913		5.859375
4914		1.953125
4915		5.859375
4916		1.953125
4917		5.859375
4918		3.906250
4919		5.859375
4920		3.906250
4921		7.812500
4922		3.906250
4923		7.812500
4924		5.859375
4925		7.812500
4926		5.859375
4927		7.812500
4928		5.859375
4929		7.812500
4930		5.859375
4931		9.765625
4932		7.812500
4933		9.765625
4934		7.812500
4935		9.765625
4936		7.812500
4937		11.718750
4938		7.812500
4939		11.718750
4940		7.812500
4941		11.718750
4942		9.765625
4943		11.718750
4944		9.765625
4945		13.671875
4946		9.765625
4947		13.671875
4948		9.765625
4949		13.671875
4950		11.718750
4951		13.671875
4952		11.718750
4953		15.625000
4954		11.718750
4955		15.625000
4956		11.718750
4957		15.625000
4958		11.718750
4959		17.578125
4960		13.671875
4961		15.625000
4962		13.671875
4963		17.578125
4964		13.671875
4965		17.578125
4966		13.671875
4967		17.578125
4968		15.625000
4969		17.578125
4970		15.625000
4971		19.531250
4972		15.625000
4973		19.531250
4974		15.625000
4975		19.531250
4976		17.578125
4977		19.531250
4978		17.578125
4979		19.531250
4980		17.578125
4981		21.484375
4982		17.578125
4983		21.484375
4984		17.578125
4985		21.484375
4986		17.578125
4987		21.484375
4988		19.531250
4989		21.484375
4990		17.578125
4991		21.484375
4992		19.531250
4993		23.437500
4994		19.531250
4995		21.484375
4996		19.531250
4997		23.437500
4998		19.531250
4999		23.437500
5000		19.531250
5001		23.437500
5002		19.531250
5003		23.437500
5004		21.484375
5005		23.437500
5006		21.484375
5007		23.437500
5008		21.484375
5009		25.390625
5010		21.484375
5011		23.437500
5012		21.484375
5013		25.390625
5014		21.484375
5015		25.390625
5016		21.484375
5017		25.390625
5018		21.484375
5019		25.390625
5020		21.484375
5021		25.390625
5022		21.484375
5023		25.390625
5024		21.484375
5025		25.390625
5026		23.437500
5027		25.390625
5028		23.437500
5029		25.390625
5030		23.437500
5031		27.343750
5032		23.437500
5033		25.390625
5034		23.437500
5035		25.390625
5036		23.437500
5037		25.390625
5038		23.437500
5039		25.390625
5040		23.437500
5041		25.390625
5042		23.437500
5043		25.390625
5044		23.437500
5045		25.390625
5046		23.437500
5047		25.390625
5048		23.437500
5049		25.390625
5050		23.437500
5051		25.390625
5052		21.484375
5053		25.390625
5054		23.437500
5055		27.343750
5056		21.484375
5057		25.390625
5058		23.437500
5059		25.390625
5060		21.484375
5061		25.390625
5062		23.437500
5063		25.390625
5064		21.484375
5065		25.390625
5066		21.484375
5067		25.390625
5068		21.484375
5069		25.390625
5070		21.484375
5071		25.390625
5072		21.484375
5073		25.390625
5074		21.484375
5075		23.437500
5076		19.531250
5077		25.390625
5078		21.484375
5079		23.437500
5080		19.531250
5081		23.437500
5082		19.531250
5083		23.437500
5084		19.531250
5085		23.437500
5086		19.531250
5087		23.437500
5088		19.531250
5089		23.437500
5090		19.531250
5091		21.484375
5092		17.578125
5093		21.484375
5094		19.531250
5095		21.484375
5096		19.531250
5097		21.484375
5098		17.578125
5099		21.484375
5100		17.578125
5101		21.484375
5102		17.578125
5103		21.484375
5104		17.578125
5105		19.531250
5106		17.578125
5107		19.531250
5108		15.625000
5109		19.531250
5110		15.625000
5111		19.531250
5112		15.625000
5113		19.531250
5114		15.625000
5115		17.578125
5116		15.625000
5117		17.578125
5118		13.671875
5119		17.578125
5120		13.671875
5121		17.578125
5122		13.671875
5123		15.625000
5124		13.671875
5125		17.578125
5126		11.718750
5127		15.625000
5128		11.718750
5129		15.625000
5130		11.718750
5131		15.625000
5132		11.718750
5133		15.625000
5134		9.765625
5135		13.671875
5136		11.718750
5137		13.671875
5138		9.765625
5139		13.671875
5140		9.765625
5141		13.671875
5142		7.812500
5143		11.718750
5144		9.765625
5145		11.718750
5146		7.812500
5147		11.718750
5148		7.812500
5149		11.718750
5150		5.859375
5151		9.765625
5152		5.859375
5153		9.765625
5154		5.859375
5155		9.765625
5156		3.906250
5157		9.765625
5158		5.859375
5159		7.812500
5160		3.906250
5161		7.812500
5162		3.906250
5163		7.812500
5164		3.906250
5165		7.812500
5166		3.906250
5167		7.812500
5168		1.953125
5169		5.859375
5170		1.953125
5171		5.859375
5172		1.953125
5173		5.859375
5174		1.953125
5175		3.906250
5176		0.000000
5177		3.906250
5178		0.000000
5179		3.906250
5180		0.000000
5181		1.953125
5182		-1.953125
5183		3.906250
5184		-1.953125
5185		1.953125
5186		-1.953125
5187		1.953125
5188		-1.953125
5189		1.953125
5190		-1.953125
5191		0.000000
5192		-3.906250
5193		0.000000
5194		-3.906250
5195		0.000000
5196		-3.906250
5197		-1.953125
5198		-3.906250
5199		-1.953125
5200		-5.859375
5201		-1.953125
5202		-5.859375
5203		-1.953125
5204		-5.859375
5205		-1.953125
5206		-7.812500
5207		-1.953125
5208		-7.812500
5209		-3.906250
5210		-7.812500
5211		-3.906250
5212		-7.812500
5213		-3.906250
5214		-7.812500
5215		-3.906250
5216		-7.812500
5217		-3.906250
5218		-9.765625
5219		-5.859375
5220		-9.765625
5221		-5.859375
5222		-9.765625
5223		-5.859375
5224		-9.765625
5225		-5.859375
5226		-9.765625
5227		-7.812500
5228		-9.765625
5229		-7.812500
5230		-9.765625
5231		-7.812500
5232		-11.718750
5233		-7.812500
5234		-11.718750
5235		-7.812500
5236		-11.718750
5237		-7.812500
5238		-11.718750
5239		-7.812500
5240		-11.718750
5241		-9.765625
5242		-11.718750
5243		-9.765625
5244		-13.671875
5245		-9.765625
5246		-13.671875
5247		-9.765625
5248		-13.671875
5249		-9.765625
5250		-13.671875
5251		-9.765625
5252		-13.671875
5253		-9.765625
5254		-13.671875
5255		-9.765625
5256		-13.671875
5257		-9.765625
5258		-13.671875
5259		-9.765625
5260		-13.671875
5261		-11.718750
5262		-13.671875
5263		-11.718750
5264		-13.671875
5265		-11.718750
5266		-15.625000
5267		-9.765625
5268		-15.625000
5269		-11.718750
5270		-15.625000
5271		-11.718750
5272		-15.625000
5273		-11.718750
5274		-15.625000
5275		-11.718750
5276		-13.671875
5277		-11.718750
5278		-15.625000
5279		-11.718750
5280		-13.671875
5281		-11.718750
5282		-15.625000
5283		-9.765625
5284		-15.625000
5285		-11.718750
5286		-15.625000
5287		-11.718750
5288		-15.625000
5289		-11.718750
5290		-13.671875
5291		-11.718750
5292		-13.671875
5293		-11.718750
5294		-13.671875
5295		-9.765625
5296		-13.671875
5297		-11.718750
5298		-13.671875
5299		-11.718750
5300		-13.671875
5301		-9.765625
5302		-13.671875
5303		-9.765625
5304		-13.671875
5305		-9.765625
5306		-13.671875
5307		-9.765625
5308		-13.671875
5309		-9.765625
5310		-13.671875
5311		-9.765625
5312		-13.671875
5313		-9.765625
5314		-11.718750
5315		-9.765625
5316		-11.718750
5317		-9.765625
5318		-11.718750
5319		-9.765625
5320		-11.718750
5321		-7.812500
5322		-11.718750
5323		-7.812500
5324		-11.718750
5325		-7.812500
5326		-11.718750
5327		-7.812500
5328		-11.718750
5329		-7.812500
5330		-9.765625
5331		-7.812500
5332		-9.765625
5333		-7.812500
5334		-9.765625
5335		-5.859375
5336		-9.765625
5337		-5.859375
5338		-7.812500
5339		-5.859375
5340		-7.812500
5341		-5.859375
5342		-7.812500
5343		-3.906250
5344		-7.812500
5345		-3.906250
5346		-7.812500
5347		-3.906250
5348		-5.859375
5349		-3.906250
5350		-7.812500
5351		-1.953125
5352		-5.859375
5353		-1.953125
5354		-5.859375
5355		-1.953125
5356		-3.906250
5357		-1.953125
5358		-5.859375
5359		-1.953125
5360		-3.906250
5361		0.000000
5362		-3.906250
5363		0.000000
5364		-1.953125
5365		0.000000
5366		-1.953125
5367		1.953125
5368		-1.953125
5369		1.953125
5370		-1.953125
5371		1.953125
5372		0.000000
5373		1.953125
5374		0.000000
5375		3.906250
5376		0.000000
5377		3.906250
5378		0.000000
5379		3.906250
5380		1.953125
5381		3.906250
5382		1.953125
5383		3.906250
5384		1.953125
5385		5.859375
5386		1.953125
5387		5.859375
5388		1.953125
5389		5.859375
5390		3.906250
5391		5.859375
5392		3.906250
5393		7.812500
5394		3.906250
5395		7.812500
5396		3.906250
5397		7.812500
5398		5.859375
5399		7.812500
5400		5.859375
5401		9.765625
5402		5.859375
5403		9.765625
5404		7.812500
5405		9.765625
5406		7.812500
5407		9.765625
5408		7.812500
5409		11.718750
5410		7.812500
5411		11.718750
5412		9.765625
5413		11.718750
5414		9.765625
5415		11.718750
5416		9.765625
5417		13.671875
5418		9.765625
5419		13.671875
5420		11.718750
5421		13.671875
5422		11.718750
5423		15.625000
5424		11.718750
5425		15.625000
5426		11.718750
5427		15.625000
5428		13.671875
5429		15.625000
5430		13.671875
5431		15.625000
5432		13.671875
5433		15.625000
5434		13.671875
5435		17.578125
5436		13.671875
5437		17.578125
5438		15.625000
5439		17.578125
5440		15.625000
5441		19.531250
5442		15.625000
5443		19.531250
5444		15.625000
5445		19.531250
5446		15.625000
5447		19.531250
5448		17.578125
5449		19.531250
5450		15.625000
5451		21.484375
5452		17.578125
5453		21.484375
5454		17.578125
5455		21.484375
5456		17.578125
5457		21.484375
5458		17.578125
5459		21.484375
5460		19.531250
5461		21.484375
5462		19.531250
5463		21.484375
5464		19.531250
5465		21.484375
5466		19.531250
5467		23.437500
5468		19.531250
5469		23.437500
5470		19.531250
5471		23.437500
5472		21.484375
5473		23.437500
5474		21.484375
5475		23.437500
5476		21.484375
5477		23.437500
5478		21.484375
5479		25.390625
5480		21.484375
5481		25.390625
5482		21.484375
5483		25.390625
5484		21.484375
5485		25.390625
5486		21.484375
5487		25.390625
5488		21.484375
5489		25.390625
5490		21.484375
5491		25.390625
5492		21.484375
5493		25.390625
5494		21.484375
5495		25.390625
5496		23.437500
5497		25.390625
5498		23.437500
5499		25.390625
5500		23.437500
5501		25.390625
5502		23.437500
5503		25.390625
5504		21.484375
5505		25.390625
5506		23.437500
5507		27.343750
5508		23.437500
5509		25.390625
5510		23.437500
5511		25.390625
5512		21.484375
5513		25.390625
5514		23.437500
5515		25.390625
5516		23.437500
5517		25.390625
5518		21.484375
5519		27.343750
5520		21.484375
5521		25.390625
5522		23.437500
5523		25.390625
5524		21.484375
5525		25.390625
5526		23.437500
5527		25.390625
5528		23.437500
5529		25.390625
5530		21.484375
5531		25.390625
5532		23.437500
5533		25.390625
5534		21.484375
5535		25.390625
5536		21.484375
5537		25.390625
5538		21.484375
5539		25.390625
5540		21.484375
5541		25.390625
5542		21.484375
5543		25.390625
5544		21.484375
5545		25.390625
5546		21.484375
5547		25.390625
5548		19.531250
5549		25.390625
5550		21.484375
5551		23.437500
5552		19.531250
5553		23.437500
5554		21.484375
5555		23.437500
5556		19.531250
5557		23.437500
5558		19.531250
5559		23.437500
5560		19.531250
5561		23.437500
5562		19.531250
5563		21.484375
5564		19.531250
5565		21.484375
5566		19.531250
5567		21.484375
5568		17.578125
5569		21.484375
5570		17.578125
5571		21.484375
5572		17.578125
5573		21.484375
5574		17.578125
5575		21.484375
5576		17.578125
5577		19.531250
5578		15.625000
5579		19.531250
5580		15.625000
5581		19.531250
5582		15.625000
5583		19.531250
5584		15.625000
5585		19.531250
5586		15.625000
5587		17.578125
5588		13.671875
5589		17.578125
5590		15.625000
5591		17.578125
5592		13.671875
5593		17.578125
5594		13.671875
5595		17.578125
5596		11.718750
5597		15.625000
5598		11.718750
5599		15.625000
5600		11.718750
5601		15.625000
5602		11.718750
5603		15.625000
5604		11.718750
5605		13.671875
5606		11.718750
5607		13.671875
5608		9.765625
5609		13.671875
5610		9.765625
5611		13.671875
5612		9.765625
5613		11.718750
5614		7.812500
5615		13.671875
5616		9.765625
5617		11.718750
5618		7.812500
5619		11.718750
5620		5.859375
5621		11.718750
5622		5.859375
5623		9.765625
5624		5.859375
5625		9.765625
5626		5.859375
5627		9.765625
5628		5.859375
5629		7.812500
5630		3.906250
5631		7.812500
5632		3.906250
5633		7.812500
5634		3.906250
5635		7.812500
5636		3.906250
5637		7.812500
5638		3.906250
5639		5.859375
5640		1.953125
5641		5.859375
5642		1.953125
5643		5.859375
5644		1.953125
5645		5.859375
5646		0.000000
5647		3.906250
5648		0.000000
5649		3.906250
5650		0.000000
5651		3.906250
5652		0.000000
5653		3.906250
5654		0.000000
5655		1.953125
5656		-1.953125
5657		1.953125
5658		-1.953125
5659		1.953125
5660		-1.953125
5661		0.000000
5662		-1.953125
5663		0.000000
5664		-3.906250
5665		0.000000
5666		-3.906250
5667		0.000000
5668		-3.906250
5669		0.000000
5670		-3.906250
5671		-1.953125
5672		-5.859375
5673		-1.953125
5674		-5.859375
5675		-1.953125
5676		-5.859375
5677		-1.953125
5678		-5.859375
5679		-1.953125
5680		-7.812500
5681		-3.906250
5682		-7.812500
5683		-3.906250
5684		-7.812500
5685		-3.906250
5686		-7.812500
5687		-3.906250
5688		-9.765625
5689		-5.859375
5690		-7.812500
5691		-5.859375
5692		-9.765625
5693		-5.859375
5694		-9.765625
5695		-5.859375
5696		-9.765625
5697		-5.859375
5698		-9.765625
5699		-5.859375
5700		-9.765625
5701		-7.812500
5702		-11.718750
5703		-7.812500
5704		-11.718750
5705		-7.812500
5706		-11.718750
5707		-7.812500
5708		-11.718750
5709		-7.812500
5710		-11.718750
5711		-7.812500
5712		-11.718750
5713		-9.765625
5714		-13.671875
5715		-9.765625
5716		-11.718750
5717		-9.765625
5718		-11.718750
5719		-9.765625
5720		-13.671875
5721		-9.765625
5722		-13.671875
5723		-9.765625
5724		-13.671875
5725		-9.765625
5726		-13.671875
5727		-11.718750
5728		-13.671875
5729		-11.718750
5730		-13.671875
5731		-11.718750
5732		-15.625000
5733		-11.718750
5734		-13.671875
5735		-11.718750
5736		-13.671875
5737		-11.718750
5738		-15.625000
5739		-11.718750
5740		-15.625000
5741		-11.718750
5742		-15.625000
5743		-11.718750
5744		-13.671875
5745		-11.718750
5746		-15.625000
5747		-11.718750
5748		-15.625000
5749		-11.718750
5750		-15.625000
5751		-11.718750
5752		-13.671875
5753		-11.718750
5754		-15.625000
5755		-11.718750
5756		-15.625000
5757		-11.718750
5758		-15.625000
5759		-11.718750
5760		-13.671875
5761		-11.718750
5762		-13.671875
5763		-11.718750
5764		-13.671875
5765		-11.718750
5766		-13.671875
5767		-11.718750
5768		-13.671875
5769		-11.718750
5770		-13.671875
5771		-11.718750
5772		-13.671875
5773		-9.765625
5774		-13.671875
5775		-11.718750
5776		-13.671875
5777		-9.765625
5778		-13.671875
5779		-9.765625
5780		-13.671875
5781		-9.765625
5782		-13.671875
5783		-9.765625
5784		-13.671875
5785		-9.765625
5786		-13.671875
5787		-7.812500
5788		-11.718750
5789		-9.765625
5790		-11.718750
5791		-9.765625
5792		-11.718750
5793		-7.812500
5794		-11.718750
5795		-7.812500
5796		-11.718750
5797		-7.812500
5798		-11.718750
5799		-7.812500
5800		-9.765625
5801		-7.812500
5802		-9.765625
5803		-7.812500
5804		-9.765625
5805		-5.859375
5806		-9.765625
5807		-5.859375
5808		-9.765625
5809		-5.859375
5810		-7.812500
5811		-5.859375
5812		-7.812500
5813		-5.859375
5814		-7.812500
5815		-3.906250
5816		-7.812500
5817		-3.906250
5818		-5.859375
5819		-3.906250
5820		-7.812500
5821		-3.906250
5822		-5.859375
5823		-3.906250
5824		-5.859375
5825		-1.953125
5826		-5.859375
5827		-1.953125
5828		-3.906250
5829		-1.953125
5830		-3.906250
5831		-1.953125
5832		-3.906250
5833		0.000000
5834		-3.906250
5835		0.000000
5836		-1.953125
5837		0.000000
5838		-3.906250
5839		1.953125
5840		-1.953125
5841		1.953125
5842		-1.953125
5843		1.953125
5844		-1.953125
5845		1.953125
5846		-1.953125
5847		3.906250
5848		0.000000
5849		3.906250
5850		0.000000
5851		3.906250
5852		1.953125
5853		3.906250
5854		1.953125
5855		5.859375
5856		1.953125
5857		5.859375
5858		1.953125
5859		5.859375
5860		1.953125
5861		7.812500
5862		3.906250
5863		7.812500
5864		1.953125
5865		7.812500
5866		3.906250
5867		7.812500
5868		5.859375
5869		7.812500
5870		5.859375
5871		9.765625
5872		5.859375
5873		9.765625
5874		5.859375
5875		9.765625
5876		7.812500
5877		11.718750
5878		7.812500
5879		11.718750
5880		7.812500
5881		11.718750
5882		7.812500
5883		11.718750
5884		9.765625
5885		11.718750
5886		9.765625
5887		11.718750
5888		9.765625
5889		13.671875
5890		9.765625
5891		13.671875
5892		9.765625
5893		15.625000
5894		9.765625
5895		15.625000
5896		11.718750
5897		15.625000
5898		11.718750
5899		15.625000
5900		11.718750
5901		15.625000
5902		13.671875
5903		15.625000
5904		13.671875
5905		17.578125
5906		13.671875
5907		17.578125
5908		13.671875
5909		19.531250
5910		13.671875
5911		19.531250
5912		13.671875
5913		19.531250
5914		15.625000
5915		19.531250
5916		15.625000
5917		19.531250
5918		17.578125
5919		19.531250
5920		17.578125
5921		19.531250
5922		15.625000
5923		21.484375
5924		17.578125
5925		21.484375
5926		17.578125
5927		21.484375
5928		17.578125
5929		21.484375
5930		17.578125
5931		21.484375
5932		17.578125
5933		23.437500
5934		17.578125
5935		21.484375
5936		19.531250
5937		21.484375
5938		19.531250
5939		23.437500
5940		19.531250
5941		23.437500
5942		19.531250
5943		25.390625
5944		19.531250
5945		23.437500
5946		19.531250
5947		25.390625
5948		19.531250
5949		25.390625
5950		19.531250
5951		25.390625
5952		21.484375
5953		25.390625
5954		21.484375
5955		25.390625
5956		21.484375
5957		25.390625
5958		21.484375
5959		25.390625
5960		21.484375
5961		25.390625
5962		21.484375
5963		25.390625
5964		23.437500
5965		25.390625
5966		23.437500
5967		25.390625
5968		23.437500
5969		25.390625
5970		23.437500
5971		25.390625
5972		21.484375
5973		25.390625
5974		23.437500
5975		25.390625
5976		23.437500
5977		25.390625
5978		23.437500
5979		25.390625
5980		23.437500
5981		25.390625
5982		23.437500
5983		25.390625
5984		23.437500
5985		27.343750
5986		23.437500
5987		25.390625
5988		23.437500
5989		25.390625
5990		23.437500
5991		25.390625
5992		23.437500
5993		25.390625
5994		23.437500
5995		25.390625
5996		23.437500
5997		25.390625
5998		23.437500
5999		25.390625
6000		23.437500
6001		25.390625
6002		23.437500
6003		25.390625
6004		23.437500
6005		25.390625
6006		21.484375
6007		25.390625
6008		21.484375
6009		25.390625
6010		21.484375
6011		25.390625
6012		21.484375
6013		25.390625
6014		21.484375
6015		25.390625
6016		21.484375
6017		25.390625
6018		21.484375
6019		25.390625
6020		21.484375
6021		23.437500
6022		21.484375
6023		23.437500
6024		21.484375
6025		23.437500
6026		19.531250
6027		23.437500
6028		19.531250
6029		23.437500
6030		19.531250
6031		21.484375
6032		19.531250
6033		21.484375
6034		19.531250
6035		21.484375
6036		19.531250
6037		21.484375
6038		19.531250
6039		21.484375
6040		19.531250
6041		21.484375
6042		17.578125
6043		21.484375
6044		17.578125
6045		19.531250
6046		17.578125
6047		19.531250
6048		17.578125
6049		19.531250
6050		17.578125
6051		19.531250
6052		15.625000
6053		19.531250
6054		15.625000
6055		19.531250
6056		13.671875
6057		21.484375
6058		11.718750
6059		21.484375
6060		11.718750
6061		19.531250
6062		13.671875
6063		17.578125
6064		13.671875
6065		15.625000
6066		13.671875
6067		15.625000
6068		13.671875
6069		15.625000
6070		11.718750
6071		15.625000
6072		9.765625
6073		17.578125
6074		7.812500
6075		17.578125
6076		7.812500
6077		17.578125
6078		7.812500
6079		15.625000
6080		9.765625
6081		13.671875
6082		9.765625
6083		11.718750
6084		9.765625
6085		11.718750
6086		9.765625
6087		11.718750
6088		7.812500
6089		11.718750
6090		5.859375
6091		13.671875
6092		5.859375
6093		13.671875
6094		3.906250
6095		13.671875
6096		5.859375
6097		9.765625
6098		5.859375
6099		7.812500
6100		5.859375
6101		7.812500
6102		5.859375
6103		7.812500
6104		3.906250
6105		7.812500
6106		0.000000
6107		9.765625
6108		0.000000
6109		9.765625
6110		0.000000
6111		9.765625
6112		1.953125
6113		5.859375
6114		1.953125
6115		5.859375
6116		1.953125
6117		3.906250
6118		1.953125
6119		3.906250
6120		0.000000
6121		3.906250
6122		-1.953125
6123		5.859375
6124		-3.906250
6125		5.859375
6126		-3.906250
6127		5.859375
6128		-3.906250
6129		5.859375
6130		-1.953125
6131		0.000000
6132		-1.953125
6133		0.000000
6134		-3.906250
6135		0.000000
6136		-3.906250
6137		0.000000
6138		-3.906250
6139		-1.953125
6140		-7.812500
6141		1.953125
6142		-7.812500
6143		1.953125
6144		-7.812500
6145		0.000000
6146		-5.859375
6147		-1.953125
6148		-5.859375
6149		-3.906250
6150		-5.859375
6151		-3.906250
6152		-7.812500
6153		-3.906250
6154		-7.812500
6155		-3.906250
6156		-9.765625
6157		-1.953125
6158		-11.718750
6159		-1.953125
6160		-11.718750
6161		-1.953125
6162		-11.718750
6163		-1.953125
6164		-9.765625
6165		-5.859375
6166		-9.765625
6167		-5.859375
6168		-9.765625
6169		-7.812500
6170		-9.765625
6171		-7.812500
6172		-9.765625
6173		-7.812500
6174		-13.671875
6175		-3.906250
6176		-13.671875
6177		-5.859375
6178		-13.671875
6179		-5.859375
6180		-11.718750
6181		-9.765625
6182		-11.718750
6183		-9.765625
6184		-11.718750
6185		-9.765625
6186		-11.718750
6187		-9.765625
6188		-11.718750
6189		-9.765625
6190		-15.625000
6191		-7.812500
6192		-15.625000
6193		-5.859375
6194		-15.625000
6195		-7.812500
6196		-13.671875
6197		-11.718750
6198		-13.671875
6199		-11.718750
6200		-13.671875
6201		-11.718750
6202		-13.671875
6203		-11.718750
6204		-13.671875
6205		-11.718750
6206		-15.625000
6207		-7.812500
6208		-17.578125
6209		-7.812500
6210		-17.578125
6211		-7.812500
6212		-17.578125
6213		-7.812500
6214		-13.671875
6215		-11.718750
6216		-13.671875
6217		-11.718750
6218		-13.671875
6219		-11.718750
6220		-13.671875
6221		-11.718750
6222		-13.671875
6223		-11.718750
6224		-17.578125
6225		-7.812500
6226		-17.578125
6227		-7.812500
6228		-17.578125
6229		-7.812500
6230		-13.671875
6231		-11.718750
6232		-13.671875
6233		-11.718750
6234		-13.671875
6235		-11.718750
6236		-13.671875
6237		-11.718750
6238		-13.671875
6239		-11.718750
6240		-13.671875
6241		-11.718750
6242		-15.625000
6243		-7.812500
6244		-15.625000
6245		-7.812500
6246		-13.671875
6247		-11.718750
6248		-13.671875
6249		-9.765625
6250		-13.671875
6251		-9.765625
6252		-13.671875
6253		-9.765625
6254		-11.718750
6255		-9.765625
6256		-11.718750
6257		-9.765625
6258		-11.718750
6259		-9.765625
6260		-13.671875
6261		-5.859375
6262		-13.671875
6263		-5.859375
6264		-11.718750
6265		-7.812500
6266		-11.718750
6267		-7.812500
6268		-11.718750
6269		-7.812500
6270		-9.765625
6271		-7.812500
6272		-9.765625
6273		-7.812500
6274		-9.765625
6275		-5.859375
6276		-11.718750
6277		-5.859375
6278		-11.718750
6279		-3.906250
6280		-7.812500
6281		-5.859375
6282		-7.812500
6283		-5.859375
6284		-7.812500
6285		-5.859375
6286		-7.812500
6287		-3.906250
6288		-7.812500
6289		-3.906250
6290		-5.859375
6291		-3.906250
6292		-5.859375
6293		-3.906250
6294		-5.859375
6295		-3.906250
6296		-5.859375
6297		-1.953125
6298		-5.859375
6299		-1.953125
6300		-3.906250
6301		-1.953125
6302		-3.906250
6303		-1.953125
6304		-3.906250
6305		0.000000
6306		-3.906250
6307		0.000000
6308		-1.953125
6309		0.000000
6310		-1.953125
6311		0.000000
6312		-1.953125
6313		1.953125
6314		0.000000
6315		1.953125
6316		0.000000
6317		1.953125
6318		0.000000
6319		1.953125
6320		0.000000
6321		3.906250
6322		1.953125
6323		3.906250
6324		1.953125
6325		3.906250
6326		1.953125
6327		3.906250
6328		1.953125
6329		5.859375
6330		1.953125
6331		5.859375
6332		3.906250
6333		5.859375
6334		3.906250
6335		7.812500
6336		3.906250
6337		7.812500
6338		3.906250
6339		7.812500
6340		5.859375
6341		7.812500
6342		5.859375
6343		9.765625
6344		5.859375
6345		9.765625
6346		7.812500
6347		9.765625
6348		7.812500
6349		9.765625
6350		7.812500
6351		11.718750
6352		7.812500
6353		11.718750
6354		9.765625
6355		11.718750
6356		9.765625
6357		11.718750
6358		9.765625
6359		13.671875
6360		9.765625
6361		13.671875
6362		11.718750
6363		13.671875
6364		11.718750
6365		13.671875
6366		11.718750
6367		15.625000
6368		11.718750
6369		15.625000
6370		13.671875
6371		15.625000
6372		13.671875
6373		15.625000
6374		13.671875
6375		17.578125
6376		13.671875
6377		17.578125
6378		13.671875
6379		17.578125
6380		15.625000
6381		17.578125
6382		13.671875
6383		19.531250
6384		15.625000
6385		19.531250
6386		15.625000
6387		19.531250
6388		15.625000
6389		19.531250
6390		17.578125
6391		19.531250
6392		17.578125
6393		21.484375
6394		17.578125
6395		21.484375
6396		17.578125
6397		21.484375
6398		17.578125
6399		21.484375
6400		17.578125
6401		21.484375
6402		19.531250
6403		21.484375
6404		19.531250
6405		21.484375
6406		19.531250
6407		21.484375
6408		17.578125
6409		23.437500
6410		19.531250
6411		23.437500
6412		21.484375
6413		23.437500
6414		21.484375
6415		23.437500
6416		21.484375
6417		23.437500
6418		21.484375
6419		23.437500
6420		21.484375
6421		23.437500
6422		21.484375
6423		23.437500
6424		21.484375
6425		25.390625
6426		21.484375
6427		25.390625
6428		21.484375
6429		25.390625
6430		21.484375
6431		25.390625
6432		21.484375
6433		25.390625
6434		21.484375
6435		25.390625
6436		23.437500
6437		25.390625
6438		23.437500
6439		25.390625
6440		23.437500
6441		25.390625
6442		23.437500
6443		25.390625
6444		23.437500
6445		25.390625
6446		23.437500
6447		25.390625
6448		23.437500
6449		25.390625
6450		23.437500
6451		25.390625
6452		23.437500
6453		25.390625
6454		23.437500
6455		25.390625
6456		23.437500
6457		25.390625
6458		23.437500
6459		27.343750
6460		23.437500
6461		25.390625
6462		23.437500
6463		27.343750
6464		23.437500
6465		25.390625
6466		21.484375
6467		25.390625
6468		21.484375
6469		27.343750
6470		23.437500
6471		25.390625
6472		23.437500
6473		25.390625
6474		23.437500
6475		25.390625
6476		21.484375
6477		27.343750
6478		21.484375
6479		25.390625
6480		21.484375
6481		25.390625
6482		21.484375
6483		25.390625
6484		21.484375
6485		25.390625
6486		21.484375
6487		25.390625
6488		21.484375
6489		23.437500
6490		21.484375
6491		25.390625
6492		19.531250
6493		25.390625
6494		19.531250
6495		23.437500
6496		19.531250
6497		23.437500
6498		21.484375
6499		23.437500
6500		19.531250
6501		23.437500
6502		19.531250
6503		23.437500
6504		19.531250
6505		21.484375
6506		19.531250
6507		21.484375
6508		19.531250
6509		21.484375
6510		17.578125
6511		21.484375
6512		17.578125
6513		21.484375
6514		17.578125
6515		21.484375
6516		17.578125
6517		21.484375
6518		17.578125
6519		21.484375
6520		17.578125
6521		19.531250
6522		17.578125
6523		19.531250
6524		15.625000
6525		19.531250
6526		15.625000
6527		19.531250
6528		15.625000
6529		17.578125
6530		15.625000
6531		17.578125
6532		13.671875
6533		17.578125
6534		13.671875
6535		17.578125
6536		13.671875
6537		15.625000
6538		13.671875
6539		15.625000
6540		13.671875
6541		15.625000
6542		11.718750
6543		15.625000
6544		11.718750
6545		15.625000
6546		11.718750
6547		13.671875
6548		11.718750
6549		13.671875
6550		11.718750
6551		13.671875
6552		9.765625
6553		13.671875
6554		9.765625
6555		11.718750
6556		9.765625
6557		11.718750
6558		9.765625
6559		11.718750
6560		7.812500
6561		11.718750
6562		7.812500
6563		9.765625
6564		7.812500
6565		9.765625
6566		7.812500
6567		9.765625
6568		5.859375
6569		9.765625
6570		5.859375
6571		7.812500
6572		5.859375
6573		7.812500
6574		3.906250
6575		7.812500
6576		3.906250
6577		7.812500
6578		3.906250
6579		5.859375
6580		3.906250
6581		5.859375
6582		1.953125
6583		5.859375
6584		1.953125
6585		5.859375
6586		1.953125
6587		5.859375
6588		1.953125
6589		3.906250
6590		1.953125
6591		3.906250
6592		0.000000
6593		3.906250
6594		0.000000
6595		1.953125
6596		0.000000
6597		1.953125
6598		-1.953125
6599		1.953125
6600		-1.953125
6601		1.953125
6602		-1.953125
6603		0.000000
6604		-1.953125
6605		0.000000
6606		-3.906250
6607		0.000000
6608		-3.906250
6609		0.000000
6610		-3.906250
6611		-1.953125
6612		-3.906250
6613		-1.953125
6614		-3.906250
6615		-1.953125
6616		-5.859375
6617		-1.953125
6618		-5.859375
6619		-1.953125
6620		-5.859375
6621		-3.906250
6622		-5.859375
6623		-3.906250
6624		-7.812500
6625		-3.906250
6626		-7.812500
6627		-3.906250
6628		-7.812500
6629		-5.859375
6630		-7.812500
6631		-5.859375
6632		-7.812500
6633		-5.859375
6634		-9.765625
6635		-5.859375
6636		-9.765625
6637		-5.859375
6638		-9.765625
6639		-7.812500
6640		-9.765625
6641		-7.812500
6642		-9.765625
6643		-7.812500
6644		-11.718750
6645		-7.812500
6646		-11.718750
6647		-7.812500
6648		-11.718750
6649		-7.812500
6650		-11.718750
6651		-9.765625
6652		-11.718750
6653		-7.812500
6654		-11.718750
6655		-9.765625
6656		-11.718750
6657		-9.765625
6658		-11.718750
6659		-9.765625
6660		-13.671875
6661		-9.765625
6662		-13.671875
6663		-9.765625
6664		-13.671875
6665		-9.765625
6666		-13.671875
6667		-11.718750
6668		-13.671875
6669		-11.718750
6670		-13.671875
6671		-11.718750
6672		-13.671875
6673		-11.718750
6674		-13.671875
6675		-11.718750
6676		-13.671875
6677		-11.718750
6678		-15.625000
6679		-11.718750
6680		-15.625000
6681		-11.718750
6682		-13.671875
6683		-11.718750
6684		-13.671875
6685		-11.718750
6686		-13.671875
6687		-11.718750
6688		-13.671875
6689		-11.718750
6690		-15.625000
6691		-11.718750
6692		-15.625000
6693		-11.718750
6694		-17.578125
6695		-9.765625
6696		-15.625000
6697		-9.765625
6698		-15.625000
6699		-11.718750
6700		-15.625000
6701		-11.718750
6702		-13.671875
6703		-11.718750
6704		-13.671875
6705		-11.718750
6706		-13.671875
6707		-11.718750
6708		-13.671875
6709		-11.718750
6710		-13.671875
6711		-11.718750
6712		-15.625000
6713		-9.765625
6714		-15.625000
6715		-9.765625
6716		-13.671875
6717		-11.718750
6718		-13.671875
6719		-11.718750
6720		-13.671875
6721		-11.718750
6722		-13.671875
6723		-9.765625
6724		-11.718750
6725		-9.765625
6726		-11.718750
6727		-9.765625
6728		-15.625000
6729		-7.812500
6730		-13.671875
6731		-7.812500
6732		-11.718750
6733		-9.765625
6734		-11.718750
6735		-9.765625
6736		-11.718750
6737		-7.812500
6738		-11.718750
6739		-7.812500
6740		-9.765625
6741		-7.812500
6742		-9.765625
6743		-7.812500
6744		-11.718750
6745		-5.859375
6746		-11.718750
6747		-5.859375
6748		-9.765625
6749		-5.859375
6750		-9.765625
6751		-5.859375
6752		-7.812500
6753		-5.859375
6754		-7.812500
6755		-5.859375
6756		-7.812500
6757		-5.859375
6758		-7.812500
6759		-3.906250
6760		-7.812500
6761		-3.906250
6762		-7.812500
6763		-1.953125
6764		-7.812500
6765		-1.953125
6766		-5.859375
6767		-1.953125
6768		-5.859375
6769		-1.953125
6770		-3.906250
6771		-1.953125
6772		-3.906250
6773		-1.953125
6774		-3.906250
6775		-1.953125
6776		-3.906250
6777		0.000000
6778		-3.906250
6779		1.953125
6780		-3.906250
6781		1.953125
6782		-1.953125
6783		0.000000
6784		-1.953125
6785		1.953125
6786		-1.953125
6787		1.953125
6788		0.000000
6789		1.953125
6790		0.000000
6791		3.906250
6792		0.000000
6793		3.906250
6794		1.953125
6795		3.906250
6796		0.000000
6797		5.859375
6798		0.000000
6799		5.859375
6800		1.953125
6801		5.859375
6802		3.906250
6803		5.859375
6804		3.906250
6805		5.859375
6806		3.906250
6807		5.859375
6808		3.906250
6809		7.812500
6810		5.859375
6811		7.812500
6812		3.906250
6813		9.765625
6814		5.859375
6815		9.765625
6816		5.859375
6817		9.765625
6818		7.812500
6819		9.765625
6820		7.812500
6821		9.765625
6822		7.812500
6823		11.718750
6824		7.812500
6825		11.718750
6826		9.765625
6827		11.718750
6828		7.812500
6829		15.625000
6830		9.765625
6831		13.671875
6832		9.765625
6833		13.671875
6834		11.718750
6835		13.671875
6836		11.718750
6837		13.671875
6838		11.718750
6839		15.625000
6840		11.718750
6841		15.625000
6842		13.671875
6843		15.625000
6844		13.671875
6845		15.625000
6846		11.718750
6847		17.578125
6848		13.671875
6849		17.578125
6850		13.671875
6851		17.578125
6852		15.625000
6853		17.578125
6854		15.625000
6855		17.578125
6856		15.625000
6857		19.531250
6858		15.625000
6859		19.531250
6860		17.578125
6861		19.531250
6862		15.625000
6863		19.531250
6864		17.578125
6865		19.531250
6866		17.578125
6867		19.531250
6868		17.578125
6869		21.484375
6870		17.578125
6871		21.484375
6872		19.531250
6873		21.484375
6874		19.531250
6875		21.484375
6876		19.531250
6877		21.484375
6878		19.531250
6879		23.437500
6880		19.531250
6881		23.437500
6882		19.531250
6883		23.437500
6884		19.531250
6885		23.437500
6886		21.484375
6887		23.437500
6888		21.484375
6889		23.437500
6890		21.484375
6891		23.437500
6892		21.484375
6893		23.437500
6894		21.484375
6895		23.437500
6896		21.484375
6897		25.390625
6898		21.484375
6899		25.390625
6900		21.484375
6901		25.390625
6902		21.484375
6903		25.390625
6904		23.437500
6905		25.390625
6906		23.437500
6907		25.390625
6908		23.437500
6909		25.390625
6910		23.437500
6911		25.390625
6912		23.437500
6913		25.390625
6914		23.437500
6915		25.390625
6916		23.437500
6917		25.390625
6918		23.437500
6919		25.390625
6920		23.437500
6921		25.390625
6922		23.437500
6923		25.390625
6924		23.437500
6925		25.390625
6926		23.437500
6927		25.390625
6928		23.437500
6929		25.390625
6930		23.437500
6931		25.390625
6932		23.437500
6933		25.390625
6934		23.437500
6935		25.390625
6936		23.437500
6937		25.390625
6938		23.437500
6939		25.390625
6940		23.437500
6941		25.390625
6942		23.437500
6943		25.390625
6944		23.437500
6945		25.390625
6946		23.437500
6947		25.390625
6948		23.437500
6949		25.390625
6950		21.484375
6951		25.390625
6952		21.484375
6953		25.390625
6954		21.484375
6955		23.437500
6956		21.484375
6957		23.437500
6958		21.484375
6959		25.390625
6960		21.484375
6961		23.437500
6962		21.484375
6963		23.437500
6964		21.484375
6965		23.437500
6966		21.484375
6967		23.437500
6968		21.484375
6969		23.437500
6970		19.531250
6971		23.437500
6972		19.531250
6973		23.437500
6974		19.531250
6975		21.484375
6976		19.531250
6977		21.484375
6978		19.531250
6979		21.484375
6980		17.578125
6981		21.484375
6982		17.578125
6983		21.484375
6984		17.578125
6985		21.484375
6986		17.578125
6987		19.531250
6988		17.578125
6989		19.531250
6990		17.578125
6991		19.531250
6992		17.578125
6993		19.531250
6994		15.625000
6995		19.531250
6996		15.625000
6997		17.578125
6998		15.625000
6999		17.578125
7000		15.625000
7001		17.578125
7002		15.625000
7003		17.578125
7004		13.671875
7005		17.578125
7006		13.671875
7007		15.625000
7008		13.671875
7009		15.625000
7010		13.671875
7011		15.625000
7012		11.718750
7013		15.625000
7014		11.718750
7015		15.625000
7016		11.718750
7017		13.671875
7018		11.718750
7019		13.671875
7020		11.718750
7021		13.671875
7022		9.765625
7023		13.671875
7024		9.765625
7025		11.718750
7026		9.765625
7027		11.718750
7028		9.765625
7029		11.718750
7030		7.812500
7031		11.718750
7032		7.812500
7033		9.765625
7034		7.812500
7035		9.765625
7036		7.812500
7037		9.765625
7038		5.859375
7039		9.765625
7040		5.859375
7041		7.812500
7042		5.859375
7043		7.812500
7044		5.859375
7045		7.812500
7046		3.906250
7047		7.812500
7048		3.906250
7049		7.812500
7050		3.906250
7051		5.859375
7052		1.953125
7053		5.859375
7054		1.953125
7055		5.859375
7056		1.953125
7057		3.906250
7058		1.953125
7059		3.906250
7060		1.953125
7061		3.906250
7062		0.000000
7063		3.906250
7064		0.000000
7065		3.906250
7066		0.000000
7067		1.953125
7068		0.000000
7069		1.953125
7070		-1.953125
7071		1.953125
7072		-1.953125
7073		0.000000
7074		-3.906250
7075		0.000000
7076		-1.953125
7077		0.000000
7078		-3.906250
7079		0.000000
7080		-3.906250
7081		-1.953125
7082		-3.906250
7083		-1.953125
7084		-3.906250
7085		-1.953125
7086		-5.859375
7087		-1.953125
7088		-5.859375
7089		-1.953125
7090		-5.859375
7091		-3.906250
7092		-5.859375
7093		-3.906250
7094		-5.859375
7095		-3.906250
7096		-7.812500
7097		-3.906250
7098		-7.812500
7099		-5.859375
7100		-7.812500
7101		-5.859375
7102		-7.812500
7103		-5.859375
7104		-9.765625
7105		-5.859375
7106		-9.765625
7107		-7.812500
7108		-9.765625
7109		-7.812500
7110		-9.765625
7111		-7.812500
7112		-9.765625
7113		-7.812500
7114		-11.718750
7115		-7.812500
7116		-11.718750
7117		-7.812500
7118		-11.718750
7119		-9.765625
7120		-11.718750
7121		-9.765625
7122		-11.718750
7123		-9.765625
7124		-11.718750
7125		-9.765625
7126		-11.718750
7127		-9.765625
7128		-11.718750
7129		-9.765625
7130		-13.671875
7131		-9.765625
7132		-13.671875
7133		-9.765625
7134		-13.671875
7135		-11.718750
7136		-13.671875
7137		-9.765625
7138		-13.671875
7139		-11.718750
7140		-13.671875
7141		-11.718750
7142		-13.671875
7143		-11.718750
7144		-13.671875
7145		-11.718750
7146		-13.671875
7147		-11.718750
7148		-13.671875
7149		-11.718750
7150		-13.671875
7151		-11.718750
7152		-13.671875
7153		-11.718750
7154		-15.625000
7155		-11.718750
7156		-15.625000
7157		-11.718750
7158		-15.625000
7159		-11.718750
7160		-15.625000
7161		-11.718750
7162		-13.671875
7163		-11.718750
7164		-15.625000
7165		-11.718750
7166		-15.625000
7167		-11.718750
7168		-15.625000
7169		-11.718750
7170		-15.625000
7171		-11.718750
7172		-13.671875
7173		-11.718750
7174		-15.625000
7175		-11.718750
7176		-13.671875
7177		-11.718750
7178		-13.671875
7179		-11.718750
7180		-13.671875
7181		-11.718750
7182		-13.671875
7183		-11.718750
7184		-13.671875
7185		-11.718750
7186		-13.671875
7187		-11.718750
7188		-13.671875
7189		-11.718750
7190		-13.671875
7191		-11.718750
7192		-13.671875
7193		-9.765625
7194		-13.671875
7195		-9.765625
7196		-13.671875
7197		-9.765625
7198		-13.671875
7199		-9.765625
7200		-11.718750
7201		-9.765625
7202		-11.718750
7203		-9.765625
7204		-11.718750
7205		-9.765625
7206		-11.718750
7207		-9.765625
7208		-11.718750
7209		-7.812500
7210		-11.718750
7211		-7.812500
7212		-9.765625
7213		-7.812500
7214		-9.765625
7215		-7.812500
7216		-9.765625
7217		-7.812500
7218		-9.765625
7219		-7.812500
7220		-9.765625
7221		-5.859375
7222		-9.765625
7223		-5.859375
7224		-7.812500
7225		-5.859375
7226		-7.812500
7227		-5.859375
7228		-7.812500
7229		-5.859375
7230		-7.812500
7231		-3.906250
7232		-5.859375
7233		-3.906250
7234		-5.859375
7235		-3.906250
7236		-5.859375
7237		-3.906250
7238		-5.859375
7239		-1.953125
7240		-5.859375
7241		-1.953125
7242		-3.906250
7243		-1.953125
7244		-3.906250
7245		-1.953125
7246		-3.906250
7247		-1.953125
7248		-3.906250
7249		0.000000
7250		-3.906250
7251		0.000000
7252		-1.953125
7253		0.000000
7254		-1.953125
7255		0.000000
7256		-1.953125
7257		1.953125
7258		0.000000
7259		1.953125
7260		0.000000
7261		1.953125
7262		0.000000
7263		3.906250
7264		0.000000
7265		3.906250
7266		1.953125
7267		3.906250
7268		1.953125
7269		3.906250
7270		1.953125
7271		3.906250
7272		1.953125
7273		5.859375
7274		3.906250
7275		5.859375
7276		3.906250
7277		5.859375
7278		3.906250
7279		7.812500
7280		5.859375
7281		7.812500
7282		5.859375
7283		7.812500
7284		5.859375
7285		7.812500
7286		5.859375
7287		9.765625
7288		5.859375
7289		9.765625
7290		7.812500
7291		9.765625
7292		7.812500
7293		9.765625
7294		7.812500
7295		11.718750
7296		9.765625
7297		11.718750
7298		9.765625
7299		11.718750
7300		9.765625
7301		11.718750
7302		9.765625
7303		13.671875
7304		9.765625
7305		13.671875
7306		11.718750
7307		13.671875
7308		11.718750
7309		15.625000
7310		11.718750
7311		15.625000
7312		11.718750
7313		15.625000
7314		13.671875
7315		15.625000
7316		13.671875
7317		15.625000
7318		13.671875
7319		17.578125
7320		13.671875
7321		17.578125
7322		15.625000
7323		17.578125
7324		15.625000
7325		17.578125
7326		15.625000
7327		17.578125
7328		15.625000
7329		19.531250
7330		15.625000
7331		19.531250
7332		17.578125
7333		19.531250
7334		17.578125
7335		19.531250
7336		17.578125
7337		19.531250
7338		17.578125
7339		21.484375
7340		17.578125
7341		21.484375
7342		17.578125
7343		21.484375
7344		19.531250
7345		21.484375
7346		19.531250
7347		21.484375
7348		19.531250
7349		21.484375
7350		19.531250
7351		23.437500
7352		19.531250
7353		23.437500
7354		19.531250
7355		23.437500
7356		21.484375
7357		23.437500
7358		21.484375
7359		23.437500
7360		21.484375
7361		23.437500
7362		21.484375
7363		23.437500
7364		21.484375
7365		23.437500
7366		21.484375
7367		23.437500
7368		21.484375
7369		23.437500
7370		21.484375
7371		25.390625
7372		21.484375
7373		25.390625
7374		21.484375
7375		25.390625
7376		21.484375
7377		25.390625
7378		23.437500
7379		25.390625
7380		23.437500
7381		25.390625
7382		23.437500
7383		25.390625
7384		23.437500
7385		25.390625
7386		23.437500
7387		25.390625
7388		23.437500
7389		25.390625
7390		23.437500
7391		25.390625
7392		23.437500
7393		25.390625
7394		23.437500
7395		25.390625
7396		23.437500
7397		25.390625
7398		23.437500
7399		25.390625
7400		23.437500
7401		25.390625
7402		23.437500
7403		25.390625
7404		23.437500
7405		25.390625
7406		23.437500
7407		25.390625
7408		23.437500
7409		25.390625
7410		23.437500
7411		25.390625
7412		23.437500
7413		25.390625
7414		23.437500
7415		25.390625
7416		21.484375
7417		25.390625
7418		21.484375
7419		25.390625
7420		21.484375
7421		25.390625
7422		21.484375
7423		25.390625
7424		21.484375
7425		23.437500
7426		21.484375
7427		23.437500
7428		21.484375
7429		23.437500
7430		21.484375
7431		23.437500
7432		19.531250
7433		23.437500
7434		21.484375
7435		23.437500
7436		21.484375
7437		23.437500
7438		19.531250
7439		23.437500
7440		19.531250
7441		23.437500
7442		19.531250
7443		21.484375
7444		19.531250
7445		21.484375
7446		19.531250
7447		21.484375
7448		19.531250
7449		21.484375
7450		17.578125
7451		21.484375
7452		17.578125
7453		21.484375
7454		17.578125
7455		21.484375
7456		17.578125
7457		19.531250
7458		17.578125
7459		19.531250
7460		17.578125
7461		19.531250
7462		15.625000
7463		19.531250
7464		15.625000
7465		19.531250
7466		15.625000
7467		19.531250
7468		15.625000
7469		17.578125
7470		15.625000
7471		17.578125
7472		15.625000
7473		17.578125
7474		13.671875
7475		17.578125
7476		13.671875
7477		15.625000
7478		13.671875
7479		15.625000
7480		13.671875
7481		15.625000
7482		11.718750
7483		15.625000
7484		11.718750
7485		15.625000
7486		11.718750
7487		13.671875
7488		11.718750
7489		13.671875
7490		9.765625
7491		13.671875
7492		9.765625
7493		13.671875
7494		9.765625
7495		11.718750
7496		9.765625
7497		11.718750
7498		9.765625
7499		11.718750
7500		7.812500
7501		11.718750
7502		7.812500
7503		11.718750
7504		7.812500
7505		9.765625
7506		7.812500
7507		9.765625
7508		5.859375
7509		9.765625
7510		5.859375
7511		9.765625
7512		5.859375
7513		7.812500
7514		5.859375
7515		7.812500
7516		3.906250
7517		7.812500
7518		3.906250
7519		7.812500
7520		3.906250
7521		5.859375
7522		3.906250
7523		5.859375
7524		1.953125
7525		5.859375
7526		1.953125
7527		3.906250
7528		1.953125
7529		3.906250
7530		1.953125
7531		3.906250
7532		0.000000
7533		3.906250
7534		0.000000
7535		3.906250
7536		0.000000
7537		1.953125
7538		0.000000
7539		1.953125
7540		-1.953125
7541		1.953125
7542		-1.953125
7543		0.000000
7544		-1.953125
7545		0.000000
7546		-1.953125
7547		0.000000
7548		-3.906250
7549		0.000000
7550		-3.906250
7551		-1.953125
7552		-3.906250
7553		-1.953125
7554		-3.906250
7555		-1.953125
7556		-5.859375
7557		-1.953125
7558		-5.859375
7559		-1.953125
7560		-5.859375
7561		-3.906250
7562		-5.859375
7563		-3.906250
7564		-7.812500
7565		-3.906250
7566		-7.812500
7567		-3.906250
7568		-7.812500
7569		-5.859375
7570		-7.812500
7571		-5.859375
7572		-9.765625
7573		-5.859375
7574		-9.765625
7575		-5.859375
7576		-9.765625
7577		-5.859375
7578		-9.765625
7579		-7.812500
7580		-9.765625
7581		-7.812500
7582		-9.765625
7583		-7.812500
7584		-11.718750
7585		-7.812500
7586		-11.718750
7587		-7.812500
7588		-11.718750
7589		-7.812500
7590		-11.718750
7591		-9.765625
7592		-11.718750
7593		-9.765625
7594		-11.718750
7595		-9.765625
7596		-11.718750
7597		-9.765625
7598		-11.718750
7599		-9.765625
7600		-13.671875
7601		-9.765625
7602		-13.671875
7603		-9.765625
7604		-13.671875
7605		-11.718750
7606		-13.671875
7607		-11.718750
7608		-13.671875
7609		-11.718750
7610		-13.671875
7611		-11.718750
7612		-13.671875
7613		-11.718750
7614		-13.671875
7615		-11.718750
7616		-13.671875
7617		-11.718750
7618		-13.671875
7619		-11.718750
7620		-13.671875
7621		-11.718750
7622		-15.625000
7623		-11.718750
7624		-15.625000
7625		-11.718750
7626		-15.625000
7627		-11.718750
7628		-15.625000
7629		-11.718750
7630		-15.625000
7631		-11.718750
7632		-15.625000
7633		-11.718750
7634		-15.625000
7635		-11.718750
7636		-15.625000
7637		-13.671875
7638		-15.625000
7639		-11.718750
7640		-15.625000
7641		-11.718750
7642		-15.625000
7643		-11.718750
7644		-15.625000
7645		-11.718750
7646		-15.625000
7647		-11.718750
7648		-13.671875
7649		-11.718750
7650		-13.671875
7651		-11.718750
7652		-13.671875
7653		-11.718750
7654		-13.671875
7655		-11.718750
7656		-13.671875
7657		-11.718750
7658		-13.671875
7659		-11.718750
7660		-13.671875
7661		-11.718750
7662		-13.671875
7663		-11.718750
7664		-13.671875
7665		-11.718750
7666		-13.671875
7667		-9.765625
7668		-13.671875
7669		-9.765625
7670		-13.671875
7671		-9.765625
7672		-13.671875
7673		-9.765625
7674		-11.718750
7675		-9.765625
7676		-11.718750
7677		-9.765625
7678		-11.718750
7679		-9.765625
7680		-11.718750
7681		-9.765625
7682		-11.718750
7683		-7.812500
7684		-11.718750
7685		-7.812500
7686		-9.765625
7687		-7.812500
7688		-9.765625
7689		-7.812500
7690		-9.765625
7691		-7.812500
7692		-9.765625
7693		-7.812500
7694		-9.765625
7695		-5.859375
7696		-7.812500
7697		-5.859375
7698		-7.812500
7699		-5.859375
7700		-7.812500
7701		-5.859375
7702		-7.812500
7703		-3.906250
7704		-7.812500
7705		-3.906250
7706		-7.812500
7707		-1.953125
7708		-5.859375
7709		-3.906250
7710		-5.859375
7711		-1.953125
7712		-5.859375
7713		-1.953125
7714		-3.906250
7715		-1.953125
7716		-3.906250
7717		-1.953125
7718		-3.906250
7719		-1.953125
7720		-3.906250
7721		0.000000
7722		-3.906250
7723		0.000000
7724		-3.906250
7725		0.000000
7726		-1.953125
7727		0.000000
7728		-3.906250
7729		3.906250
7730		-1.953125
7731		1.953125
7732		-1.953125
7733		3.906250
7734		0.000000
7735		3.906250
7736		0.000000
7737		3.906250
7738		0.000000
7739		3.906250
7740		0.000000
7741		5.859375
7742		1.953125
7743		5.859375
7744		1.953125
7745		5.859375
7746		1.953125
7747		5.859375
7748		0.000000
7749		9.765625
7750		3.906250
7751		7.812500
7752		3.906250
7753		7.812500
7754		3.906250
7755		9.765625
7756		5.859375
7757		7.812500
7758		3.906250
7759		9.765625
7760		5.859375
7761		9.765625
7762		5.859375
7763		11.718750
7764		7.812500
7765		9.765625
7766		5.859375
7767		11.718750
7768		9.765625
7769		11.718750
7770		7.812500
7771		13.671875
7772		7.812500
7773		15.625000
7774		7.812500
7775		15.625000
7776		9.765625
7777		13.671875
7778		9.765625
7779		15.625000
7780		11.718750
7781		13.671875
7782		9.765625
7783		17.578125
7784		11.718750
7785		15.625000
7786		13.671875
7787		15.625000
7788		11.718750
7789		17.578125
7790		11.718750
7791		19.531250
7792		13.671875
7793		17.578125
7794		13.671875
7795		17.578125
7796		11.718750
7797		21.484375
7798		13.671875
7799		19.531250
7800		15.625000
7801		19.531250
7802		15.625000
7803		19.531250
7804		15.625000
7805		19.531250
7806		15.625000
7807		21.484375
7808		15.625000
7809		21.484375
7810		15.625000
7811		19.531250
7812		15.625000
7813		23.437500
7814		15.625000
7815		23.437500
7816		15.625000
7817		23.437500
7818		19.531250
7819		21.484375
7820		17.578125
7821		23.437500
7822		17.578125
7823		25.390625
7824		17.578125
7825		25.390625
7826		19.531250
7827		23.437500
7828		19.531250
7829		23.437500
7830		17.578125
7831		25.390625
7832		19.531250
7833		25.390625
7834		21.484375
7835		23.437500
7836		21.484375
7837		23.437500
7838		19.531250
7839		25.390625
7840		17.578125
7841		27.343750
7842		19.531250
7843		25.390625
7844		21.484375
7845		23.437500
7846		19.531250
7847		27.343750
7848		19.531250
7849		25.390625
7850		19.531250
7851		27.343750
7852		21.484375
7853		25.390625
7854		21.484375
7855		25.390625
7856		19.531250
7857		27.343750
7858		21.484375
7859		25.390625
7860		23.437500
7861		25.390625
7862		19.531250
7863		27.343750
7864		19.531250
7865		27.343750
7866		19.531250
7867		29.296875
7868		23.437500
7869		25.390625
7870		21.484375
7871		25.390625
7872		21.484375
7873		25.390625
7874		19.531250
7875		27.343750
7876		21.484375
7877		25.390625
7878		21.484375
7879		25.390625
7880		19.531250
7881		29.296875
7882		19.531250
7883		27.343750
7884		21.484375
7885		25.390625
7886		21.484375
7887		25.390625
7888		19.531250
7889		25.390625
7890		19.531250
7891		27.343750
7892		19.531250
7893		27.343750
7894		21.484375
7895		23.437500
7896		17.578125
7897		27.343750
7898		17.578125
7899		27.343750
7900		17.578125
7901		27.343750
7902		21.484375
7903		23.437500
7904		19.531250
7905		23.437500
7906		17.578125
7907		25.390625
7908		17.578125
7909		25.390625
7910		19.531250
7911		23.437500
7912		19.531250
7913		21.484375
7914		17.578125
7915		25.390625
7916		17.578125
7917		25.390625
7918		19.531250
7919		21.484375
7920		17.578125
7921		21.484375
7922		17.578125
7923		21.484375
7924		15.625000
7925		23.437500
7926		17.578125
7927		21.484375
7928		17.578125
7929		19.531250
7930		13.671875
7931		21.484375
7932		13.671875
7933		21.484375
7934		15.625000
7935		21.484375
7936		15.625000
7937		17.578125
7938		15.625000
7939		17.578125
7940		11.718750
7941		21.484375
7942		13.671875
7943		17.578125
7944		13.671875
7945		17.578125
7946		11.718750
7947		19.531250
7948		9.765625
7949		19.531250
7950		11.718750
7951		17.578125
7952		11.718750
7953		15.625000
7954		11.718750
7955		15.625000
7956		9.765625
7957		15.625000
7958		9.765625
7959		15.625000
7960		9.765625
7961		13.671875
7962		9.765625
7963		13.671875
7964		5.859375
7965		15.625000
7966		5.859375
7967		13.671875
7968		7.812500
7969		11.718750
7970		7.812500
7971		11.718750
7972		7.812500
7973		11.718750
7974		3.906250
7975		13.671875
7976		5.859375
7977		11.718750
7978		5.859375
7979		9.765625
7980		3.906250
7981		9.765625
7982		5.859375
7983		7.812500
7984		1.953125
7985		9.765625
7986		3.906250
7987		7.812500
7988		3.906250
7989		7.812500
7990		3.906250
7991		5.859375
7992		1.953125
7993		7.812500
7994		1.953125
7995		5.859375
7996		0.000000
7997		5.859375
7998		0.000000
7999		5.859375
8000		0.000000
8001		3.906250
8002		0.000000
8003		3.906250
8004		0.000000
8005		1.953125
8006		0.000000
8007		1.953125
8008		-1.953125
8009		1.953125
8010		-3.906250
8011		1.953125
8012		-1.953125
8013		1.953125
8014		-3.906250
8015		1.953125
8016		-3.906250
8017		0.000000
8018		-3.906250
8019		0.000000
8020		-3.906250
8021		-1.953125
8022		-3.906250
8023		0.000000
8024		-5.859375
8025		-1.953125
8026		-5.859375
8027		-1.953125
8028		-5.859375
8029		-3.906250
8030		-5.859375
8031		-3.906250
8032		-5.859375
8033		-3.906250
8034		-7.812500
8035		-3.906250
8036		-7.812500
8037		-3.906250
8038		-7.812500
8039		-5.859375
8040		-7.812500
8041		-5.859375
8042		-7.812500
8043		-5.859375
8044		-9.765625
8045		-5.859375
8046		-9.765625
8047		-5.859375
8048		-9.765625
8049		-7.812500
8050		-9.765625
8051		-7.812500
8052		-11.718750
8053		-7.812500
8054		-9.765625
8055		-7.812500
8056		-11.718750
8057		-7.812500
8058		-11.718750
8059		-7.812500
8060		-11.718750
8061		-7.812500
8062		-13.671875
8063		-7.812500
8064		-13.671875
8065		-7.812500
8066		-13.671875
8067		-9.765625
8068		-13.671875
8069		-9.765625
8070		-13.671875
8071		-9.765625
8072		-13.671875
8073		-9.765625
8074		-15.625000
8075		-9.765625
8076		-15.625000
8077		-9.765625
8078		-15.625000
8079		-9.765625
8080		-15.625000
8081		-9.765625
8082		-15.625000
8083		-9.765625
8084		-15.625000
8085		-9.765625
8086		-15.625000
8087		-11.718750
8088		-15.625000
8089		-11.718750
8090		-15.625000
8091		-11.718750
8092		-15.625000
8093		-11.718750
8094		-15.625000
8095		-11.718750
8096		-15.625000
8097		-11.718750
8098		-15.625000
8099		-11.718750
8100		-17.578125
8101		-11.718750
8102		-15.625000
8103		-11.718750
8104		-15.625000
8105		-13.671875
8106		-15.625000
8107		-11.718750
8108		-15.625000
8109		-11.718750
8110		-15.625000
8111		-11.718750
8112		-17.578125
8113		-11.718750
8114		-17.578125
8115		-11.718750
8116		-15.625000
8117		-11.718750
8118		-15.625000
8119		-11.718750
8120		-15.625000
8121		-11.718750
8122		-15.625000
8123		-11.718750
8124		-15.625000
8125		-11.718750
8126		-15.625000
8127		-11.718750
8128		-15.625000
8129		-9.765625
8130		-15.625000
8131		-9.765625
8132		-13.671875
8133		-9.765625
8134		-13.671875
8135		-9.765625
8136		-13.671875
8137		-9.765625
8138		-13.671875
8139		-11.718750
8140		-13.671875
8141		-9.765625
8142		-13.671875
8143		-9.765625
8144		-13.671875
8145		-9.765625
8146		-13.671875
8147		-7.812500
8148		-13.671875
8149		-7.812500
8150		-13.671875
8151		-9.765625
8152		-11.718750
8153		-7.812500
8154		-11.718750
8155		-7.812500
8156		-11.718750
8157		-7.812500
8158		-11.718750
8159		-7.812500
8160		-11.718750
8161		-5.859375
8162		-11.718750
8163		-5.859375
8164		-9.765625
8165		-5.859375
8166		-9.765625
8167		-5.859375
8168		-9.765625
8169		-5.859375
8170		-7.812500
8171		-5.859375
8172		-7.812500
8173		-5.859375
8174		-7.812500
8175		-3.906250
8176		-7.812500
8177		-3.906250
8178		-7.812500
8179		-1.953125
8180		-7.812500
8181		-1.953125
8182		-5.859375
8183		-1.953125
8184		-5.859375
8185		-1.953125
8186		-5.859375
8187		-1.953125
8188		-3.906250
8189		-1.953125
8190		-3.906250
8191		0.000000
8192		-3.906250
8193		0.000000
8194		-1.953125
8195		0.000000
8196		-3.906250
8197		1.953125
8198		-1.953125
8199		1.953125
8200		-1.953125
8201		1.953125
8202		-1.953125
8203		1.953125
8204		0.000000
8205		1.953125
8206		0.000000
8207		1.953125
8208		0.000000
8209		3.906250
8210		1.953125
8211		3.906250
8212		1.953125
8213		3.906250
8214		0.000000
8215		5.859375
8216		1.953125
8217		5.859375
8218		3.906250
8219		5.859375
8220		3.906250
8221		7.812500
8222		3.906250
8223		7.812500
8224		3.906250
8225		7.812500
8226		3.906250
8227		9.765625
8228		5.859375
8229		7.812500
8230		5.859375
8231		9.765625
8232		5.859375
8233		9.765625
8234		5.859375
8235		11.718750
8236		7.812500
8237		11.718750
8238		7.812500
8239		11.718750
8240		7.812500
8241		11.718750
8242		7.812500
8243		11.718750
8244		9.765625
8245		11.718750
8246		9.765625
8247		13.671875
8248		9.765625
8249		13.671875
8250		11.718750
8251		13.671875
8252		11.718750
8253		15.625000
8254		11.718750
8255		15.625000
8256		11.718750
8257		15.625000
8258		13.671875
8259		15.625000
8260		11.718750
8261		15.625000
8262		13.671875
8263		15.625000
8264		11.718750
8265		17.578125
8266		13.671875
8267		17.578125
8268		15.625000
8269		17.578125
8270		15.625000
8271		19.531250
8272		15.625000
8273		17.578125
8274		15.625000
8275		19.531250
8276		15.625000
8277		19.531250
8278		17.578125
8279		19.531250
8280		15.625000
8281		21.484375
8282		17.578125
8283		21.484375
8284		17.578125
8285		21.484375
8286		17.578125
8287		21.484375
8288		17.578125
8289		21.484375
8290		19.531250
8291		21.484375
8292		17.578125
8293		21.484375
8294		19.531250
8295		21.484375
8296		19.531250
8297		23.437500
8298		17.578125
8299		23.437500
8300		19.531250
8301		23.437500
8302		19.531250
8303		23.437500
8304		19.531250
8305		23.437500
8306		21.484375
8307		23.437500
8308		19.531250
8309		25.390625
8310		19.531250
8311		25.390625
8312		21.484375
8313		23.437500
8314		21.484375
8315		23.437500
8316		21.484375
8317		25.390625
8318		21.484375
8319		25.390625
8320		21.484375
8321		25.390625
8322		21.484375
8323		25.390625
8324		21.484375
8325		25.390625
8326		21.484375
8327		25.390625
8328		21.484375
8329		25.390625
8330		21.484375
8331		25.390625
8332		21.484375
8333		25.390625
8334		21.484375
8335		25.390625
8336		21.484375
8337		25.390625
8338		21.484375
8339		25.390625
8340		21.484375
8341		25.390625
8342		21.484375
8343		25.390625
8344		21.484375
8345		25.390625
8346		21.484375
8347		25.390625
8348		21.484375
8349		25.390625
8350		21.484375
8351		25.390625
8352		21.484375
8353		25.390625
8354		21.484375
8355		25.390625
8356		21.484375
8357		25.390625
8358		21.484375
8359		25.390625
8360		21.484375
8361		25.390625
8362		21.484375
8363		23.437500
8364		21.484375
8365		23.437500
8366		21.484375
8367		23.437500
8368		19.531250
8369		23.437500
8370		21.484375
8371		23.437500
8372		19.531250
8373		23.437500
8374		19.531250
8375		23.437500
8376		19.531250
8377		23.437500
8378		19.531250
8379		23.437500
8380		19.531250
8381		23.437500
8382		19.531250
8383		21.484375
8384		19.531250
8385		21.484375
8386		19.531250
8387		21.484375
8388		17.578125
8389		21.484375
8390		17.578125
8391		21.484375
8392		17.578125
8393		21.484375
8394		17.578125
8395		19.531250
8396		17.578125
8397		21.484375
8398		17.578125
8399		21.484375
8400		17.578125
8401		19.531250
8402		17.578125
8403		19.531250
8404		15.625000
8405		19.531250
8406		15.625000
8407		19.531250
8408		15.625000
8409		17.578125
8410		15.625000
8411		17.578125
8412		13.671875
8413		17.578125
8414		13.671875
8415		17.578125
8416		13.671875
8417		17.578125
8418		11.718750
8419		15.625000
8420		13.671875
8421		15.625000
8422		11.718750
8423		15.625000
8424		11.718750
8425		15.625000
8426		11.718750
8427		15.625000
8428		11.718750
8429		13.671875
8430		9.765625
8431		13.671875
8432		9.765625
8433		13.671875
8434		9.765625
8435		13.671875
8436		9.765625
8437		11.718750
8438		7.812500
8439		11.718750
8440		7.812500
8441		11.718750
8442		7.812500
8443		9.765625
8444		7.812500
8445		9.765625
8446		5.859375
8447		9.765625
8448		5.859375
8449		9.765625
8450		5.859375
8451		9.765625
8452		5.859375
8453		7.812500
8454		3.906250
8455		7.812500
8456		3.906250
8457		7.812500
8458		3.906250
8459		5.859375
8460		1.953125
8461		7.812500
8462		1.953125
8463		5.859375
8464		1.953125
8465		5.859375
8466		1.953125
8467		5.859375
8468		1.953125
8469		3.906250
8470		0.000000
8471		3.906250
8472		0.000000
8473		3.906250
8474		0.000000
8475		1.953125
8476		-1.953125
8477		1.953125
8478		-1.953125
8479		1.953125
8480		-1.953125
8481		1.953125
8482		-1.953125
8483		1.953125
8484		-3.906250
8485		1.953125
8486		-3.906250
8487		0.000000
8488		-3.906250
8489		0.000000
8490		-3.906250
8491		-1.953125
8492		-5.859375
8493		-1.953125
8494		-5.859375
8495		-1.953125
8496		-5.859375
8497		-1.953125
8498		-5.859375
8499		-3.906250
8500		-7.812500
8501		-3.906250
8502		-5.859375
8503		-3.906250
8504		-7.812500
8505		-3.906250
8506		-7.812500
8507		-3.906250
8508		-7.812500
8509		-5.859375
8510		-9.765625
8511		-5.859375
8512		-7.812500
8513		-5.859375
8514		-9.765625
8515		-5.859375
8516		-9.765625
8517		-5.859375
8518		-9.765625
8519		-5.859375
8520		-9.765625
8521		-7.812500
8522		-11.718750
8523		-7.812500
8524		-11.718750
8525		-7.812500
8526		-11.718750
8527		-7.812500
8528		-11.718750
8529		-7.812500
8530		-11.718750
8531		-9.765625
8532		-11.718750
8533		-7.812500
8534		-11.718750
8535		-9.765625
8536		-13.671875
8537		-9.765625
8538		-13.671875
8539		-9.765625
8540		-13.671875
8541		-11.718750
8542		-13.671875
8543		-11.718750
8544		-13.671875
8545		-11.718750
8546		-13.671875
8547		-11.718750
8548		-15.625000
8549		-11.718750
8550		-13.671875
8551		-11.718750
8552		-13.671875
8553		-11.718750
8554		-15.625000
8555		-11.718750
8556		-15.625000
8557		-11.718750
8558		-15.625000
8559		-11.718750
8560		-15.625000
8561		-11.718750
8562		-15.625000
8563		-13.671875
8564		-15.625000
8565		-11.718750
8566		-17.578125
8567		-11.718750
8568		-15.625000
8569		-11.718750
8570		-15.625000
8571		-13.671875
8572		-15.625000
8573		-11.718750
8574		-15.625000
8575		-13.671875
8576		-15.625000
8577		-13.671875
8578		-15.625000
8579		-11.718750
8580		-15.625000
8581		-13.671875
8582		-15.625000
8583		-11.718750
8584		-15.625000
8585		-13.671875
8586		-17.578125
8587		-13.671875
8588		-15.625000
8589		-11.718750
8590		-15.625000
8591		-11.718750
8592		-15.625000
8593		-11.718750
8594		-15.625000
8595		-11.718750
8596		-15.625000
8597		-11.718750
8598		-15.625000
8599		-11.718750
8600		-13.671875
8601		-11.718750
8602		-13.671875
8603		-11.718750
8604		-15.625000
8605		-11.718750
8606		-15.625000
8607		-9.765625
8608		-13.671875
8609		-11.718750
8610		-13.671875
8611		-9.765625
8612		-13.671875
8613		-9.765625
8614		-13.671875
8615		-9.765625
8616		-13.671875
8617		-9.765625
8618		-13.671875
8619		-9.765625
8620		-11.718750
8621		-9.765625
8622		-13.671875
8623		-7.812500
8624		-11.718750
8625		-9.765625
8626		-11.718750
8627		-9.765625
8628		-11.718750
8629		-7.812500
8630		-11.718750
8631		-7.812500
8632		-9.765625
8633		-7.812500
8634		-9.765625
8635		-7.812500
8636		-9.765625
8637		-5.859375
8638		-9.765625
8639		-5.859375
8640		-9.765625
8641		-5.859375
8642		-9.765625
8643		-5.859375
8644		-9.765625
8645		-3.906250
8646		-7.812500
8647		-3.906250
8648		-7.812500
8649		-3.906250
8650		-7.812500
8651		-3.906250
8652		-7.812500
8653		-3.906250
8654		-5.859375
8655		-1.953125
8656		-5.859375
8657		-1.953125
8658		-5.859375
8659		-1.953125
8660		-3.906250
8661		-1.953125
8662		-3.906250
8663		0.000000
8664		-3.906250
8665		0.000000
8666		-3.906250
8667		0.000000
8668		-3.906250
8669		0.000000
8670		-1.953125
8671		1.953125
8672		-1.953125
8673		1.953125
8674		-1.953125
8675		1.953125
8676		0.000000
8677		1.953125
8678		0.000000
8679		1.953125
8680		0.000000
8681		3.906250
8682		0.000000
8683		3.906250
8684		0.000000
8685		3.906250
8686		1.953125
8687		3.906250
8688		1.953125
8689		5.859375
8690		1.953125
8691		5.859375
8692		3.906250
8693		5.859375
8694		3.906250
8695		7.812500
8696		3.906250
8697		7.812500
8698		3.906250
8699		7.812500
8700		5.859375
8701		7.812500
8702		5.859375
8703		9.765625
8704		5.859375
8705		9.765625
8706		5.859375
8707		9.765625
8708		7.812500
8709		9.765625
8710		7.812500
8711		9.765625
8712		7.812500
8713		11.718750
8714		7.812500
8715		11.718750
8716		9.765625
8717		13.671875
8718		9.765625
8719		11.718750
8720		9.765625
8721		13.671875
8722		11.718750
8723		13.671875
8724		9.765625
8725		13.671875
8726		11.718750
8727		13.671875
8728		11.718750
8729		15.625000
8730		11.718750
8731		15.625000
8732		13.671875
8733		15.625000
8734		11.718750
8735		15.625000
8736		13.671875
8737		17.578125
8738		13.671875
8739		17.578125
8740		13.671875
8741		17.578125
8742		15.625000
8743		17.578125
8744		15.625000
8745		17.578125
8746		15.625000
8747		19.531250
8748		15.625000
8749		19.531250
8750		15.625000
8751		19.531250
8752		15.625000
8753		19.531250
8754		17.578125
8755		19.531250
8756		17.578125
8757		19.531250
8758		17.578125
8759		21.484375
8760		17.578125
8761		21.484375
8762		17.578125
8763		21.484375
8764		19.531250
8765		21.484375
8766		19.531250
8767		21.484375
8768		19.531250
8769		21.484375
8770		19.531250
8771		23.437500
8772		19.531250
8773		23.437500
8774		19.531250
8775		23.437500
8776		19.531250
8777		23.437500
8778		19.531250
8779		23.437500
8780		19.531250
8781		23.437500
8782		21.484375
8783		23.437500
8784		21.484375
8785		23.437500
8786		21.484375
8787		23.437500
8788		19.531250
8789		23.437500
8790		21.484375
8791		23.437500
8792		21.484375
8793		23.437500
8794		21.484375
8795		23.437500
8796		21.484375
8797		25.390625
8798		21.484375
8799		23.437500
8800		21.484375
8801		25.390625
8802		21.484375
8803		25.390625
8804		21.484375
8805		23.437500
8806		21.484375
8807		25.390625
8808		21.484375
8809		25.390625
8810		21.484375
8811		25.390625
8812		21.484375
8813		25.390625
8814		21.484375
8815		25.390625
8816		21.484375
8817		25.390625
8818		21.484375
8819		23.437500
8820		21.484375
8821		25.390625
8822		21.484375
8823		23.437500
8824		21.484375
8825		25.390625
8826		21.484375
8827		23.437500
8828		21.484375
8829		23.437500
8830		19.531250
8831		23.437500
8832		21.484375
8833		23.437500
8834		21.484375
8835		23.437500
8836		21.484375
8837		23.437500
8838		19.531250
8839		23.437500
8840		19.531250
8841		23.437500
8842		19.531250
8843		23.437500
8844		19.531250
8845		21.484375
8846		19.531250
8847		23.437500
8848		19.531250
8849		23.437500
8850		19.531250
8851		23.437500
8852		19.531250
8853		21.484375
8854		19.531250
8855		21.484375
8856		17.578125
8857		21.484375
8858		17.578125
8859		21.484375
8860		17.578125
8861		21.484375
8862		17.578125
8863		21.484375
8864		15.625000
8865		21.484375
8866		17.578125
8867		19.531250
8868		17.578125
8869		19.531250
8870		15.625000
8871		19.531250
8872		15.625000
8873		19.531250
8874		13.671875
8875		19.531250
8876		15.625000
8877		19.531250
8878		15.625000
8879		17.578125
8880		15.625000
8881		17.578125
8882		13.671875
8883		17.578125
8884		13.671875
8885		17.578125
8886		13.671875
8887		17.578125
8888		13.671875
8889		15.625000
8890		13.671875
8891		15.625000
8892		11.718750
8893		15.625000
8894		11.718750
8895		13.671875
8896		11.718750
8897		13.671875
8898		11.718750
8899		13.671875
8900		11.718750
8901		13.671875
8902		9.765625
8903		13.671875
8904		9.765625
8905		11.718750
8906		9.765625
8907		11.718750
8908		7.812500
8909		11.718750
8910		7.812500
8911		11.718750
8912		7.812500
8913		9.765625
8914		5.859375
8915		9.765625
8916		5.859375
8917		9.765625
8918		5.859375
8919		9.765625
8920		5.859375
8921		7.812500
8922		5.859375
8923		9.765625
8924		3.906250
8925		7.812500
8926		3.906250
8927		7.812500
8928		3.906250
8929		7.812500
8930		1.953125
8931		5.859375
8932		1.953125
8933		5.859375
8934		1.953125
8935		5.859375
8936		1.953125
8937		5.859375
8938		1.953125
8939		3.906250
8940		0.000000
8941		3.906250
8942		0.000000
8943		3.906250
8944		0.000000
8945		1.953125
8946		0.000000
8947		1.953125
8948		-1.953125
8949		1.953125
8950		-1.953125
8951		1.953125
8952		-1.953125
8953		1.953125
8954		-3.906250
8955		0.000000
8956		-3.906250
8957		0.000000
8958		-3.906250
8959		0.000000
8960		-3.906250
8961		0.000000
8962		-3.906250
8963		-1.953125
8964		-5.859375
8965		-1.953125
8966		-5.859375
8967		-1.953125
8968		-5.859375
8969		-3.906250
8970		-5.859375
8971		-3.906250
8972		-7.812500
8973		-3.906250
8974		-7.812500
8975		-3.906250
8976		-7.812500
8977		-3.906250
8978		-7.812500
8979		-5.859375
8980		-9.765625
8981		-5.859375
8982		-9.765625
8983		-5.859375
8984		-9.765625
8985		-5.859375
8986		-9.765625
8987		-5.859375
8988		-9.765625
8989		-7.812500
8990		-9.765625
8991		-7.812500
8992		-11.718750
8993		-7.812500
8994		-11.718750
8995		-7.812500
8996		-11.718750
8997		-9.765625
8998		-13.671875
8999		-7.812500
9000		-11.718750
9001		-9.765625
9002		-13.671875
9003		-9.765625
9004		-13.671875
9005		-9.765625
9006		-13.671875
9007		-9.765625
9008		-13.671875
9009		-9.765625
9010		-13.671875
9011		-9.765625
9012		-13.671875
9013		-11.718750
9014		-15.625000
9015		-11.718750
9016		-13.671875
9017		-11.718750
9018		-15.625000
9019		-11.718750
9020		-13.671875
9021		-11.718750
9022		-15.625000
9023		-11.718750
9024		-15.625000
9025		-11.718750
9026		-15.625000
9027		-11.718750
9028		-15.625000
9029		-13.671875
9030		-15.625000
9031		-11.718750
9032		-15.625000
9033		-11.718750
9034		-15.625000
9035		-13.671875
9036		-15.625000
9037		-13.671875
9038		-15.625000
9039		-11.718750
9040		-15.625000
9041		-13.671875
9042		-15.625000
9043		-13.671875
9044		-17.578125
9045		-11.718750
9046		-15.625000
9047		-13.671875
9048		-15.625000
9049		-11.718750
9050		-15.625000
9051		-13.671875
9052		-15.625000
9053		-13.671875
9054		-15.625000
9055		-13.671875
9056		-15.625000
9057		-11.718750
9058		-15.625000
9059		-13.671875
9060		-15.625000
9061		-11.718750
9062		-15.625000
9063		-13.671875
9064		-15.625000
9065		-11.718750
9066		-15.625000
9067		-11.718750
9068		-15.625000
9069		-11.718750
9070		-15.625000
9071		-11.718750
9072		-15.625000
9073		-11.718750
9074		-15.625000
9075		-11.718750
9076		-15.625000
9077		-11.718750
9078		-13.671875
9079		-11.718750
9080		-13.671875
9081		-11.718750
9082		-13.671875
9083		-9.765625
9084		-13.671875
9085		-11.718750
9086		-13.671875
9087		-9.765625
9088		-13.671875
9089		-9.765625
9090		-13.671875
9091		-9.765625
9092		-13.671875
9093		-9.765625
9094		-13.671875
9095		-9.765625
9096		-11.718750
9097		-9.765625
9098		-11.718750
9099		-7.812500
9100		-11.718750
9101		-7.812500
9102		-11.718750
9103		-7.812500
9104		-9.765625
9105		-7.812500
9106		-9.765625
9107		-7.812500
9108		-9.765625
9109		-5.859375
9110		-9.765625
9111		-5.859375
9112		-9.765625
9113		-5.859375
9114		-7.812500
9115		-5.859375
9116		-9.765625
9117		-5.859375
9118		-7.812500
9119		-3.906250
9120		-7.812500
9121		-3.906250
9122		-7.812500
9123		-3.906250
9124		-5.859375
9125		-3.906250
9126		-5.859375
9127		-3.906250
9128		-5.859375
9129		-1.953125
9130		-5.859375
9131		-1.953125
9132		-5.859375
9133		-1.953125
9134		-5.859375
9135		-1.953125
9136		-3.906250
9137		0.000000
9138		-3.906250
9139		0.000000
9140		-1.953125
9141		0.000000
9142		-3.906250
9143		0.000000
9144		-1.953125
9145		1.953125
9146		0.000000
9147		1.953125
9148		0.000000
9149		3.906250
9150		0.000000
9151		3.906250
9152		0.000000
9153		3.906250
9154		0.000000
9155		3.906250
9156		0.000000
9157		3.906250
9158		1.953125
9159		3.906250
9160		1.953125
9161		5.859375
9162		1.953125
9163		5.859375
9164		3.906250
9165		5.859375
9166		3.906250
9167		7.812500
9168		3.906250
9169		7.812500
9170		5.859375
9171		7.812500
9172		5.859375
9173		7.812500
9174		5.859375
9175		9.765625
9176		5.859375
9177		9.765625
9178		5.859375
9179		9.765625
9180		7.812500
9181		9.765625
9182		7.812500
9183		9.765625
9184		7.812500
9185		11.718750
9186		7.812500
9187		11.718750
9188		7.812500
9189		13.671875
9190		9.765625
9191		11.718750
9192		9.765625
9193		13.671875
9194		9.765625
9195		13.671875
9196		11.718750
9197		13.671875
9198		11.718750
9199		13.671875
9200		11.718750
9201		15.625000
9202		11.718750
9203		15.625000
9204		13.671875
9205		15.625000
9206		13.671875
9207		17.578125
9208		13.671875
9209		17.578125
9210		13.671875
9211		17.578125
9212		13.671875
9213		17.578125
9214		15.625000
9215		17.578125
9216		15.625000
9217		19.531250
9218		15.625000
9219		19.531250
9220		15.625000
9221		19.531250
9222		15.625000
9223		19.531250
9224		17.578125
9225		19.531250
9226		15.625000
9227		21.484375
9228		15.625000
9229		21.484375
9230		17.578125
9231		21.484375
9232		17.578125
9233		21.484375
9234		17.578125
9235		21.484375
9236		17.578125
9237		21.484375
9238		17.578125
9239		23.437500
9240		19.531250
9241		21.484375
9242		19.531250
9243		21.484375
9244		19.531250
9245		23.437500
9246		19.531250
9247		23.437500
9248		19.531250
9249		23.437500
9250		19.531250
9251		23.437500
9252		19.531250
9253		23.437500
9254		19.531250
9255		23.437500
9256		21.484375
9257		23.437500
9258		19.531250
9259		23.437500
9260		21.484375
9261		23.437500
9262		21.484375
9263		23.437500
9264		21.484375
9265		23.437500
9266		21.484375
9267		25.390625
9268		21.484375
9269		23.437500
9270		21.484375
9271		23.437500
9272		21.484375
9273		23.437500
9274		21.484375
9275		25.390625
9276		21.484375
9277		25.390625
9278		21.484375
9279		25.390625
9280		21.484375
9281		23.437500
9282		21.484375
9283		23.437500
9284		21.484375
9285		25.390625
9286		21.484375
9287		25.390625
9288		21.484375
9289		23.437500
9290		21.484375
9291		23.437500
9292		21.484375
9293		23.437500
9294		21.484375
9295		23.437500
9296		19.531250
9297		23.437500
9298		21.484375
9299		23.437500
9300		21.484375
9301		23.437500
9302		19.531250
9303		23.437500
9304		21.484375
9305		23.437500
9306		19.531250
9307		23.437500
9308		19.531250
9309		23.437500
9310		19.531250
9311		23.437500
9312		19.531250
9313		23.437500
9314		19.531250
9315		21.484375
9316		19.531250
9317		23.437500
9318		19.531250
9319		23.437500
9320		19.531250
9321		23.437500
9322		17.578125
9323		21.484375
9324		17.578125
9325		21.484375
9326		17.578125
9327		21.484375
9328		17.578125
9329		21.484375
9330		17.578125
9331		19.531250
9332		17.578125
9333		21.484375
9334		15.625000
9335		19.531250
9336		15.625000
9337		19.531250
9338		15.625000
9339		19.531250
9340		15.625000
9341		19.531250
9342		15.625000
9343		19.531250
9344		15.625000
9345		19.531250
9346		15.625000
9347		19.531250
9348		15.625000
9349		17.578125
9350		13.671875
9351		17.578125
9352		13.671875
9353		17.578125
9354		13.671875
9355		17.578125
9356		13.671875
9357		15.625000
9358		11.718750
9359		15.625000
9360		11.718750
9361		15.625000
9362		11.718750
9363		15.625000
9364		11.718750
9365		13.671875
9366		9.765625
9367		13.671875
9368		9.765625
9369		13.671875
9370		9.765625
9371		13.671875
9372		9.765625
9373		13.671875
9374		9.765625
9375		11.718750
9376		7.812500
9377		11.718750
9378		7.812500
9379		11.718750
9380		7.812500
9381		11.718750
9382		7.812500
9383		9.765625
9384		5.859375
9385		9.765625
9386		5.859375
9387		9.765625
9388		5.859375
9389		9.765625
9390		5.859375
9391		9.765625
9392		3.906250
9393		7.812500
9394		3.906250
9395		7.812500
9396		3.906250
9397		7.812500
9398		3.906250
9399		5.859375
9400		3.906250
9401		7.812500
9402		1.953125
9403		5.859375
9404		1.953125
9405		5.859375
9406		0.000000
9407		3.906250
9408		0.000000
9409		3.906250
9410		0.000000
9411		3.906250
9412		0.000000
9413		3.906250
9414		0.000000
9415		1.953125
9416		0.000000
9417		1.953125
9418		-1.953125
9419		1.953125
9420		-1.953125
9421		1.953125
9422		-1.953125
9423		0.000000
9424		-1.953125
9425		0.000000
9426		-3.906250
9427		0.000000
9428		-3.906250
9429		0.000000
9430		-3.906250
9431		0.000000
9432		-3.906250
9433		-1.953125
9434		-3.906250
9435		-1.953125
9436		-5.859375
9437		-3.906250
9438		-5.859375
9439		-3.906250
9440		-5.859375
9441		-3.906250
9442		-7.812500
9443		-3.906250
9444		-7.812500
9445		-3.906250
9446		-7.812500
9447		-5.859375
9448		-7.812500
9449		-5.859375
9450		-7.812500
9451		-5.859375
9452		-9.765625
9453		-5.859375
9454		-9.765625
9455		-5.859375
9456		-9.765625
9457		-7.812500
9458		-11.718750
9459		-7.812500
9460		-11.718750
9461		-7.812500
9462		-11.718750
9463		-7.812500
9464		-11.718750
9465		-7.812500
9466		-11.718750
9467		-7.812500
9468		-13.671875
9469		-7.812500
9470		-11.718750
9471		-9.765625
9472		-11.718750
9473		-9.765625
9474		-13.671875
9475		-9.765625
9476		-13.671875
9477		-9.765625
9478		-13.671875
9479		-9.765625
9480		-13.671875
9481		-11.718750
9482		-13.671875
9483		-11.718750
9484		-13.671875
9485		-11.718750
9486		-15.625000
9487		-11.718750
9488		-15.625000
9489		-11.718750
9490		-15.625000
9491		-11.718750
9492		-15.625000
9493		-13.671875
9494		-15.625000
9495		-13.671875
9496		-15.625000
9497		-13.671875
9498		-15.625000
9499		-13.671875
9500		-15.625000
9501		-13.671875
9502		-15.625000
9503		-13.671875
9504		-15.625000
9505		-13.671875
9506		-15.625000
9507		-13.671875
9508		-15.625000
9509		-13.671875
9510		-15.625000
9511		-13.671875
9512		-17.578125
9513		-13.671875
9514		-17.578125
9515		-13.671875
9516		-15.625000
9517		-13.671875
9518		-15.625000
9519		-13.671875
9520		-17.578125
9521		-13.671875
9522		-17.578125
9523		-13.671875
9524		-17.578125
9525		-13.671875
9526		-17.578125
9527		-13.671875
9528		-17.578125
9529		-13.671875
9530		-17.578125
9531		-11.718750
9532		-15.625000
9533		-13.671875
9534		-17.578125
9535		-13.671875
9536		-17.578125
9537		-13.671875
9538		-15.625000
9539		-13.671875
9540		-15.625000
9541		-13.671875
9542		-15.625000
9543		-13.671875
9544		-15.625000
9545		-13.671875
9546		-15.625000
9547		-11.718750
9548		-15.625000
9549		-11.718750
9550		-15.625000
9551		-11.718750
9552		-15.625000
9553		-11.718750
9554		-13.671875
9555		-11.718750
9556		-15.625000
9557		-11.718750
9558		-13.671875
9559		-11.718750
9560		-13.671875
9561		-11.718750
9562		-13.671875
9563		-9.765625
9564		-13.671875
9565		-9.765625
9566		-13.671875
9567		-9.765625
9568		-13.671875
9569		-9.765625
9570		-13.671875
9571		-7.812500
9572		-11.718750
9573		-7.812500
9574		-11.718750
9575		-9.765625
9576		-11.718750
9577		-7.812500
9578		-11.718750
9579		-7.812500
9580		-11.718750
9581		-7.812500
9582		-11.718750
9583		-5.859375
9584		-9.765625
9585		-7.812500
9586		-9.765625
9587		-5.859375
9588		-9.765625
9589		-5.859375
9590		-9.765625
9591		-5.859375
9592		-7.812500
9593		-5.859375
9594		-7.812500
9595		-3.906250
9596		-7.812500
9597		-3.906250
9598		-5.859375
9599		-3.906250
9600		-5.859375
9601		-3.906250
9602		-5.859375
9603		-1.953125
9604		-5.859375
9605		-1.953125
9606		-5.859375
9607		-1.953125
9608		-3.906250
9609		-1.953125
9610		-3.906250
9611		0.000000
9612		-3.906250
9613		0.000000
9614		-3.906250
9615		0.000000
9616		-1.953125
9617		0.000000
9618		-1.953125
9619		1.953125
9620		-1.953125
9621		1.953125
9622		0.000000
9623		1.953125
9624		0.000000
9625		3.906250
9626		0.000000
9627		3.906250
9628		1.953125
9629		3.906250
9630		1.953125
9631		3.906250
9632		1.953125
9633		3.906250
9634		1.953125
9635		5.859375
9636		1.953125
9637		7.812500
9638		3.906250
9639		5.859375
9640		3.906250
9641		7.812500
9642		3.906250
9643		7.812500
9644		5.859375
9645		7.812500
9646		5.859375
9647		7.812500
9648		5.859375
9649		9.765625
9650		5.859375
9651		9.765625
9652		7.812500
9653		9.765625
9654		7.812500
9655		9.765625
9656		7.812500
9657		11.718750
9658		7.812500
9659		11.718750
9660		7.812500
9661		11.718750
9662		9.765625
9663		11.718750
9664		9.765625
9665		13.671875
9666		7.812500
9667		13.671875
9668		9.765625
9669		13.671875
9670		9.765625
9671		13.671875
9672		11.718750
9673		13.671875
9674		11.718750
9675		15.625000
9676		11.718750
9677		15.625000
9678		13.671875
9679		15.625000
9680		13.671875
9681		15.625000
9682		13.671875
9683		17.578125
9684		13.671875
9685		17.578125
9686		13.671875
9687		17.578125
9688		13.671875
9689		17.578125
9690		15.625000
9691		17.578125
9692		15.625000
9693		17.578125
9694		15.625000
9695		19.531250
9696		15.625000
9697		19.531250
9698		15.625000
9699		19.531250
9700		17.578125
9701		19.531250
9702		17.578125
9703		19.531250
9704		17.578125
9705		21.484375
9706		17.578125
9707		21.484375
9708		17.578125
9709		21.484375
9710		17.578125
9711		21.484375
9712		19.531250
9713		21.484375
9714		19.531250
9715		23.437500
9716		17.578125
9717		21.484375
9718		19.531250
9719		21.484375
9720		19.531250
9721		21.484375
9722		19.531250
9723		23.437500
9724		19.531250
9725		23.437500
9726		19.531250
9727		23.437500
9728		19.531250
9729		23.437500
9730		19.531250
9731		23.437500
9732		19.531250
9733		23.437500
9734		21.484375
9735		23.437500
9736		21.484375
9737		23.437500
9738		21.484375
9739		23.437500
9740		19.531250
9741		23.437500
9742		21.484375
9743		23.437500
9744		21.484375
9745		23.437500
9746		21.484375
9747		23.437500
9748		21.484375
9749		23.437500
9750		21.484375
9751		23.437500
9752		21.484375
9753		23.437500
9754		21.484375
9755		23.437500
9756		21.484375
9757		23.437500
9758		21.484375
9759		23.437500
9760		21.484375
9761		23.437500
9762		21.484375
9763		25.390625
9764		19.531250
9765		23.437500
9766		19.531250
9767		23.437500
9768		21.484375
9769		23.437500
9770		19.531250
9771		23.437500
9772		19.531250
9773		23.437500
9774		19.531250
9775		23.437500
9776		19.531250
9777		23.437500
9778		19.531250
9779		23.437500
9780		19.531250
9781		23.437500
9782		19.531250
9783		21.484375
9784		19.531250
9785		21.484375
9786		17.578125
9787		23.437500
9788		17.578125
9789		23.437500
9790		17.578125
9791		21.484375
9792		19.531250
9793		21.484375
9794		17.578125
9795		21.484375
9796		17.578125
9797		21.484375
9798		17.578125
9799		21.484375
9800		15.625000
9801		21.484375
9802		17.578125
9803		19.531250
9804		15.625000
9805		19.531250
9806		15.625000
9807		19.531250
9808		15.625000
9809		19.531250
9810		15.625000
9811		19.531250
9812		15.625000
9813		19.531250
9814		15.625000
9815		17.578125
9816		15.625000
9817		17.578125
9818		13.671875
9819		17.578125
9820		13.671875
9821		17.578125
9822		13.671875
9823		17.578125
9824		13.671875
9825		17.578125
9826		13.671875
9827		15.625000
9828		11.718750
9829		15.625000
9830		11.718750
9831		15.625000
9832		11.718750
9833		15.625000
9834		11.718750
9835		15.625000
9836		11.718750
9837		13.671875
9838		9.765625
9839		13.671875
9840		9.765625
9841		13.671875
9842		9.765625
9843		11.718750
9844		9.765625
9845		13.671875
9846		9.765625
9847		11.718750
9848		7.812500
9849		11.718750
9850		7.812500
9851		11.718750
9852		7.812500
9853		9.765625
9854		5.859375
9855		9.765625
9856		5.859375
9857		9.765625
9858		5.859375
9859		9.765625
9860		5.859375
9861		9.765625
9862		5.859375
9863		7.812500
9864		3.906250
9865		7.812500
9866		3.906250
9867		7.812500
9868		3.906250
9869		5.859375
9870		3.906250
9871		5.859375
9872		3.906250
9873		5.859375
9874		1.953125
9875		5.859375
9876		1.953125
9877		3.906250
9878		0.000000
9879		3.906250
9880		0.000000
9881		3.906250
9882		0.000000
9883		3.906250
9884		0.000000
9885		1.953125
9886		0.000000
9887		1.953125
9888		-1.953125
9889		1.953125
9890		-1.953125
9891		1.953125
9892		-1.953125
9893		1.953125
9894		-1.953125
9895		0.000000
9896		-3.906250
9897		0.000000
9898		-3.906250
9899		0.000000
9900		-3.906250
9901		-1.953125
9902		-5.859375
9903		-1.953125
9904		-5.859375
9905		-1.953125
9906		-5.859375
9907		-1.953125
9908		-5.859375
9909		-3.906250
9910		-5.859375
9911		-3.906250
9912		-7.812500
9913		-3.906250
9914		-7.812500
9915		-3.906250
9916		-7.812500
9917		-3.906250
9918		-7.812500
9919		-3.906250
9920		-7.812500
9921		-5.859375
9922		-9.765625
9923		-5.859375
9924		-9.765625
9925		-5.859375
9926		-9.765625
9927		-5.859375
9928		-9.765625
9929		-7.812500
9930		-9.765625
9931		-7.812500
9932		-11.718750
9933		-7.812500
9934		-11.718750
9935		-7.812500
9936		-11.718750
9937		-9.765625
9938		-11.718750
9939		-9.765625
9940		-11.718750
9941		-9.765625
9942		-13.671875
9943		-9.765625
9944		-13.671875
9945		-9.765625
9946		-13.671875
9947		-9.765625
9948		-13.671875
9949		-9.765625
9950		-13.671875
9951		-9.765625
9952		-13.671875
9953		-11.718750
9954		-13.671875
9955		-11.718750
9956		-15.625000
9957		-11.718750
9958		-15.625000
9959		-11.718750
9960		-15.625000
9961		-11.718750
9962		-15.625000
9963		-11.718750
9964		-15.625000
9965		-11.718750
9966		-15.625000
9967		-11.718750
9968		-15.625000
9969		-11.718750
9970		-15.625000
9971		-13.671875
9972		-17.578125
9973		-11.718750
9974		-17.578125
9975		-13.671875
9976		-15.625000
9977		-13.671875
9978		-15.625000
9979		-13.671875
9980		-17.578125
9981		-13.671875
9982		-15.625000
9983		-13.671875
9984		-17.578125
9985		-13.671875
9986		-15.625000
9987		-13.671875
9988		-17.578125
9989		-13.671875
9990		-15.625000
9991		-13.671875
9992		-15.625000
9993		-13.671875
9994		-17.578125
9995		-13.671875
9996		-17.578125
9997		-13.671875
9998		-17.578125
9999		-13.671875
10000		-17.578125
