Channel              :		CH1
Frequency            :		1.973kHz
Period               :		0.507ms
PK-PK                :		66.41mV
Probe attenuation    :		1X
Voltage per ADC value:		0.122070mV
Time interval        :		2.00000us

index		CH1_Voltage(mV)
1		35.156250
2		35.156250
3		37.109375
4		35.156250
5		39.062500
6		33.203125
7		37.109375
8		33.203125
9		37.109375
10		31.250000
11		35.156250
12		31.250000
13		35.156250
14		31.250000
15		33.203125
16		29.296875
17		33.203125
18		29.296875
19		31.250000
20		27.343750
21		31.250000
22		25.390625
23		29.296875
24		25.390625
25		29.296875
26		23.437500
27		27.343750
28		21.484375
29		27.343750
30		21.484375
31		25.390625
32		19.531250
33		23.437500
34		19.531250
35		21.484375
36		17.578125
37		21.484375
38		15.625000
39		19.531250
40		13.671875
41		17.578125
42		13.671875
43		15.625000
44		11.718750
45		15.625000
46		11.718750
47		13.671875
48		9.765625
49		11.718750
50		7.812500
51		11.718750
52		5.859375
53		9.765625
54		3.906250
55		7.812500
56		3.906250
57		5.859375
58		1.953125
59		5.859375
60		0.000000
61		3.906250
62		0.000000
63		3.906250
64		-1.953125
65		1.953125
66		-3.906250
67		0.000000
68		-3.906250
69		-1.953125
70		-5.859375
71		-1.953125
72		-7.812500
73		-1.953125
74		-9.765625
75		-5.859375
76		-9.765625
77		-5.859375
78		-9.765625
79		-7.812500
80		-11.718750
81		-7.812500
82		-13.671875
83		-9.765625
84		-13.671875
85		-9.765625
86		-13.671875
87		-11.718750
88		-15.625000
89		-11.718750
90		-15.625000
91		-11.718750
92		-17.578125
93		-13.671875
94		-17.578125
95		-13.671875
96		-17.578125
97		-13.671875
98		-19.531250
99		-15.625000
100		-19.531250
101		-15.625000
102		-19.531250
103		-15.625000
104		-19.531250
105		-17.578125
106		-19.531250
107		-15.625000
108		-19.531250
109		-17.578125
110		-19.531250
111		-15.625000
112		-19.531250
113		-15.625000
114		-19.531250
115		-15.625000
116		-19.531250
117		-15.625000
118		-19.531250
119		-15.625000
120		-19.531250
121		-15.625000
122		-19.531250
123		-15.625000
124		-17.578125
125		-15.625000
126		-17.578125
127		-13.671875
128		-17.578125
129		-13.671875
130		-15.625000
131		-13.671875
132		-15.625000
133		-11.718750
134		-13.671875
135		-11.718750
136		-13.671875
137		-9.765625
138		-13.671875
139		-9.765625
140		-11.718750
141		-9.765625
142		-11.718750
143		-7.812500
144		-9.765625
145		-7.812500
146		-9.765625
147		-5.859375
148		-7.812500
149		-3.906250
150		-7.812500
151		-1.953125
152		-5.859375
153		-1.953125
154		-3.906250
155		0.000000
156		-1.953125
157		0.000000
158		-1.953125
159		1.953125
160		0.000000
161		3.906250
162		1.953125
163		3.906250
164		1.953125
165		5.859375
166		3.906250
167		7.812500
168		3.906250
169		7.812500
170		7.812500
171		9.765625
172		7.812500
173		11.718750
174		9.765625
175		13.671875
176		11.718750
177		15.625000
178		11.718750
179		15.625000
180		13.671875
181		17.578125
182		15.625000
183		19.531250
184		17.578125
185		21.484375
186		17.578125
187		21.484375
188		19.531250
189		23.437500
190		19.531250
191		25.390625
192		21.484375
193		25.390625
194		23.437500
195		25.390625
196		25.390625
197		27.343750
198		25.390625
199		29.296875
200		27.343750
201		31.250000
202		27.343750
203		31.250000
204		29.296875
205		31.250000
206		29.296875
207		33.203125
208		31.250000
209		33.203125
210		31.250000
211		35.156250
212		31.250000
213		37.109375
214		33.203125
215		37.109375
216		33.203125
217		37.109375
218		33.203125
219		37.109375
220		35.156250
221		39.062500
222		35.156250
223		39.062500
224		37.109375
225		39.062500
226		37.109375
227		41.015625
228		37.109375
229		41.015625
230		37.109375
231		41.015625
232		37.109375
233		41.015625
234		37.109375
235		41.015625
236		37.109375
237		41.015625
238		39.062500
239		41.015625
240		37.109375
241		41.015625
242		37.109375
243		41.015625
244		37.109375
245		41.015625
246		37.109375
247		41.015625
248		37.109375
249		41.015625
250		37.109375
251		39.062500
252		37.109375
253		39.062500
254		35.156250
255		39.062500
256		35.156250
257		37.109375
258		33.203125
259		39.062500
260		33.203125
261		37.109375
262		33.203125
263		37.109375
264		31.250000
265		35.156250
266		31.250000
267		35.156250
268		31.250000
269		33.203125
270		29.296875
271		33.203125
272		27.343750
273		31.250000
274		27.343750
275		31.250000
276		25.390625
277		29.296875
278		25.390625
279		27.343750
280		23.437500
281		27.343750
282		23.437500
283		25.390625
284		19.531250
285		25.390625
286		19.531250
287		23.437500
288		19.531250
289		21.484375
290		17.578125
291		21.484375
292		15.625000
293		19.531250
294		13.671875
295		17.578125
296		13.671875
297		15.625000
298		11.718750
299		15.625000
300		9.765625
301		13.671875
302		9.765625
303		13.671875
304		7.812500
305		9.765625
306		5.859375
307		9.765625
308		3.906250
309		7.812500
310		1.953125
311		7.812500
312		1.953125
313		3.906250
314		0.000000
315		3.906250
316		-1.953125
317		1.953125
318		-1.953125
319		1.953125
320		-3.906250
321		0.000000
322		-3.906250
323		-1.953125
324		-5.859375
325		-1.953125
326		-7.812500
327		-3.906250
328		-7.812500
329		-5.859375
330		-9.765625
331		-5.859375
332		-11.718750
333		-7.812500
334		-11.718750
335		-9.765625
336		-13.671875
337		-7.812500
338		-13.671875
339		-9.765625
340		-15.625000
341		-11.718750
342		-15.625000
343		-11.718750
344		-15.625000
345		-13.671875
346		-17.578125
347		-13.671875
348		-17.578125
349		-13.671875
350		-17.578125
351		-15.625000
352		-19.531250
353		-15.625000
354		-19.531250
355		-15.625000
356		-19.531250
357		-15.625000
358		-19.531250
359		-17.578125
360		-19.531250
361		-17.578125
362		-19.531250
363		-17.578125
364		-19.531250
365		-17.578125
366		-19.531250
367		-15.625000
368		-21.484375
369		-15.625000
370		-19.531250
371		-17.578125
372		-19.531250
373		-15.625000
374		-19.531250
375		-15.625000
376		-19.531250
377		-15.625000
378		-17.578125
379		-15.625000
380		-17.578125
381		-13.671875
382		-17.578125
383		-13.671875
384		-15.625000
385		-13.671875
386		-15.625000
387		-11.718750
388		-13.671875
389		-11.718750
390		-13.671875
391		-9.765625
392		-11.718750
393		-9.765625
394		-11.718750
395		-7.812500
396		-11.718750
397		-7.812500
398		-9.765625
399		-5.859375
400		-7.812500
401		-5.859375
402		-7.812500
403		-3.906250
404		-5.859375
405		-3.906250
406		-3.906250
407		-1.953125
408		-3.906250
409		0.000000
410		-1.953125
411		1.953125
412		-1.953125
413		1.953125
414		0.000000
415		3.906250
416		1.953125
417		5.859375
418		1.953125
419		5.859375
420		3.906250
421		7.812500
422		5.859375
423		9.765625
424		7.812500
425		11.718750
426		7.812500
427		13.671875
428		9.765625
429		13.671875
430		11.718750
431		15.625000
432		13.671875
433		15.625000
434		13.671875
435		17.578125
436		15.625000
437		19.531250
438		17.578125
439		19.531250
440		17.578125
441		21.484375
442		19.531250
443		23.437500
444		21.484375
445		23.437500
446		21.484375
447		25.390625
448		23.437500
449		27.343750
450		23.437500
451		29.296875
452		25.390625
453		29.296875
454		27.343750
455		29.296875
456		27.343750
457		31.250000
458		29.296875
459		31.250000
460		29.296875
461		33.203125
462		31.250000
463		35.156250
464		31.250000
465		35.156250
466		31.250000
467		35.156250
468		33.203125
469		37.109375
470		33.203125
471		37.109375
472		35.156250
473		39.062500
474		35.156250
475		39.062500
476		35.156250
477		39.062500
478		35.156250
479		39.062500
480		37.109375
481		39.062500
482		37.109375
483		41.015625
484		37.109375
485		41.015625
486		37.109375
487		41.015625
488		37.109375
489		41.015625
490		37.109375
491		41.015625
492		37.109375
493		41.015625
494		37.109375
495		41.015625
496		37.109375
497		41.015625
498		37.109375
499		41.015625
500		37.109375
501		41.015625
502		37.109375
503		39.062500
504		35.156250
505		39.062500
506		35.156250
507		39.062500
508		35.156250
509		39.062500
510		35.156250
511		37.109375
512		33.203125
513		37.109375
514		33.203125
515		37.109375
516		33.203125
517		37.109375
518		31.250000
519		35.156250
520		29.296875
521		35.156250
522		29.296875
523		33.203125
524		27.343750
525		31.250000
526		27.343750
527		31.250000
528		27.343750
529		29.296875
530		25.390625
531		29.296875
532		23.437500
533		27.343750
534		23.437500
535		27.343750
536		21.484375
537		25.390625
538		21.484375
539		23.437500
540		19.531250
541		23.437500
542		17.578125
543		21.484375
544		15.625000
545		19.531250
546		15.625000
547		19.531250
548		13.671875
549		17.578125
550		11.718750
551		17.578125
552		11.718750
553		13.671875
554		9.765625
555		13.671875
556		7.812500
557		11.718750
558		5.859375
559		9.765625
560		5.859375
561		9.765625
562		3.906250
563		7.812500
564		1.953125
565		5.859375
566		0.000000
567		5.859375
568		0.000000
569		3.906250
570		-1.953125
571		1.953125
572		-1.953125
573		0.000000
574		-3.906250
575		0.000000
576		-5.859375
577		-1.953125
578		-5.859375
579		-3.906250
580		-7.812500
581		-3.906250
582		-9.765625
583		-5.859375
584		-9.765625
585		-7.812500
586		-11.718750
587		-7.812500
588		-13.671875
589		-9.765625
590		-13.671875
591		-9.765625
592		-15.625000
593		-11.718750
594		-15.625000
595		-11.718750
596		-15.625000
597		-11.718750
598		-17.578125
599		-13.671875
600		-17.578125
601		-13.671875
602		-17.578125
603		-15.625000
604		-17.578125
605		-15.625000
606		-19.531250
607		-15.625000
608		-19.531250
609		-15.625000
610		-19.531250
611		-15.625000
612		-19.531250
613		-17.578125
614		-19.531250
615		-17.578125
616		-19.531250
617		-17.578125
618		-19.531250
619		-17.578125
620		-19.531250
621		-15.625000
622		-19.531250
623		-17.578125
624		-19.531250
625		-17.578125
626		-19.531250
627		-15.625000
628		-19.531250
629		-15.625000
630		-17.578125
631		-15.625000
632		-17.578125
633		-15.625000
634		-17.578125
635		-13.671875
636		-17.578125
637		-13.671875
638		-15.625000
639		-11.718750
640		-15.625000
641		-11.718750
642		-13.671875
643		-11.718750
644		-13.671875
645		-9.765625
646		-11.718750
647		-9.765625
648		-11.718750
649		-7.812500
650		-11.718750
651		-7.812500
652		-9.765625
653		-5.859375
654		-7.812500
655		-3.906250
656		-7.812500
657		-3.906250
658		-5.859375
659		-1.953125
660		-3.906250
661		0.000000
662		-3.906250
663		0.000000
664		-1.953125
665		1.953125
666		0.000000
667		1.953125
668		0.000000
669		3.906250
670		1.953125
671		5.859375
672		3.906250
673		7.812500
674		3.906250
675		7.812500
676		5.859375
677		9.765625
678		7.812500
679		11.718750
680		7.812500
681		11.718750
682		9.765625
683		13.671875
684		11.718750
685		15.625000
686		13.671875
687		17.578125
688		13.671875
689		19.531250
690		15.625000
691		19.531250
692		17.578125
693		19.531250
694		17.578125
695		21.484375
696		19.531250
697		23.437500
698		21.484375
699		25.390625
700		23.437500
701		25.390625
702		23.437500
703		27.343750
704		25.390625
705		29.296875
706		23.437500
707		29.296875
708		27.343750
709		31.250000
710		27.343750
711		31.250000
712		29.296875
713		33.203125
714		29.296875
715		33.203125
716		31.250000
717		35.156250
718		31.250000
719		35.156250
720		33.203125
721		35.156250
722		33.203125
723		37.109375
724		35.156250
725		37.109375
726		35.156250
727		37.109375
728		35.156250
729		39.062500
730		35.156250
731		39.062500
732		35.156250
733		39.062500
734		37.109375
735		41.015625
736		37.109375
737		41.015625
738		37.109375
739		41.015625
740		37.109375
741		41.015625
742		37.109375
743		41.015625
744		37.109375
745		41.015625
746		37.109375
747		41.015625
748		37.109375
749		41.015625
750		37.109375
751		39.062500
752		37.109375
753		41.015625
754		37.109375
755		41.015625
756		37.109375
757		39.062500
758		37.109375
759		39.062500
760		35.156250
761		39.062500
762		35.156250
763		37.109375
764		35.156250
765		37.109375
766		33.203125
767		37.109375
768		33.203125
769		35.156250
770		31.250000
771		35.156250
772		31.250000
773		35.156250
774		31.250000
775		33.203125
776		29.296875
777		33.203125
778		27.343750
779		33.203125
780		27.343750
781		31.250000
782		25.390625
783		29.296875
784		25.390625
785		29.296875
786		23.437500
787		27.343750
788		23.437500
789		27.343750
790		21.484375
791		25.390625
792		19.531250
793		23.437500
794		19.531250
795		23.437500
796		17.578125
797		21.484375
798		15.625000
799		19.531250
800		13.671875
801		19.531250
802		13.671875
803		17.578125
804		11.718750
805		15.625000
806		9.765625
807		15.625000
808		9.765625
809		11.718750
810		5.859375
811		11.718750
812		5.859375
813		9.765625
814		3.906250
815		7.812500
816		3.906250
817		7.812500
818		1.953125
819		5.859375
820		0.000000
821		3.906250
822		-1.953125
823		1.953125
824		-1.953125
825		1.953125
826		-3.906250
827		0.000000
828		-5.859375
829		0.000000
830		-5.859375
831		-1.953125
832		-7.812500
833		-3.906250
834		-7.812500
835		-5.859375
836		-9.765625
837		-5.859375
838		-9.765625
839		-7.812500
840		-11.718750
841		-7.812500
842		-11.718750
843		-9.765625
844		-13.671875
845		-9.765625
846		-13.671875
847		-11.718750
848		-15.625000
849		-11.718750
850		-15.625000
851		-13.671875
852		-17.578125
853		-13.671875
854		-17.578125
855		-13.671875
856		-19.531250
857		-15.625000
858		-17.578125
859		-15.625000
860		-19.531250
861		-15.625000
862		-19.531250
863		-15.625000
864		-19.531250
865		-17.578125
866		-19.531250
867		-17.578125
868		-19.531250
869		-17.578125
870		-19.531250
871		-17.578125
872		-19.531250
873		-15.625000
874		-21.484375
875		-17.578125
876		-19.531250
877		-17.578125
878		-21.484375
879		-15.625000
880		-19.531250
881		-17.578125
882		-19.531250
883		-15.625000
884		-17.578125
885		-15.625000
886		-17.578125
887		-15.625000
888		-17.578125
889		-13.671875
890		-17.578125
891		-13.671875
892		-15.625000
893		-13.671875
894		-15.625000
895		-11.718750
896		-13.671875
897		-11.718750
898		-13.671875
899		-9.765625
900		-13.671875
901		-9.765625
902		-11.718750
903		-7.812500
904		-11.718750
905		-7.812500
906		-9.765625
907		-5.859375
908		-7.812500
909		-5.859375
910		-7.812500
911		-3.906250
912		-5.859375
913		-1.953125
914		-5.859375
915		-1.953125
916		-3.906250
917		0.000000
918		-1.953125
919		1.953125
920		0.000000
921		3.906250
922		0.000000
923		3.906250
924		0.000000
925		5.859375
926		3.906250
927		5.859375
928		3.906250
929		9.765625
930		5.859375
931		9.765625
932		7.812500
933		11.718750
934		9.765625
935		11.718750
936		9.765625
937		13.671875
938		11.718750
939		15.625000
940		13.671875
941		17.578125
942		15.625000
943		17.578125
944		15.625000
945		19.531250
946		15.625000
947		21.484375
948		17.578125
949		21.484375
950		19.531250
951		23.437500
952		21.484375
953		25.390625
954		23.437500
955		25.390625
956		23.437500
957		27.343750
958		25.390625
959		27.343750
960		25.390625
961		29.296875
962		27.343750
963		31.250000
964		27.343750
965		31.250000
966		27.343750
967		33.203125
968		29.296875
969		33.203125
970		31.250000
971		35.156250
972		31.250000
973		35.156250
974		31.250000
975		37.109375
976		33.203125
977		37.109375
978		33.203125
979		39.062500
980		35.156250
981		37.109375
982		35.156250
983		37.109375
984		35.156250
985		39.062500
986		35.156250
987		39.062500
988		37.109375
989		39.062500
990		37.109375
991		41.015625
992		37.109375
993		39.062500
994		37.109375
995		39.062500
996		37.109375
997		41.015625
998		37.109375
999		39.062500
1000		37.109375
1001		41.015625
1002		37.109375
1003		41.015625
1004		37.109375
1005		39.062500
1006		37.109375
1007		41.015625
1008		35.156250
1009		39.062500
1010		37.109375
1011		39.062500
1012		35.156250
1013		39.062500
1014		35.156250
1015		39.062500
1016		35.156250
1017		37.109375
1018		33.203125
1019		37.109375
1020		33.203125
1021		37.109375
1022		33.203125
1023		35.156250
1024		31.250000
1025		35.156250
1026		31.250000
1027		33.203125
1028		29.296875
1029		33.203125
1030		29.296875
1031		33.203125
1032		27.343750
1033		31.250000
1034		27.343750
1035		29.296875
1036		25.390625
1037		29.296875
1038		25.390625
1039		27.343750
1040		23.437500
1041		27.343750
1042		21.484375
1043		25.390625
1044		21.484375
1045		23.437500
1046		19.531250
1047		23.437500
1048		19.531250
1049		21.484375
1050		17.578125
1051		21.484375
1052		15.625000
1053		19.531250
1054		13.671875
1055		17.578125
1056		11.718750
1057		17.578125
1058		11.718750
1059		15.625000
1060		9.765625
1061		13.671875
1062		7.812500
1063		11.718750
1064		5.859375
1065		9.765625
1066		5.859375
1067		9.765625
1068		3.906250
1069		7.812500
1070		1.953125
1071		5.859375
1072		1.953125
1073		3.906250
1074		-1.953125
1075		3.906250
1076		-1.953125
1077		1.953125
1078		-1.953125
1079		0.000000
1080		-3.906250
1081		0.000000
1082		-5.859375
1083		-1.953125
1084		-7.812500
1085		-3.906250
1086		-7.812500
1087		-3.906250
1088		-7.812500
1089		-5.859375
1090		-9.765625
1091		-5.859375
1092		-11.718750
1093		-7.812500
1094		-11.718750
1095		-9.765625
1096		-13.671875
1097		-9.765625
1098		-15.625000
1099		-9.765625
1100		-15.625000
1101		-11.718750
1102		-15.625000
1103		-13.671875
1104		-17.578125
1105		-13.671875
1106		-17.578125
1107		-13.671875
1108		-19.531250
1109		-13.671875
1110		-19.531250
1111		-15.625000
1112		-17.578125
1113		-15.625000
1114		-19.531250
1115		-15.625000
1116		-19.531250
1117		-17.578125
1118		-19.531250
1119		-15.625000
1120		-19.531250
1121		-17.578125
1122		-19.531250
1123		-17.578125
1124		-19.531250
1125		-17.578125
1126		-21.484375
1127		-17.578125
1128		-19.531250
1129		-17.578125
1130		-19.531250
1131		-15.625000
1132		-19.531250
1133		-15.625000
1134		-19.531250
1135		-15.625000
1136		-19.531250
1137		-15.625000
1138		-17.578125
1139		-15.625000
1140		-17.578125
1141		-15.625000
1142		-17.578125
1143		-13.671875
1144		-15.625000
1145		-13.671875
1146		-15.625000
1147		-13.671875
1148		-15.625000
1149		-11.718750
1150		-15.625000
1151		-11.718750
1152		-13.671875
1153		-9.765625
1154		-11.718750
1155		-9.765625
1156		-11.718750
1157		-7.812500
1158		-9.765625
1159		-5.859375
1160		-9.765625
1161		-5.859375
1162		-7.812500
1163		-3.906250
1164		-7.812500
1165		-3.906250
1166		-5.859375
1167		-1.953125
1168		-3.906250
1169		-1.953125
1170		-1.953125
1171		0.000000
1172		-1.953125
1173		1.953125
1174		0.000000
1175		1.953125
1176		0.000000
1177		3.906250
1178		1.953125
1179		5.859375
1180		3.906250
1181		7.812500
1182		5.859375
1183		7.812500
1184		7.812500
1185		9.765625
1186		7.812500
1187		11.718750
1188		9.765625
1189		13.671875
1190		9.765625
1191		13.671875
1192		11.718750
1193		15.625000
1194		13.671875
1195		17.578125
1196		15.625000
1197		17.578125
1198		15.625000
1199		19.531250
1200		17.578125
1201		21.484375
1202		17.578125
1203		23.437500
1204		21.484375
1205		25.390625
1206		21.484375
1207		25.390625
1208		23.437500
1209		25.390625
1210		23.437500
1211		27.343750
1212		25.390625
1213		29.296875
1214		25.390625
1215		29.296875
1216		27.343750
1217		31.250000
1218		27.343750
1219		31.250000
1220		29.296875
1221		33.203125
1222		31.250000
1223		33.203125
1224		31.250000
1225		35.156250
1226		31.250000
1227		35.156250
1228		33.203125
1229		35.156250
1230		33.203125
1231		37.109375
1232		33.203125
1233		37.109375
1234		35.156250
1235		39.062500
1236		35.156250
1237		39.062500
1238		35.156250
1239		39.062500
1240		37.109375
1241		39.062500
1242		37.109375
1243		41.015625
1244		37.109375
1245		39.062500
1246		37.109375
1247		39.062500
1248		37.109375
1249		41.015625
1250		37.109375
1251		39.062500
1252		37.109375
1253		41.015625
1254		37.109375
1255		41.015625
1256		37.109375
1257		41.015625
1258		37.109375
1259		41.015625
1260		35.156250
1261		41.015625
1262		37.109375
1263		39.062500
1264		37.109375
1265		39.062500
1266		35.156250
1267		39.062500
1268		35.156250
1269		39.062500
1270		35.156250
1271		37.109375
1272		33.203125
1273		37.109375
1274		33.203125
1275		35.156250
1276		31.250000
1277		35.156250
1278		31.250000
1279		35.156250
1280		31.250000
1281		33.203125
1282		29.296875
1283		33.203125
1284		29.296875
1285		31.250000
1286		27.343750
1287		31.250000
1288		25.390625
1289		29.296875
1290		25.390625
1291		29.296875
1292		23.437500
1293		27.343750
1294		23.437500
1295		27.343750
1296		21.484375
1297		25.390625
1298		19.531250
1299		23.437500
1300		19.531250
1301		23.437500
1302		17.578125
1303		21.484375
1304		17.578125
1305		19.531250
1306		15.625000
1307		19.531250
1308		13.671875
1309		17.578125
1310		11.718750
1311		15.625000
1312		11.718750
1313		13.671875
1314		9.765625
1315		13.671875
1316		7.812500
1317		13.671875
1318		5.859375
1319		9.765625
1320		5.859375
1321		7.812500
1322		3.906250
1323		7.812500
1324		1.953125
1325		5.859375
1326		0.000000
1327		3.906250
1328		0.000000
1329		3.906250
1330		-1.953125
1331		1.953125
1332		-3.906250
1333		0.000000
1334		-3.906250
1335		0.000000
1336		-5.859375
1337		-1.953125
1338		-7.812500
1339		-3.906250
1340		-7.812500
1341		-3.906250
1342		-9.765625
1343		-5.859375
1344		-11.718750
1345		-7.812500
1346		-11.718750
1347		-7.812500
1348		-13.671875
1349		-9.765625
1350		-13.671875
1351		-9.765625
1352		-13.671875
1353		-11.718750
1354		-15.625000
1355		-11.718750
1356		-15.625000
1357		-13.671875
1358		-17.578125
1359		-13.671875
1360		-17.578125
1361		-13.671875
1362		-17.578125
1363		-15.625000
1364		-17.578125
1365		-15.625000
1366		-19.531250
1367		-15.625000
1368		-19.531250
1369		-17.578125
1370		-19.531250
1371		-17.578125
1372		-19.531250
1373		-17.578125
1374		-19.531250
1375		-17.578125
1376		-21.484375
1377		-17.578125
1378		-19.531250
1379		-17.578125
1380		-19.531250
1381		-17.578125
1382		-21.484375
1383		-17.578125
1384		-19.531250
1385		-17.578125
1386		-19.531250
1387		-17.578125
1388		-19.531250
1389		-15.625000
1390		-19.531250
1391		-15.625000
1392		-17.578125
1393		-15.625000
1394		-19.531250
1395		-13.671875
1396		-17.578125
1397		-15.625000
1398		-15.625000
1399		-13.671875
1400		-17.578125
1401		-11.718750
1402		-15.625000
1403		-11.718750
1404		-13.671875
1405		-11.718750
1406		-13.671875
1407		-9.765625
1408		-13.671875
1409		-9.765625
1410		-11.718750
1411		-7.812500
1412		-11.718750
1413		-7.812500
1414		-9.765625
1415		-5.859375
1416		-7.812500
1417		-3.906250
1418		-7.812500
1419		-3.906250
1420		-5.859375
1421		-1.953125
1422		-3.906250
1423		0.000000
1424		-3.906250
1425		0.000000
1426		-1.953125
1427		1.953125
1428		0.000000
1429		3.906250
1430		1.953125
1431		3.906250
1432		1.953125
1433		5.859375
1434		3.906250
1435		7.812500
1436		5.859375
1437		7.812500
1438		5.859375
1439		9.765625
1440		7.812500
1441		11.718750
1442		9.765625
1443		13.671875
1444		9.765625
1445		15.625000
1446		11.718750
1447		15.625000
1448		13.671875
1449		17.578125
1450		13.671875
1451		19.531250
1452		17.578125
1453		19.531250
1454		17.578125
1455		21.484375
1456		19.531250
1457		23.437500
1458		21.484375
1459		23.437500
1460		21.484375
1461		25.390625
1462		23.437500
1463		25.390625
1464		25.390625
1465		27.343750
1466		25.390625
1467		29.296875
1468		25.390625
1469		29.296875
1470		27.343750
1471		31.250000
1472		27.343750
1473		31.250000
1474		29.296875
1475		33.203125
1476		31.250000
1477		33.203125
1478		31.250000
1479		35.156250
1480		33.203125
1481		35.156250
1482		33.203125
1483		35.156250
1484		33.203125
1485		37.109375
1486		33.203125
1487		37.109375
1488		35.156250
1489		37.109375
1490		35.156250
1491		39.062500
1492		35.156250
1493		39.062500
1494		35.156250
1495		39.062500
1496		35.156250
1497		39.062500
1498		37.109375
1499		39.062500
1500		37.109375
1501		41.015625
1502		37.109375
1503		41.015625
1504		37.109375
1505		41.015625
1506		37.109375
1507		41.015625
1508		37.109375
1509		41.015625
1510		37.109375
1511		39.062500
1512		37.109375
1513		39.062500
1514		37.109375
1515		39.062500
1516		35.156250
1517		39.062500
1518		35.156250
1519		39.062500
1520		35.156250
1521		39.062500
1522		35.156250
1523		37.109375
1524		35.156250
1525		37.109375
1526		33.203125
1527		37.109375
1528		31.250000
1529		35.156250
1530		33.203125
1531		35.156250
1532		31.250000
1533		35.156250
1534		29.296875
1535		33.203125
1536		29.296875
1537		33.203125
1538		27.343750
1539		31.250000
1540		27.343750
1541		31.250000
1542		25.390625
1543		29.296875
1544		25.390625
1545		29.296875
1546		23.437500
1547		27.343750
1548		23.437500
1549		25.390625
1550		21.484375
1551		25.390625
1552		19.531250
1553		23.437500
1554		17.578125
1555		23.437500
1556		17.578125
1557		21.484375
1558		15.625000
1559		19.531250
1560		15.625000
1561		19.531250
1562		11.718750
1563		17.578125
1564		11.718750
1565		15.625000
1566		11.718750
1567		13.671875
1568		9.765625
1569		13.671875
1570		7.812500
1571		11.718750
1572		5.859375
1573		9.765625
1574		3.906250
1575		7.812500
1576		3.906250
1577		5.859375
1578		1.953125
1579		5.859375
1580		0.000000
1581		3.906250
1582		0.000000
1583		1.953125
1584		-1.953125
1585		1.953125
1586		-3.906250
1587		0.000000
1588		-5.859375
1589		-1.953125
1590		-5.859375
1591		-1.953125
1592		-7.812500
1593		-3.906250
1594		-7.812500
1595		-5.859375
1596		-9.765625
1597		-5.859375
1598		-9.765625
1599		-7.812500
1600		-11.718750
1601		-7.812500
1602		-13.671875
1603		-9.765625
1604		-13.671875
1605		-9.765625
1606		-13.671875
1607		-11.718750
1608		-15.625000
1609		-11.718750
1610		-15.625000
1611		-13.671875
1612		-17.578125
1613		-13.671875
1614		-17.578125
1615		-15.625000
1616		-17.578125
1617		-15.625000
1618		-19.531250
1619		-15.625000
1620		-19.531250
1621		-15.625000
1622		-19.531250
1623		-17.578125
1624		-19.531250
1625		-17.578125
1626		-19.531250
1627		-17.578125
1628		-19.531250
1629		-17.578125
1630		-21.484375
1631		-15.625000
1632		-19.531250
1633		-17.578125
1634		-21.484375
1635		-17.578125
1636		-21.484375
1637		-17.578125
1638		-19.531250
1639		-15.625000
1640		-19.531250
1641		-17.578125
1642		-19.531250
1643		-15.625000
1644		-19.531250
1645		-15.625000
1646		-17.578125
1647		-15.625000
1648		-17.578125
1649		-15.625000
1650		-17.578125
1651		-13.671875
1652		-17.578125
1653		-13.671875
1654		-15.625000
1655		-11.718750
1656		-15.625000
1657		-11.718750
1658		-13.671875
1659		-11.718750
1660		-13.671875
1661		-9.765625
1662		-11.718750
1663		-7.812500
1664		-11.718750
1665		-7.812500
1666		-9.765625
1667		-7.812500
1668		-9.765625
1669		-5.859375
1670		-7.812500
1671		-3.906250
1672		-5.859375
1673		-3.906250
1674		-5.859375
1675		-1.953125
1676		-3.906250
1677		0.000000
1678		-3.906250
1679		1.953125
1680		-1.953125
1681		1.953125
1682		0.000000
1683		3.906250
1684		1.953125
1685		5.859375
1686		1.953125
1687		7.812500
1688		3.906250
1689		7.812500
1690		5.859375
1691		9.765625
1692		7.812500
1693		11.718750
1694		7.812500
1695		11.718750
1696		9.765625
1697		13.671875
1698		11.718750
1699		15.625000
1700		13.671875
1701		15.625000
1702		13.671875
1703		17.578125
1704		15.625000
1705		19.531250
1706		17.578125
1707		21.484375
1708		17.578125
1709		21.484375
1710		19.531250
1711		23.437500
1712		21.484375
1713		23.437500
1714		21.484375
1715		25.390625
1716		23.437500
1717		27.343750
1718		23.437500
1719		29.296875
1720		25.390625
1721		29.296875
1722		27.343750
1723		29.296875
1724		27.343750
1725		31.250000
1726		29.296875
1727		31.250000
1728		29.296875
1729		33.203125
1730		31.250000
1731		35.156250
1732		31.250000
1733		35.156250
1734		33.203125
1735		35.156250
1736		31.250000
1737		37.109375
1738		33.203125
1739		37.109375
1740		35.156250
1741		37.109375
1742		35.156250
1743		37.109375
1744		35.156250
1745		39.062500
1746		35.156250
1747		39.062500
1748		35.156250
1749		39.062500
1750		37.109375
1751		39.062500
1752		37.109375
1753		39.062500
1754		37.109375
1755		39.062500
1756		37.109375
1757		39.062500
1758		37.109375
1759		39.062500
1760		37.109375
1761		39.062500
1762		37.109375
1763		39.062500
1764		37.109375
1765		41.015625
1766		37.109375
1767		39.062500
1768		35.156250
1769		39.062500
1770		35.156250
1771		39.062500
1772		35.156250
1773		39.062500
1774		35.156250
1775		37.109375
1776		33.203125
1777		37.109375
1778		33.203125
1779		37.109375
1780		33.203125
1781		37.109375
1782		31.250000
1783		35.156250
1784		31.250000
1785		35.156250
1786		29.296875
1787		35.156250
1788		29.296875
1789		33.203125
1790		29.296875
1791		31.250000
1792		27.343750
1793		31.250000
1794		27.343750
1795		29.296875
1796		25.390625
1797		29.296875
1798		25.390625
1799		29.296875
1800		23.437500
1801		27.343750
1802		21.484375
1803		25.390625
1804		21.484375
1805		25.390625
1806		19.531250
1807		23.437500
1808		17.578125
1809		21.484375
1810		15.625000
1811		19.531250
1812		15.625000
1813		19.531250
1814		13.671875
1815		17.578125
1816		13.671875
1817		15.625000
1818		11.718750
1819		13.671875
1820		9.765625
1821		13.671875
1822		7.812500
1823		11.718750
1824		7.812500
1825		11.718750
1826		5.859375
1827		9.765625
1828		3.906250
1829		7.812500
1830		1.953125
1831		5.859375
1832		1.953125
1833		5.859375
1834		0.000000
1835		3.906250
1836		-1.953125
1837		1.953125
1838		-3.906250
1839		1.953125
1840		-3.906250
1841		0.000000
1842		-5.859375
1843		-1.953125
1844		-7.812500
1845		-1.953125
1846		-9.765625
1847		-3.906250
1848		-9.765625
1849		-5.859375
1850		-9.765625
1851		-7.812500
1852		-11.718750
1853		-7.812500
1854		-13.671875
1855		-7.812500
1856		-15.625000
1857		-7.812500
1858		-15.625000
1859		-9.765625
1860		-17.578125
1861		-9.765625
1862		-17.578125
1863		-11.718750
1864		-19.531250
1865		-11.718750
1866		-17.578125
1867		-15.625000
1868		-17.578125
1869		-15.625000
1870		-19.531250
1871		-13.671875
1872		-21.484375
1873		-13.671875
1874		-21.484375
1875		-15.625000
1876		-21.484375
1877		-15.625000
1878		-21.484375
1879		-15.625000
1880		-21.484375
1881		-15.625000
1882		-23.437500
1883		-15.625000
1884		-21.484375
1885		-17.578125
1886		-21.484375
1887		-15.625000
1888		-23.437500
1889		-15.625000
1890		-23.437500
1891		-15.625000
1892		-21.484375
1893		-15.625000
1894		-21.484375
1895		-15.625000
1896		-21.484375
1897		-15.625000
1898		-21.484375
1899		-13.671875
1900		-17.578125
1901		-15.625000
1902		-17.578125
1903		-15.625000
1904		-19.531250
1905		-11.718750
1906		-17.578125
1907		-11.718750
1908		-17.578125
1909		-11.718750
1910		-17.578125
1911		-9.765625
1912		-15.625000
1913		-9.765625
1914		-15.625000
1915		-7.812500
1916		-13.671875
1917		-7.812500
1918		-11.718750
1919		-7.812500
1920		-11.718750
1921		-5.859375
1922		-11.718750
1923		-3.906250
1924		-9.765625
1925		-1.953125
1926		-7.812500
1927		-1.953125
1928		-7.812500
1929		0.000000
1930		-5.859375
1931		1.953125
1932		-3.906250
1933		1.953125
1934		0.000000
1935		1.953125
1936		0.000000
1937		3.906250
1938		0.000000
1939		7.812500
1940		1.953125
1941		7.812500
1942		1.953125
1943		9.765625
1944		3.906250
1945		11.718750
1946		5.859375
1947		11.718750
1948		7.812500
1949		13.671875
1950		7.812500
1951		13.671875
1952		11.718750
1953		15.625000
1954		11.718750
1955		17.578125
1956		11.718750
1957		19.531250
1958		13.671875
1959		21.484375
1960		15.625000
1961		21.484375
1962		15.625000
1963		23.437500
1964		17.578125
1965		25.390625
1966		19.531250
1967		25.390625
1968		23.437500
1969		25.390625
1970		21.484375
1971		27.343750
1972		21.484375
1973		29.296875
1974		23.437500
1975		31.250000
1976		25.390625
1977		31.250000
1978		25.390625
1979		33.203125
1980		27.343750
1981		33.203125
1982		27.343750
1983		35.156250
1984		31.250000
1985		33.203125
1986		31.250000
1987		35.156250
1988		29.296875
1989		37.109375
1990		31.250000
1991		37.109375
1992		31.250000
1993		39.062500
1994		33.203125
1995		39.062500
1996		33.203125
1997		39.062500
1998		33.203125
1999		41.015625
2000		35.156250
2001		41.015625
2002		37.109375
2003		39.062500
2004		35.156250
2005		41.015625
2006		35.156250
2007		41.015625
2008		35.156250
2009		41.015625
2010		35.156250
2011		41.015625
2012		35.156250
2013		41.015625
2014		35.156250
2015		41.015625
2016		35.156250
2017		41.015625
2018		37.109375
2019		39.062500
2020		35.156250
2021		39.062500
2022		35.156250
2023		41.015625
2024		33.203125
2025		41.015625
2026		33.203125
2027		39.062500
2028		31.250000
2029		39.062500
2030		31.250000
2031		39.062500
2032		31.250000
2033		39.062500
2034		33.203125
2035		37.109375
2036		33.203125
2037		35.156250
2038		29.296875
2039		35.156250
2040		29.296875
2041		35.156250
2042		27.343750
2043		35.156250
2044		27.343750
2045		33.203125
2046		25.390625
2047		33.203125
2048		25.390625
2049		31.250000
2050		23.437500
2051		29.296875
2052		25.390625
2053		27.343750
2054		21.484375
2055		27.343750
2056		19.531250
2057		27.343750
2058		17.578125
2059		25.390625
2060		17.578125
2061		23.437500
2062		15.625000
2063		23.437500
2064		13.671875
2065		21.484375
2066		13.671875
2067		19.531250
2068		13.671875
2069		17.578125
2070		11.718750
2071		15.625000
2072		7.812500
2073		15.625000
2074		7.812500
2075		15.625000
2076		5.859375
2077		13.671875
2078		3.906250
2079		11.718750
2080		1.953125
2081		9.765625
2082		1.953125
2083		9.765625
2084		1.953125
2085		7.812500
2086		1.953125
2087		3.906250
2088		-1.953125
2089		3.906250
2090		-3.906250
2091		3.906250
2092		-3.906250
2093		1.953125
2094		-5.859375
2095		0.000000
2096		-7.812500
2097		0.000000
2098		-9.765625
2099		-1.953125
2100		-9.765625
2101		-3.906250
2102		-9.765625
2103		-5.859375
2104		-9.765625
2105		-7.812500
2106		-13.671875
2107		-5.859375
2108		-15.625000
2109		-7.812500
2110		-15.625000
2111		-7.812500
2112		-17.578125
2113		-9.765625
2114		-17.578125
2115		-9.765625
2116		-17.578125
2117		-11.718750
2118		-17.578125
2119		-11.718750
2120		-17.578125
2121		-15.625000
2122		-19.531250
2123		-13.671875
2124		-21.484375
2125		-13.671875
2126		-21.484375
2127		-15.625000
2128		-21.484375
2129		-15.625000
2130		-23.437500
2131		-15.625000
2132		-21.484375
2133		-15.625000
2134		-21.484375
2135		-15.625000
2136		-21.484375
2137		-17.578125
2138		-23.437500
2139		-17.578125
2140		-23.437500
2141		-15.625000
2142		-21.484375
2143		-15.625000
2144		-21.484375
2145		-15.625000
2146		-21.484375
2147		-15.625000
2148		-21.484375
2149		-15.625000
2150		-21.484375
2151		-15.625000
2152		-19.531250
2153		-15.625000
2154		-17.578125
2155		-15.625000
2156		-19.531250
2157		-13.671875
2158		-19.531250
2159		-11.718750
2160		-17.578125
2161		-11.718750
2162		-17.578125
2163		-11.718750
2164		-17.578125
2165		-9.765625
2166		-15.625000
2167		-7.812500
2168		-13.671875
2169		-7.812500
2170		-11.718750
2171		-7.812500
2172		-11.718750
2173		-5.859375
2174		-11.718750
2175		-3.906250
2176		-9.765625
2177		-3.906250
2178		-9.765625
2179		-1.953125
2180		-7.812500
2181		0.000000
2182		-5.859375
2183		0.000000
2184		-5.859375
2185		1.953125
2186		-1.953125
2187		1.953125
2188		0.000000
2189		1.953125
2190		-1.953125
2191		5.859375
2192		0.000000
2193		7.812500
2194		1.953125
2195		7.812500
2196		3.906250
2197		9.765625
2198		3.906250
2199		11.718750
2200		5.859375
2201		13.671875
2202		7.812500
2203		11.718750
2204		11.718750
2205		13.671875
2206		9.765625
2207		17.578125
2208		11.718750
2209		19.531250
2210		13.671875
2211		19.531250
2212		13.671875
2213		21.484375
2214		15.625000
2215		23.437500
2216		15.625000
2217		23.437500
2218		17.578125
2219		23.437500
2220		21.484375
2221		23.437500
2222		23.437500
2223		27.343750
2224		21.484375
2225		29.296875
2226		23.437500
2227		29.296875
2228		23.437500
2229		31.250000
2230		25.390625
2231		31.250000
2232		25.390625
2233		33.203125
2234		27.343750
2235		33.203125
2236		29.296875
2237		33.203125
2238		31.250000
2239		33.203125
2240		29.296875
2241		37.109375
2242		31.250000
2243		37.109375
2244		31.250000
2245		39.062500
2246		31.250000
2247		39.062500
2248		31.250000
2249		39.062500
2250		33.203125
2251		41.015625
2252		33.203125
2253		41.015625
2254		35.156250
2255		39.062500
2256		35.156250
2257		41.015625
2258		35.156250
2259		41.015625
2260		35.156250
2261		41.015625
2262		35.156250
2263		41.015625
2264		35.156250
2265		41.015625
2266		35.156250
2267		41.015625
2268		35.156250
2269		41.015625
2270		37.109375
2271		39.062500
2272		37.109375
2273		39.062500
2274		35.156250
2275		41.015625
2276		33.203125
2277		41.015625
2278		33.203125
2279		41.015625
2280		33.203125
2281		39.062500
2282		31.250000
2283		39.062500
2284		31.250000
2285		39.062500
2286		33.203125
2287		37.109375
2288		33.203125
2289		35.156250
2290		29.296875
2291		37.109375
2292		29.296875
2293		35.156250
2294		27.343750
2295		35.156250
2296		27.343750
2297		33.203125
2298		25.390625
2299		33.203125
2300		25.390625
2301		31.250000
2302		25.390625
2303		31.250000
2304		25.390625
2305		27.343750
2306		23.437500
2307		27.343750
2308		19.531250
2309		27.343750
2310		17.578125
2311		25.390625
2312		17.578125
2313		25.390625
2314		17.578125
2315		23.437500
2316		13.671875
2317		23.437500
2318		13.671875
2319		21.484375
2320		15.625000
2321		17.578125
2322		13.671875
2323		15.625000
2324		9.765625
2325		17.578125
2326		7.812500
2327		15.625000
2328		7.812500
2329		13.671875
2330		5.859375
2331		13.671875
2332		3.906250
2333		11.718750
2334		1.953125
2335		9.765625
2336		1.953125
2337		7.812500
2338		1.953125
2339		5.859375
2340		-1.953125
2341		3.906250
2342		-3.906250
2343		3.906250
2344		-3.906250
2345		3.906250
2346		-5.859375
2347		1.953125
2348		-7.812500
2349		0.000000
2350		-7.812500
2351		-1.953125
2352		-9.765625
2353		-1.953125
2354		-7.812500
2355		-5.859375
2356		-9.765625
2357		-7.812500
2358		-13.671875
2359		-5.859375
2360		-13.671875
2361		-7.812500
2362		-15.625000
2363		-7.812500
2364		-15.625000
2365		-9.765625
2366		-17.578125
2367		-9.765625
2368		-17.578125
2369		-11.718750
2370		-17.578125
2371		-11.718750
2372		-17.578125
2373		-13.671875
2374		-19.531250
2375		-13.671875
2376		-21.484375
2377		-13.671875
2378		-21.484375
2379		-13.671875
2380		-21.484375
2381		-15.625000
2382		-23.437500
2383		-15.625000
2384		-21.484375
2385		-15.625000
2386		-23.437500
2387		-15.625000
2388		-19.531250
2389		-17.578125
2390		-21.484375
2391		-17.578125
2392		-21.484375
2393		-15.625000
2394		-23.437500
2395		-15.625000
2396		-23.437500
2397		-15.625000
2398		-21.484375
2399		-15.625000
2400		-21.484375
2401		-15.625000
2402		-21.484375
2403		-15.625000
2404		-19.531250
2405		-17.578125
2406		-19.531250
2407		-15.625000
2408		-19.531250
2409		-13.671875
2410		-19.531250
2411		-13.671875
2412		-19.531250
2413		-11.718750
2414		-17.578125
2415		-11.718750
2416		-17.578125
2417		-9.765625
2418		-17.578125
2419		-9.765625
2420		-15.625000
2421		-9.765625
2422		-11.718750
2423		-9.765625
2424		-13.671875
2425		-7.812500
2426		-13.671875
2427		-5.859375
2428		-11.718750
2429		-3.906250
2430		-9.765625
2431		-3.906250
2432		-9.765625
2433		-1.953125
2434		-7.812500
2435		0.000000
2436		-5.859375
2437		0.000000
2438		-3.906250
2439		0.000000
2440		-1.953125
2441		1.953125
2442		-1.953125
2443		3.906250
2444		-1.953125
2445		5.859375
2446		0.000000
2447		7.812500
2448		1.953125
2449		9.765625
2450		3.906250
2451		9.765625
2452		3.906250
2453		11.718750
2454		5.859375
2455		11.718750
2456		7.812500
2457		11.718750
2458		9.765625
2459		15.625000
2460		9.765625
2461		17.578125
2462		11.718750
2463		19.531250
2464		13.671875
2465		19.531250
2466		13.671875
2467		21.484375
2468		15.625000
2469		23.437500
2470		17.578125
2471		23.437500
2472		19.531250
2473		23.437500
2474		21.484375
2475		25.390625
2476		21.484375
2477		27.343750
2478		21.484375
2479		29.296875
2480		23.437500
2481		31.250000
2482		25.390625
2483		31.250000
2484		25.390625
2485		31.250000
2486		27.343750
2487		33.203125
2488		29.296875
2489		31.250000
2490		29.296875
2491		33.203125
2492		29.296875
2493		35.156250
2494		29.296875
2495		37.109375
2496		31.250000
2497		37.109375
2498		31.250000
2499		37.109375
2500		31.250000
2501		39.062500
2502		31.250000
2503		39.062500
2504		33.203125
2505		39.062500
2506		35.156250
2507		37.109375
2508		35.156250
2509		39.062500
2510		33.203125
2511		41.015625
2512		35.156250
2513		41.015625
2514		35.156250
2515		41.015625
2516		35.156250
2517		41.015625
2518		35.156250
2519		41.015625
2520		35.156250
2521		41.015625
2522		37.109375
2523		39.062500
2524		37.109375
2525		39.062500
2526		35.156250
2527		41.015625
2528		33.203125
2529		41.015625
2530		33.203125
2531		41.015625
2532		33.203125
2533		39.062500
2534		33.203125
2535		39.062500
2536		33.203125
2537		39.062500
2538		31.250000
2539		39.062500
2540		33.203125
2541		35.156250
2542		29.296875
2543		37.109375
2544		29.296875
2545		35.156250
2546		29.296875
2547		35.156250
2548		27.343750
2549		35.156250
2550		27.343750
2551		33.203125
2552		25.390625
2553		33.203125
2554		25.390625
2555		31.250000
2556		25.390625
2557		27.343750
2558		25.390625
2559		27.343750
2560		21.484375
2561		27.343750
2562		19.531250
2563		27.343750
2564		19.531250
2565		25.390625
2566		17.578125
2567		23.437500
2568		15.625000
2569		23.437500
2570		15.625000
2571		21.484375
2572		15.625000
2573		19.531250
2574		13.671875
2575		17.578125
2576		9.765625
2577		17.578125
2578		9.765625
2579		15.625000
2580		7.812500
2581		15.625000
2582		5.859375
2583		15.625000
2584		5.859375
2585		11.718750
2586		3.906250
2587		11.718750
2588		3.906250
2589		9.765625
2590		1.953125
2591		5.859375
2592		-1.953125
2593		5.859375
2594		-1.953125
2595		5.859375
2596		-3.906250
2597		3.906250
2598		-5.859375
2599		1.953125
2600		-5.859375
2601		1.953125
2602		-7.812500
2603		0.000000
2604		-7.812500
2605		-1.953125
2606		-7.812500
2607		-5.859375
2608		-9.765625
2609		-5.859375
2610		-11.718750
2611		-5.859375
2612		-13.671875
2613		-5.859375
2614		-15.625000
2615		-7.812500
2616		-15.625000
2617		-7.812500
2618		-15.625000
2619		-9.765625
2620		-17.578125
2621		-9.765625
2622		-17.578125
2623		-11.718750
2624		-17.578125
2625		-13.671875
2626		-19.531250
2627		-13.671875
2628		-21.484375
2629		-13.671875
2630		-21.484375
2631		-13.671875
2632		-21.484375
2633		-13.671875
2634		-21.484375
2635		-15.625000
2636		-21.484375
2637		-15.625000
2638		-21.484375
2639		-15.625000
2640		-19.531250
2641		-17.578125
2642		-21.484375
2643		-17.578125
2644		-23.437500
2645		-15.625000
2646		-23.437500
2647		-15.625000
2648		-23.437500
2649		-15.625000
2650		-23.437500
2651		-15.625000
2652		-21.484375
2653		-15.625000
2654		-21.484375
2655		-13.671875
2656		-21.484375
2657		-17.578125
2658		-19.531250
2659		-17.578125
2660		-21.484375
2661		-13.671875
2662		-19.531250
2663		-13.671875
2664		-19.531250
2665		-13.671875
2666		-19.531250
2667		-11.718750
2668		-17.578125
2669		-11.718750
2670		-17.578125
2671		-9.765625
2672		-17.578125
2673		-9.765625
2674		-13.671875
2675		-9.765625
2676		-11.718750
2677		-7.812500
2678		-13.671875
2679		-5.859375
2680		-11.718750
2681		-5.859375
2682		-11.718750
2683		-3.906250
2684		-9.765625
2685		-3.906250
2686		-9.765625
2687		-1.953125
2688		-7.812500
2689		0.000000
2690		-3.906250
2691		-1.953125
2692		-3.906250
2693		0.000000
2694		-3.906250
2695		3.906250
2696		-1.953125
2697		5.859375
2698		0.000000
2699		5.859375
2700		0.000000
2701		7.812500
2702		1.953125
2703		9.765625
2704		3.906250
2705		9.765625
2706		3.906250
2707		9.765625
2708		7.812500
2709		11.718750
2710		7.812500
2711		13.671875
2712		7.812500
2713		17.578125
2714		9.765625
2715		17.578125
2716		11.718750
2717		19.531250
2718		11.718750
2719		21.484375
2720		13.671875
2721		21.484375
2722		15.625000
2723		23.437500
2724		19.531250
2725		21.484375
2726		21.484375
2727		23.437500
2728		19.531250
2729		27.343750
2730		21.484375
2731		27.343750
2732		21.484375
2733		29.296875
2734		23.437500
2735		31.250000
2736		23.437500
2737		31.250000
2738		25.390625
2739		33.203125
2740		27.343750
2741		31.250000
2742		29.296875
2743		31.250000
2744		29.296875
2745		35.156250
2746		29.296875
2747		35.156250
2748		29.296875
2749		37.109375
2750		31.250000
2751		37.109375
2752		31.250000
2753		39.062500
2754		31.250000
2755		39.062500
2756		31.250000
2757		39.062500
2758		33.203125
2759		37.109375
2760		35.156250
2761		39.062500
2762		33.203125
2763		41.015625
2764		33.203125
2765		41.015625
2766		33.203125
2767		41.015625
2768		35.156250
2769		41.015625
2770		35.156250
2771		41.015625
2772		35.156250
2773		41.015625
2774		37.109375
2775		39.062500
2776		37.109375
2777		39.062500
2778		35.156250
2779		41.015625
2780		35.156250
2781		41.015625
2782		33.203125
2783		41.015625
2784		33.203125
2785		41.015625
2786		33.203125
2787		39.062500
2788		31.250000
2789		39.062500
2790		31.250000
2791		39.062500
2792		33.203125
2793		37.109375
2794		31.250000
2795		37.109375
2796		29.296875
2797		37.109375
2798		29.296875
2799		35.156250
2800		29.296875
2801		35.156250
2802		27.343750
2803		35.156250
2804		25.390625
2805		33.203125
2806		25.390625
2807		33.203125
2808		25.390625
2809		29.296875
2810		25.390625
2811		27.343750
2812		21.484375
2813		29.296875
2814		21.484375
2815		27.343750
2816		19.531250
2817		27.343750
2818		17.578125
2819		25.390625
2820		17.578125
2821		23.437500
2822		15.625000
2823		23.437500
2824		15.625000
2825		21.484375
2826		15.625000
2827		19.531250
2828		11.718750
2829		17.578125
2830		9.765625
2831		17.578125
2832		7.812500
2833		15.625000
2834		7.812500
2835		13.671875
2836		5.859375
2837		13.671875
2838		3.906250
2839		11.718750
2840		3.906250
2841		9.765625
2842		3.906250
2843		7.812500
2844		1.953125
2845		5.859375
2846		-1.953125
2847		5.859375
2848		-1.953125
2849		3.906250
2850		-3.906250
2851		1.953125
2852		-5.859375
2853		1.953125
2854		-5.859375
2855		0.000000
2856		-7.812500
2857		-1.953125
2858		-7.812500
2859		-3.906250
2860		-7.812500
2861		-3.906250
2862		-11.718750
2863		-5.859375
2864		-13.671875
2865		-5.859375
2866		-13.671875
2867		-7.812500
2868		-15.625000
2869		-7.812500
2870		-15.625000
2871		-7.812500
2872		-17.578125
2873		-9.765625
2874		-17.578125
2875		-11.718750
2876		-15.625000
2877		-13.671875
2878		-19.531250
2879		-13.671875
2880		-19.531250
2881		-13.671875
2882		-19.531250
2883		-13.671875
2884		-21.484375
2885		-13.671875
2886		-21.484375
2887		-15.625000
2888		-21.484375
2889		-15.625000
2890		-21.484375
2891		-15.625000
2892		-19.531250
2893		-17.578125
2894		-21.484375
2895		-17.578125
2896		-23.437500
2897		-17.578125
2898		-23.437500
2899		-15.625000
2900		-23.437500
2901		-17.578125
2902		-23.437500
2903		-17.578125
2904		-21.484375
2905		-17.578125
2906		-21.484375
2907		-15.625000
2908		-21.484375
2909		-15.625000
2910		-19.531250
2911		-17.578125
2912		-21.484375
2913		-15.625000
2914		-21.484375
2915		-13.671875
2916		-19.531250
2917		-13.671875
2918		-19.531250
2919		-13.671875
2920		-19.531250
2921		-11.718750
2922		-17.578125
2923		-11.718750
2924		-17.578125
2925		-9.765625
2926		-13.671875
2927		-11.718750
2928		-13.671875
2929		-9.765625
2930		-13.671875
2931		-7.812500
2932		-13.671875
2933		-7.812500
2934		-9.765625
2935		-7.812500
2936		-9.765625
2937		-3.906250
2938		-7.812500
2939		-3.906250
2940		-7.812500
2941		-1.953125
2942		-5.859375
2943		-1.953125
2944		-3.906250
2945		-1.953125
2946		-3.906250
2947		1.953125
2948		-1.953125
2949		3.906250
2950		0.000000
2951		3.906250
2952		1.953125
2953		3.906250
2954		1.953125
2955		7.812500
2956		3.906250
2957		9.765625
2958		5.859375
2959		9.765625
2960		7.812500
2961		9.765625
2962		7.812500
2963		11.718750
2964		9.765625
2965		13.671875
2966		11.718750
2967		15.625000
2968		13.671875
2969		15.625000
2970		13.671875
2971		17.578125
2972		15.625000
2973		19.531250
2974		15.625000
2975		21.484375
2976		17.578125
2977		21.484375
2978		19.531250
2979		23.437500
2980		19.531250
2981		25.390625
2982		21.484375
2983		25.390625
2984		21.484375
2985		27.343750
2986		23.437500
2987		27.343750
2988		25.390625
2989		29.296875
2990		27.343750
2991		29.296875
2992		25.390625
2993		31.250000
2994		27.343750
2995		31.250000
2996		29.296875
2997		33.203125
2998		29.296875
2999		33.203125
3000		31.250000
3001		35.156250
3002		31.250000
3003		35.156250
3004		33.203125
3005		35.156250
3006		33.203125
3007		37.109375
3008		33.203125
3009		37.109375
3010		35.156250
3011		37.109375
3012		35.156250
3013		37.109375
3014		35.156250
3015		39.062500
3016		35.156250
3017		39.062500
3018		35.156250
3019		39.062500
3020		37.109375
3021		39.062500
3022		35.156250
3023		39.062500
3024		37.109375
3025		39.062500
3026		37.109375
3027		39.062500
3028		37.109375
3029		39.062500
3030		35.156250
3031		39.062500
3032		35.156250
3033		39.062500
3034		35.156250
3035		39.062500
3036		37.109375
3037		39.062500
3038		35.156250
3039		39.062500
3040		35.156250
3041		39.062500
3042		35.156250
3043		37.109375
3044		33.203125
3045		37.109375
3046		31.250000
3047		35.156250
3048		31.250000
3049		35.156250
3050		31.250000
3051		35.156250
3052		31.250000
3053		33.203125
3054		29.296875
3055		33.203125
3056		29.296875
3057		33.203125
3058		27.343750
3059		31.250000
3060		27.343750
3061		29.296875
3062		25.390625
3063		29.296875
3064		23.437500
3065		29.296875
3066		23.437500
3067		27.343750
3068		21.484375
3069		25.390625
3070		21.484375
3071		25.390625
3072		17.578125
3073		23.437500
3074		17.578125
3075		21.484375
3076		17.578125
3077		21.484375
3078		15.625000
3079		19.531250
3080		13.671875
3081		17.578125
3082		13.671875
3083		15.625000
3084		11.718750
3085		15.625000
3086		9.765625
3087		13.671875
3088		9.765625
3089		11.718750
3090		5.859375
3091		11.718750
3092		5.859375
3093		9.765625
3094		3.906250
3095		7.812500
3096		1.953125
3097		7.812500
3098		1.953125
3099		5.859375
3100		0.000000
3101		3.906250
3102		0.000000
3103		1.953125
3104		-1.953125
3105		0.000000
3106		-3.906250
3107		0.000000
3108		-5.859375
3109		-1.953125
3110		-5.859375
3111		-1.953125
3112		-7.812500
3113		-3.906250
3114		-9.765625
3115		-3.906250
3116		-9.765625
3117		-5.859375
3118		-11.718750
3119		-7.812500
3120		-11.718750
3121		-9.765625
3122		-13.671875
3123		-9.765625
3124		-13.671875
3125		-11.718750
3126		-15.625000
3127		-11.718750
3128		-15.625000
3129		-13.671875
3130		-17.578125
3131		-13.671875
3132		-17.578125
3133		-13.671875
3134		-17.578125
3135		-15.625000
3136		-19.531250
3137		-15.625000
3138		-19.531250
3139		-15.625000
3140		-19.531250
3141		-15.625000
3142		-21.484375
3143		-17.578125
3144		-19.531250
3145		-17.578125
3146		-19.531250
3147		-17.578125
3148		-21.484375
3149		-15.625000
3150		-21.484375
3151		-17.578125
3152		-21.484375
3153		-17.578125
3154		-21.484375
3155		-17.578125
3156		-21.484375
3157		-17.578125
3158		-21.484375
3159		-17.578125
3160		-21.484375
3161		-17.578125
3162		-19.531250
3163		-17.578125
3164		-21.484375
3165		-15.625000
3166		-19.531250
3167		-17.578125
3168		-19.531250
3169		-15.625000
3170		-17.578125
3171		-15.625000
3172		-17.578125
3173		-13.671875
3174		-17.578125
3175		-13.671875
3176		-15.625000
3177		-13.671875
3178		-15.625000
3179		-11.718750
3180		-13.671875
3181		-9.765625
3182		-13.671875
3183		-9.765625
3184		-11.718750
3185		-9.765625
3186		-11.718750
3187		-7.812500
3188		-9.765625
3189		-5.859375
3190		-9.765625
3191		-5.859375
3192		-7.812500
3193		-3.906250
3194		-5.859375
3195		-3.906250
3196		-3.906250
3197		-1.953125
3198		-5.859375
3199		0.000000
3200		-1.953125
3201		1.953125
3202		-1.953125
3203		1.953125
3204		0.000000
3205		3.906250
3206		1.953125
3207		5.859375
3208		1.953125
3209		5.859375
3210		3.906250
3211		7.812500
3212		5.859375
3213		9.765625
3214		7.812500
3215		11.718750
3216		7.812500
3217		11.718750
3218		9.765625
3219		13.671875
3220		11.718750
3221		15.625000
3222		13.671875
3223		15.625000
3224		13.671875
3225		17.578125
3226		15.625000
3227		19.531250
3228		17.578125
3229		19.531250
3230		19.531250
3231		21.484375
3232		19.531250
3233		23.437500
3234		21.484375
3235		23.437500
3236		21.484375
3237		25.390625
3238		23.437500
3239		27.343750
3240		23.437500
3241		27.343750
3242		25.390625
3243		29.296875
3244		25.390625
3245		29.296875
3246		27.343750
3247		31.250000
3248		27.343750
3249		33.203125
3250		29.296875
3251		33.203125
3252		31.250000
3253		33.203125
3254		31.250000
3255		33.203125
3256		31.250000
3257		35.156250
3258		33.203125
3259		35.156250
3260		33.203125
3261		37.109375
3262		35.156250
3263		37.109375
3264		35.156250
3265		37.109375
3266		35.156250
3267		39.062500
3268		35.156250
3269		39.062500
3270		35.156250
3271		39.062500
3272		35.156250
3273		39.062500
3274		37.109375
3275		39.062500
3276		37.109375
3277		39.062500
3278		35.156250
3279		39.062500
3280		37.109375
3281		39.062500
3282		35.156250
3283		39.062500
3284		37.109375
3285		39.062500
3286		35.156250
3287		39.062500
3288		35.156250
3289		39.062500
3290		35.156250
3291		39.062500
3292		35.156250
3293		39.062500
3294		33.203125
3295		37.109375
3296		35.156250
3297		37.109375
3298		33.203125
3299		37.109375
3300		33.203125
3301		35.156250
3302		33.203125
3303		35.156250
3304		31.250000
3305		35.156250
3306		31.250000
3307		33.203125
3308		29.296875
3309		33.203125
3310		27.343750
3311		33.203125
3312		27.343750
3313		31.250000
3314		27.343750
3315		29.296875
3316		25.390625
3317		29.296875
3318		23.437500
3319		27.343750
3320		23.437500
3321		27.343750
3322		21.484375
3323		25.390625
3324		21.484375
3325		25.390625
3326		19.531250
3327		23.437500
3328		17.578125
3329		23.437500
3330		17.578125
3331		19.531250
3332		13.671875
3333		19.531250
3334		13.671875
3335		17.578125
3336		11.718750
3337		17.578125
3338		11.718750
3339		15.625000
3340		9.765625
3341		13.671875
3342		7.812500
3343		11.718750
3344		5.859375
3345		11.718750
3346		5.859375
3347		9.765625
3348		3.906250
3349		7.812500
3350		1.953125
3351		5.859375
3352		1.953125
3353		5.859375
3354		0.000000
3355		3.906250
3356		-1.953125
3357		1.953125
3358		-1.953125
3359		0.000000
3360		-3.906250
3361		0.000000
3362		-5.859375
3363		-1.953125
3364		-5.859375
3365		-3.906250
3366		-7.812500
3367		-5.859375
3368		-9.765625
3369		-5.859375
3370		-9.765625
3371		-7.812500
3372		-11.718750
3373		-7.812500
3374		-13.671875
3375		-9.765625
3376		-13.671875
3377		-9.765625
3378		-13.671875
3379		-11.718750
3380		-15.625000
3381		-11.718750
3382		-17.578125
3383		-13.671875
3384		-17.578125
3385		-13.671875
3386		-17.578125
3387		-15.625000
3388		-17.578125
3389		-15.625000
3390		-19.531250
3391		-15.625000
3392		-19.531250
3393		-15.625000
3394		-19.531250
3395		-17.578125
3396		-19.531250
3397		-17.578125
3398		-21.484375
3399		-17.578125
3400		-21.484375
3401		-17.578125
3402		-21.484375
3403		-17.578125
3404		-21.484375
3405		-19.531250
3406		-21.484375
3407		-17.578125
3408		-21.484375
3409		-19.531250
3410		-21.484375
3411		-17.578125
3412		-21.484375
3413		-17.578125
3414		-21.484375
3415		-17.578125
3416		-19.531250
3417		-15.625000
3418		-19.531250
3419		-15.625000
3420		-19.531250
3421		-15.625000
3422		-17.578125
3423		-15.625000
3424		-17.578125
3425		-15.625000
3426		-17.578125
3427		-13.671875
3428		-17.578125
3429		-13.671875
3430		-15.625000
3431		-13.671875
3432		-13.671875
3433		-11.718750
3434		-13.671875
3435		-11.718750
3436		-13.671875
3437		-9.765625
3438		-11.718750
3439		-7.812500
3440		-9.765625
3441		-7.812500
3442		-9.765625
3443		-5.859375
3444		-9.765625
3445		-3.906250
3446		-7.812500
3447		-3.906250
3448		-5.859375
3449		-3.906250
3450		-3.906250
3451		-1.953125
3452		-3.906250
3453		0.000000
3454		-1.953125
3455		1.953125
3456		0.000000
3457		3.906250
3458		0.000000
3459		3.906250
3460		1.953125
3461		5.859375
3462		3.906250
3463		7.812500
3464		5.859375
3465		7.812500
3466		5.859375
3467		9.765625
3468		7.812500
3469		11.718750
3470		9.765625
3471		11.718750
3472		9.765625
3473		13.671875
3474		11.718750
3475		15.625000
3476		13.671875
3477		17.578125
3478		15.625000
3479		17.578125
3480		15.625000
3481		19.531250
3482		17.578125
3483		19.531250
3484		19.531250
3485		23.437500
3486		19.531250
3487		23.437500
3488		21.484375
3489		25.390625
3490		21.484375
3491		25.390625
3492		23.437500
3493		27.343750
3494		25.390625
3495		27.343750
3496		25.390625
3497		29.296875
3498		27.343750
3499		29.296875
3500		27.343750
3501		31.250000
3502		29.296875
3503		31.250000
3504		29.296875
3505		33.203125
3506		31.250000
3507		33.203125
3508		31.250000
3509		35.156250
3510		33.203125
3511		35.156250
3512		33.203125
3513		37.109375
3514		33.203125
3515		37.109375
3516		35.156250
3517		37.109375
3518		35.156250
3519		37.109375
3520		35.156250
3521		39.062500
3522		35.156250
3523		39.062500
3524		35.156250
3525		39.062500
3526		35.156250
3527		39.062500
3528		37.109375
3529		39.062500
3530		35.156250
3531		39.062500
3532		35.156250
3533		39.062500
3534		35.156250
3535		39.062500
3536		37.109375
3537		39.062500
3538		37.109375
3539		39.062500
3540		35.156250
3541		39.062500
3542		35.156250
3543		39.062500
3544		35.156250
3545		39.062500
3546		35.156250
3547		37.109375
3548		35.156250
3549		37.109375
3550		33.203125
3551		37.109375
3552		33.203125
3553		37.109375
3554		33.203125
3555		37.109375
3556		31.250000
3557		35.156250
3558		31.250000
3559		33.203125
3560		29.296875
3561		33.203125
3562		27.343750
3563		33.203125
3564		29.296875
3565		31.250000
3566		27.343750
3567		31.250000
3568		25.390625
3569		29.296875
3570		25.390625
3571		29.296875
3572		23.437500
3573		27.343750
3574		23.437500
3575		27.343750
3576		21.484375
3577		25.390625
3578		21.484375
3579		23.437500
3580		19.531250
3581		23.437500
3582		17.578125
3583		21.484375
3584		15.625000
3585		19.531250
3586		15.625000
3587		19.531250
3588		13.671875
3589		17.578125
3590		13.671875
3591		15.625000
3592		11.718750
3593		13.671875
3594		9.765625
3595		13.671875
3596		7.812500
3597		11.718750
3598		7.812500
3599		9.765625
3600		5.859375
3601		7.812500
3602		3.906250
3603		7.812500
3604		1.953125
3605		5.859375
3606		0.000000
3607		5.859375
3608		0.000000
3609		3.906250
3610		-1.953125
3611		1.953125
3612		-3.906250
3613		0.000000
3614		-3.906250
3615		0.000000
3616		-5.859375
3617		-1.953125
3618		-7.812500
3619		-1.953125
3620		-7.812500
3621		-3.906250
3622		-9.765625
3623		-5.859375
3624		-11.718750
3625		-7.812500
3626		-11.718750
3627		-7.812500
3628		-13.671875
3629		-7.812500
3630		-13.671875
3631		-9.765625
3632		-13.671875
3633		-11.718750
3634		-15.625000
3635		-13.671875
3636		-15.625000
3637		-13.671875
3638		-17.578125
3639		-13.671875
3640		-17.578125
3641		-13.671875
3642		-19.531250
3643		-15.625000
3644		-19.531250
3645		-15.625000
3646		-19.531250
3647		-15.625000
3648		-19.531250
3649		-17.578125
3650		-19.531250
3651		-17.578125
3652		-21.484375
3653		-17.578125
3654		-21.484375
3655		-17.578125
3656		-21.484375
3657		-17.578125
3658		-21.484375
3659		-17.578125
3660		-21.484375
3661		-17.578125
3662		-21.484375
3663		-17.578125
3664		-21.484375
3665		-17.578125
3666		-19.531250
3667		-17.578125
3668		-21.484375
3669		-17.578125
3670		-19.531250
3671		-17.578125
3672		-19.531250
3673		-15.625000
3674		-19.531250
3675		-15.625000
3676		-17.578125
3677		-15.625000
3678		-17.578125
3679		-13.671875
3680		-17.578125
3681		-13.671875
3682		-15.625000
3683		-13.671875
3684		-15.625000
3685		-11.718750
3686		-15.625000
3687		-11.718750
3688		-13.671875
3689		-9.765625
3690		-13.671875
3691		-9.765625
3692		-11.718750
3693		-7.812500
3694		-9.765625
3695		-7.812500
3696		-9.765625
3697		-5.859375
3698		-9.765625
3699		-3.906250
3700		-5.859375
3701		-3.906250
3702		-5.859375
3703		-1.953125
3704		-3.906250
3705		0.000000
3706		-3.906250
3707		0.000000
3708		-1.953125
3709		1.953125
3710		0.000000
3711		1.953125
3712		1.953125
3713		3.906250
3714		1.953125
3715		5.859375
3716		3.906250
3717		7.812500
3718		5.859375
3719		7.812500
3720		5.859375
3721		9.765625
3722		7.812500
3723		11.718750
3724		9.765625
3725		13.671875
3726		11.718750
3727		15.625000
3728		11.718750
3729		15.625000
3730		13.671875
3731		19.531250
3732		15.625000
3733		17.578125
3734		17.578125
3735		19.531250
3736		17.578125
3737		21.484375
3738		19.531250
3739		23.437500
3740		19.531250
3741		23.437500
3742		21.484375
3743		25.390625
3744		23.437500
3745		25.390625
3746		23.437500
3747		27.343750
3748		25.390625
3749		29.296875
3750		27.343750
3751		29.296875
3752		27.343750
3753		31.250000
3754		27.343750
3755		33.203125
3756		29.296875
3757		33.203125
3758		29.296875
3759		33.203125
3760		31.250000
3761		35.156250
3762		31.250000
3763		35.156250
3764		31.250000
3765		35.156250
3766		33.203125
3767		35.156250
3768		33.203125
3769		37.109375
3770		35.156250
3771		37.109375
3772		35.156250
3773		39.062500
3774		35.156250
3775		39.062500
3776		35.156250
3777		39.062500
3778		35.156250
3779		39.062500
3780		35.156250
3781		39.062500
3782		35.156250
3783		39.062500
3784		37.109375
3785		39.062500
3786		35.156250
3787		39.062500
3788		37.109375
3789		39.062500
3790		37.109375
3791		39.062500
3792		37.109375
3793		39.062500
3794		35.156250
3795		39.062500
3796		35.156250
3797		39.062500
3798		35.156250
3799		39.062500
3800		35.156250
3801		37.109375
3802		35.156250
3803		37.109375
3804		33.203125
3805		37.109375
3806		33.203125
3807		37.109375
3808		33.203125
3809		35.156250
3810		31.250000
3811		35.156250
3812		31.250000
3813		33.203125
3814		29.296875
3815		33.203125
3816		29.296875
3817		33.203125
3818		29.296875
3819		31.250000
3820		27.343750
3821		31.250000
3822		25.390625
3823		29.296875
3824		25.390625
3825		29.296875
3826		23.437500
3827		27.343750
3828		23.437500
3829		27.343750
3830		21.484375
3831		25.390625
3832		19.531250
3833		23.437500
3834		19.531250
3835		21.484375
3836		17.578125
3837		21.484375
3838		15.625000
3839		19.531250
3840		15.625000
3841		17.578125
3842		13.671875
3843		17.578125
3844		11.718750
3845		15.625000
3846		9.765625
3847		13.671875
3848		7.812500
3849		11.718750
3850		7.812500
3851		11.718750
3852		5.859375
3853		9.765625
3854		3.906250
3855		7.812500
3856		3.906250
3857		7.812500
3858		1.953125
3859		5.859375
3860		0.000000
3861		3.906250
3862		0.000000
3863		3.906250
3864		-1.953125
3865		1.953125
3866		-3.906250
3867		0.000000
3868		-3.906250
3869		-1.953125
3870		-7.812500
3871		-3.906250
3872		-7.812500
3873		-3.906250
3874		-7.812500
3875		-5.859375
3876		-9.765625
3877		-5.859375
3878		-11.718750
3879		-7.812500
3880		-11.718750
3881		-9.765625
3882		-13.671875
3883		-9.765625
3884		-13.671875
3885		-11.718750
3886		-15.625000
3887		-11.718750
3888		-15.625000
3889		-11.718750
3890		-17.578125
3891		-13.671875
3892		-17.578125
3893		-13.671875
3894		-17.578125
3895		-15.625000
3896		-19.531250
3897		-15.625000
3898		-19.531250
3899		-17.578125
3900		-19.531250
3901		-17.578125
3902		-19.531250
3903		-17.578125
3904		-21.484375
3905		-17.578125
3906		-21.484375
3907		-17.578125
3908		-21.484375
3909		-17.578125
3910		-21.484375
3911		-17.578125
3912		-21.484375
3913		-17.578125
3914		-21.484375
3915		-17.578125
3916		-21.484375
3917		-17.578125
3918		-21.484375
3919		-17.578125
3920		-21.484375
3921		-17.578125
3922		-21.484375
3923		-17.578125
3924		-19.531250
3925		-17.578125
3926		-19.531250
3927		-15.625000
3928		-19.531250
3929		-15.625000
3930		-19.531250
3931		-15.625000
3932		-17.578125
3933		-13.671875
3934		-15.625000
3935		-13.671875
3936		-15.625000
3937		-13.671875
3938		-15.625000
3939		-11.718750
3940		-13.671875
3941		-11.718750
3942		-13.671875
3943		-9.765625
3944		-11.718750
3945		-9.765625
3946		-11.718750
3947		-7.812500
3948		-9.765625
3949		-5.859375
3950		-9.765625
3951		-5.859375
3952		-7.812500
3953		-3.906250
3954		-5.859375
3955		-1.953125
3956		-5.859375
3957		-1.953125
3958		-3.906250
3959		0.000000
3960		-1.953125
3961		0.000000
3962		-1.953125
3963		1.953125
3964		0.000000
3965		3.906250
3966		1.953125
3967		3.906250
3968		3.906250
3969		5.859375
3970		3.906250
3971		7.812500
3972		5.859375
3973		9.765625
3974		5.859375
3975		11.718750
3976		7.812500
3977		11.718750
3978		9.765625
3979		13.671875
3980		11.718750
3981		13.671875
3982		11.718750
3983		17.578125
3984		13.671875
3985		17.578125
3986		15.625000
3987		19.531250
3988		15.625000
3989		21.484375
3990		17.578125
3991		21.484375
3992		19.531250
3993		23.437500
3994		21.484375
3995		25.390625
3996		21.484375
3997		25.390625
3998		23.437500
3999		27.343750
4000		23.437500
4001		27.343750
4002		25.390625
4003		29.296875
4004		25.390625
4005		31.250000
4006		27.343750
4007		31.250000
4008		27.343750
4009		31.250000
4010		29.296875
4011		33.203125
4012		31.250000
4013		33.203125
4014		31.250000
4015		35.156250
4016		33.203125
4017		35.156250
4018		33.203125
4019		35.156250
4020		33.203125
4021		37.109375
4022		33.203125
4023		37.109375
4024		35.156250
4025		39.062500
4026		35.156250
4027		39.062500
4028		35.156250
4029		39.062500
4030		35.156250
4031		39.062500
4032		35.156250
4033		39.062500
4034		35.156250
4035		41.015625
4036		37.109375
4037		39.062500
4038		37.109375
4039		39.062500
4040		37.109375
4041		39.062500
4042		37.109375
4043		39.062500
4044		37.109375
4045		39.062500
4046		35.156250
4047		39.062500
4048		35.156250
4049		39.062500
4050		35.156250
4051		39.062500
4052		35.156250
4053		37.109375
4054		35.156250
4055		37.109375
4056		33.203125
4057		37.109375
4058		33.203125
4059		37.109375
4060		33.203125
4061		35.156250
4062		31.250000
4063		35.156250
4064		31.250000
4065		35.156250
4066		31.250000
4067		35.156250
4068		29.296875
4069		33.203125
4070		29.296875
4071		31.250000
4072		27.343750
4073		31.250000
4074		27.343750
4075		29.296875
4076		25.390625
4077		29.296875
4078		23.437500
4079		29.296875
4080		23.437500
4081		27.343750
4082		23.437500
4083		25.390625
4084		21.484375
4085		25.390625
4086		19.531250
4087		23.437500
4088		17.578125
4089		21.484375
4090		17.578125
4091		21.484375
4092		15.625000
4093		19.531250
4094		13.671875
4095		17.578125
4096		13.671875
4097		17.578125
4098		11.718750
4099		15.625000
4100		9.765625
4101		13.671875
4102		9.765625
4103		11.718750
4104		7.812500
4105		9.765625
4106		5.859375
4107		9.765625
4108		3.906250
4109		7.812500
4110		3.906250
4111		7.812500
4112		1.953125
4113		5.859375
4114		0.000000
4115		3.906250
4116		0.000000
4117		1.953125
4118		-1.953125
4119		1.953125
4120		-3.906250
4121		0.000000
4122		-5.859375
4123		-1.953125
4124		-5.859375
4125		-1.953125
4126		-7.812500
4127		-3.906250
4128		-7.812500
4129		-5.859375
4130		-9.765625
4131		-5.859375
4132		-11.718750
4133		-7.812500
4134		-11.718750
4135		-7.812500
4136		-13.671875
4137		-9.765625
4138		-13.671875
4139		-11.718750
4140		-15.625000
4141		-11.718750
4142		-15.625000
4143		-13.671875
4144		-17.578125
4145		-13.671875
4146		-17.578125
4147		-13.671875
4148		-17.578125
4149		-15.625000
4150		-19.531250
4151		-15.625000
4152		-19.531250
4153		-15.625000
4154		-19.531250
4155		-17.578125
4156		-21.484375
4157		-17.578125
4158		-21.484375
4159		-17.578125
4160		-21.484375
4161		-17.578125
4162		-21.484375
4163		-17.578125
4164		-21.484375
4165		-17.578125
4166		-21.484375
4167		-17.578125
4168		-21.484375
4169		-17.578125
4170		-19.531250
4171		-17.578125
4172		-21.484375
4173		-17.578125
4174		-21.484375
4175		-17.578125
4176		-19.531250
4177		-17.578125
4178		-19.531250
4179		-15.625000
4180		-19.531250
4181		-15.625000
4182		-17.578125
4183		-15.625000
4184		-19.531250
4185		-13.671875
4186		-17.578125
4187		-13.671875
4188		-15.625000
4189		-13.671875
4190		-15.625000
4191		-11.718750
4192		-15.625000
4193		-11.718750
4194		-15.625000
4195		-9.765625
4196		-13.671875
4197		-9.765625
4198		-11.718750
4199		-7.812500
4200		-11.718750
4201		-7.812500
4202		-9.765625
4203		-5.859375
4204		-7.812500
4205		-5.859375
4206		-7.812500
4207		-3.906250
4208		-5.859375
4209		-1.953125
4210		-3.906250
4211		-1.953125
4212		-3.906250
4213		0.000000
4214		-1.953125
4215		1.953125
4216		0.000000
4217		1.953125
4218		0.000000
4219		3.906250
4220		1.953125
4221		5.859375
4222		3.906250
4223		5.859375
4224		3.906250
4225		7.812500
4226		5.859375
4227		9.765625
4228		7.812500
4229		11.718750
4230		9.765625
4231		11.718750
4232		9.765625
4233		13.671875
4234		11.718750
4235		15.625000
4236		11.718750
4237		15.625000
4238		15.625000
4239		17.578125
4240		15.625000
4241		19.531250
4242		17.578125
4243		21.484375
4244		19.531250
4245		21.484375
4246		19.531250
4247		23.437500
4248		21.484375
4249		23.437500
4250		21.484375
4251		25.390625
4252		23.437500
4253		27.343750
4254		25.390625
4255		27.343750
4256		25.390625
4257		29.296875
4258		27.343750
4259		29.296875
4260		27.343750
4261		31.250000
4262		29.296875
4263		31.250000
4264		29.296875
4265		33.203125
4266		31.250000
4267		33.203125
4268		31.250000
4269		35.156250
4270		33.203125
4271		35.156250
4272		33.203125
4273		35.156250
4274		33.203125
4275		37.109375
4276		33.203125
4277		37.109375
4278		35.156250
4279		37.109375
4280		35.156250
4281		39.062500
4282		35.156250
4283		39.062500
4284		35.156250
4285		39.062500
4286		37.109375
4287		39.062500
4288		37.109375
4289		39.062500
4290		35.156250
4291		41.015625
4292		37.109375
4293		39.062500
4294		37.109375
4295		39.062500
4296		35.156250
4297		39.062500
4298		35.156250
4299		39.062500
4300		35.156250
4301		39.062500
4302		35.156250
4303		39.062500
4304		35.156250
4305		39.062500
4306		35.156250
4307		37.109375
4308		33.203125
4309		37.109375
4310		33.203125
4311		37.109375
4312		33.203125
4313		37.109375
4314		33.203125
4315		35.156250
4316		31.250000
4317		35.156250
4318		31.250000
4319		35.156250
4320		29.296875
4321		35.156250
4322		29.296875
4323		33.203125
4324		29.296875
4325		33.203125
4326		27.343750
4327		31.250000
4328		27.343750
4329		29.296875
4330		25.390625
4331		29.296875
4332		23.437500
4333		27.343750
4334		23.437500
4335		27.343750
4336		21.484375
4337		25.390625
4338		19.531250
4339		23.437500
4340		19.531250
4341		23.437500
4342		17.578125
4343		21.484375
4344		17.578125
4345		21.484375
4346		15.625000
4347		19.531250
4348		13.671875
4349		17.578125
4350		11.718750
4351		15.625000
4352		11.718750
4353		15.625000
4354		9.765625
4355		13.671875
4356		7.812500
4357		11.718750
4358		5.859375
4359		9.765625
4360		5.859375
4361		9.765625
4362		3.906250
4363		7.812500
4364		1.953125
4365		5.859375
4366		0.000000
4367		5.859375
4368		0.000000
4369		3.906250
4370		-1.953125
4371		1.953125
4372		-1.953125
4373		0.000000
4374		-5.859375
4375		-1.953125
4376		-5.859375
4377		-1.953125
4378		-7.812500
4379		-3.906250
4380		-7.812500
4381		-3.906250
4382		-9.765625
4383		-5.859375
4384		-9.765625
4385		-5.859375
4386		-13.671875
4387		-7.812500
4388		-11.718750
4389		-9.765625
4390		-13.671875
4391		-9.765625
4392		-15.625000
4393		-11.718750
4394		-15.625000
4395		-11.718750
4396		-15.625000
4397		-13.671875
4398		-17.578125
4399		-13.671875
4400		-17.578125
4401		-13.671875
4402		-17.578125
4403		-15.625000
4404		-19.531250
4405		-15.625000
4406		-19.531250
4407		-17.578125
4408		-21.484375
4409		-17.578125
4410		-21.484375
4411		-17.578125
4412		-21.484375
4413		-17.578125
4414		-21.484375
4415		-17.578125
4416		-21.484375
4417		-17.578125
4418		-21.484375
4419		-17.578125
4420		-21.484375
4421		-17.578125
4422		-21.484375
4423		-17.578125
4424		-21.484375
4425		-17.578125
4426		-21.484375
4427		-17.578125
4428		-21.484375
4429		-17.578125
4430		-19.531250
4431		-17.578125
4432		-19.531250
4433		-17.578125
4434		-19.531250
4435		-15.625000
4436		-19.531250
4437		-15.625000
4438		-17.578125
4439		-15.625000
4440		-17.578125
4441		-13.671875
4442		-15.625000
4443		-13.671875
4444		-15.625000
4445		-11.718750
4446		-15.625000
4447		-11.718750
4448		-13.671875
4449		-9.765625
4450		-13.671875
4451		-9.765625
4452		-11.718750
4453		-7.812500
4454		-11.718750
4455		-7.812500
4456		-9.765625
4457		-5.859375
4458		-7.812500
4459		-3.906250
4460		-7.812500
4461		-3.906250
4462		-5.859375
4463		-1.953125
4464		-5.859375
4465		0.000000
4466		-3.906250
4467		0.000000
4468		-1.953125
4469		1.953125
4470		0.000000
4471		3.906250
4472		1.953125
4473		3.906250
4474		1.953125
4475		5.859375
4476		3.906250
4477		7.812500
4478		5.859375
4479		7.812500
4480		5.859375
4481		9.765625
4482		7.812500
4483		11.718750
4484		9.765625
4485		13.671875
4486		9.765625
4487		13.671875
4488		11.718750
4489		15.625000
4490		13.671875
4491		17.578125
4492		13.671875
4493		19.531250
4494		15.625000
4495		19.531250
4496		17.578125
4497		21.484375
4498		17.578125
4499		23.437500
4500		19.531250
4501		23.437500
4502		21.484375
4503		25.390625
4504		21.484375
4505		25.390625
4506		23.437500
4507		27.343750
4508		25.390625
4509		27.343750
4510		25.390625
4511		29.296875
4512		27.343750
4513		31.250000
4514		29.296875
4515		31.250000
4516		29.296875
4517		33.203125
4518		29.296875
4519		33.203125
4520		31.250000
4521		33.203125
4522		31.250000
4523		35.156250
4524		33.203125
4525		35.156250
4526		33.203125
4527		37.109375
4528		33.203125
4529		37.109375
4530		33.203125
4531		37.109375
4532		35.156250
4533		37.109375
4534		35.156250
4535		39.062500
4536		35.156250
4537		39.062500
4538		35.156250
4539		39.062500
4540		37.109375
4541		39.062500
4542		37.109375
4543		39.062500
4544		35.156250
4545		39.062500
4546		37.109375
4547		39.062500
4548		37.109375
4549		39.062500
4550		37.109375
4551		39.062500
4552		35.156250
4553		39.062500
4554		35.156250
4555		39.062500
4556		37.109375
4557		39.062500
4558		35.156250
4559		39.062500
4560		35.156250
4561		39.062500
4562		35.156250
4563		37.109375
4564		33.203125
4565		37.109375
4566		33.203125
4567		37.109375
4568		33.203125
4569		35.156250
4570		31.250000
4571		35.156250
4572		31.250000
4573		35.156250
4574		31.250000
4575		33.203125
4576		29.296875
4577		33.203125
4578		27.343750
4579		31.250000
4580		27.343750
4581		31.250000
4582		25.390625
4583		29.296875
4584		25.390625
4585		29.296875
4586		23.437500
4587		27.343750
4588		23.437500
4589		27.343750
4590		21.484375
4591		25.390625
4592		19.531250
4593		23.437500
4594		19.531250
4595		23.437500
4596		17.578125
4597		21.484375
4598		15.625000
4599		19.531250
4600		15.625000
4601		19.531250
4602		13.671875
4603		17.578125
4604		11.718750
4605		15.625000
4606		11.718750
4607		15.625000
4608		9.765625
4609		13.671875
4610		7.812500
4611		11.718750
4612		5.859375
4613		9.765625
4614		5.859375
4615		9.765625
4616		3.906250
4617		7.812500
4618		1.953125
4619		5.859375
4620		1.953125
4621		3.906250
4622		0.000000
4623		3.906250
4624		-1.953125
4625		1.953125
4626		-3.906250
4627		0.000000
4628		-3.906250
4629		-1.953125
4630		-5.859375
4631		-1.953125
4632		-7.812500
4633		-3.906250
4634		-7.812500
4635		-3.906250
4636		-9.765625
4637		-5.859375
4638		-11.718750
4639		-7.812500
4640		-11.718750
4641		-7.812500
4642		-11.718750
4643		-9.765625
4644		-15.625000
4645		-9.765625
4646		-15.625000
4647		-11.718750
4648		-15.625000
4649		-11.718750
4650		-17.578125
4651		-13.671875
4652		-17.578125
4653		-13.671875
4654		-17.578125
4655		-13.671875
4656		-19.531250
4657		-15.625000
4658		-19.531250
4659		-15.625000
4660		-19.531250
4661		-15.625000
4662		-19.531250
4663		-17.578125
4664		-21.484375
4665		-17.578125
4666		-19.531250
4667		-17.578125
4668		-21.484375
4669		-17.578125
4670		-21.484375
4671		-17.578125
4672		-21.484375
4673		-17.578125
4674		-21.484375
4675		-17.578125
4676		-21.484375
4677		-17.578125
4678		-21.484375
4679		-17.578125
4680		-21.484375
4681		-17.578125
4682		-19.531250
4683		-17.578125
4684		-19.531250
4685		-17.578125
4686		-19.531250
4687		-15.625000
4688		-19.531250
4689		-15.625000
4690		-19.531250
4691		-15.625000
4692		-17.578125
4693		-15.625000
4694		-17.578125
4695		-13.671875
4696		-15.625000
4697		-11.718750
4698		-15.625000
4699		-11.718750
4700		-15.625000
4701		-11.718750
4702		-13.671875
4703		-9.765625
4704		-11.718750
4705		-9.765625
4706		-11.718750
4707		-7.812500
4708		-11.718750
4709		-7.812500
4710		-9.765625
4711		-5.859375
4712		-7.812500
4713		-3.906250
4714		-5.859375
4715		-3.906250
4716		-5.859375
4717		-1.953125
4718		-3.906250
4719		0.000000
4720		-3.906250
4721		0.000000
4722		-1.953125
4723		1.953125
4724		0.000000
4725		3.906250
4726		1.953125
4727		3.906250
4728		1.953125
4729		5.859375
4730		3.906250
4731		7.812500
4732		5.859375
4733		9.765625
4734		7.812500
4735		9.765625
4736		7.812500
4737		11.718750
4738		9.765625
4739		13.671875
4740		9.765625
4741		15.625000
4742		11.718750
4743		15.625000
4744		13.671875
4745		17.578125
4746		15.625000
4747		19.531250
4748		17.578125
4749		21.484375
4750		17.578125
4751		21.484375
4752		19.531250
4753		23.437500
4754		21.484375
4755		23.437500
4756		21.484375
4757		25.390625
4758		23.437500
4759		25.390625
4760		25.390625
4761		27.343750
4762		25.390625
4763		29.296875
4764		25.390625
4765		29.296875
4766		27.343750
4767		31.250000
4768		29.296875
4769		31.250000
4770		29.296875
4771		33.203125
4772		31.250000
4773		33.203125
4774		31.250000
4775		33.203125
4776		31.250000
4777		35.156250
4778		31.250000
4779		37.109375
4780		33.203125
4781		37.109375
4782		33.203125
4783		37.109375
4784		35.156250
4785		39.062500
4786		35.156250
4787		37.109375
4788		35.156250
4789		39.062500
4790		35.156250
4791		39.062500
4792		37.109375
4793		39.062500
4794		35.156250
4795		39.062500
4796		37.109375
4797		39.062500
4798		37.109375
4799		39.062500
4800		37.109375
4801		39.062500
4802		37.109375
4803		39.062500
4804		37.109375
4805		39.062500
4806		35.156250
4807		39.062500
4808		37.109375
4809		39.062500
4810		35.156250
4811		39.062500
4812		35.156250
4813		39.062500
4814		35.156250
4815		37.109375
4816		33.203125
4817		37.109375
4818		33.203125
4819		37.109375
4820		33.203125
4821		37.109375
4822		33.203125
4823		35.156250
4824		31.250000
4825		35.156250
4826		31.250000
4827		33.203125
4828		29.296875
4829		33.203125
4830		29.296875
4831		33.203125
4832		27.343750
4833		31.250000
4834		27.343750
4835		31.250000
4836		25.390625
4837		29.296875
4838		25.390625
4839		27.343750
4840		23.437500
4841		27.343750
4842		23.437500
4843		25.390625
4844		21.484375
4845		25.390625
4846		19.531250
4847		23.437500
4848		19.531250
4849		23.437500
4850		17.578125
4851		21.484375
4852		15.625000
4853		19.531250
4854		13.671875
4855		17.578125
4856		11.718750
4857		17.578125
4858		11.718750
4859		15.625000
4860		9.765625
4861		13.671875
4862		7.812500
4863		13.671875
4864		7.812500
4865		11.718750
4866		5.859375
4867		9.765625
4868		3.906250
4869		7.812500
4870		1.953125
4871		5.859375
4872		1.953125
4873		5.859375
4874		0.000000
4875		3.906250
4876		0.000000
4877		1.953125
4878		-1.953125
4879		0.000000
4880		-3.906250
4881		0.000000
4882		-5.859375
4883		-1.953125
4884		-5.859375
4885		-1.953125
4886		-7.812500
4887		-3.906250
4888		-9.765625
4889		-5.859375
4890		-11.718750
4891		-5.859375
4892		-9.765625
4893		-7.812500
4894		-11.718750
4895		-9.765625
4896		-13.671875
4897		-9.765625
4898		-13.671875
4899		-11.718750
4900		-13.671875
4901		-11.718750
4902		-15.625000
4903		-11.718750
4904		-15.625000
4905		-13.671875
4906		-17.578125
4907		-13.671875
4908		-17.578125
4909		-13.671875
4910		-17.578125
4911		-15.625000
4912		-19.531250
4913		-15.625000
4914		-19.531250
4915		-17.578125
4916		-19.531250
4917		-17.578125
4918		-21.484375
4919		-17.578125
4920		-21.484375
4921		-17.578125
4922		-19.531250
4923		-17.578125
4924		-21.484375
4925		-17.578125
4926		-21.484375
4927		-19.531250
4928		-21.484375
4929		-17.578125
4930		-21.484375
4931		-17.578125
4932		-21.484375
4933		-17.578125
4934		-21.484375
4935		-17.578125
4936		-19.531250
4937		-17.578125
4938		-19.531250
4939		-17.578125
4940		-19.531250
4941		-15.625000
4942		-19.531250
4943		-15.625000
4944		-17.578125
4945		-15.625000
4946		-17.578125
4947		-13.671875
4948		-17.578125
4949		-13.671875
4950		-15.625000
4951		-11.718750
4952		-15.625000
4953		-11.718750
4954		-13.671875
4955		-11.718750
4956		-13.671875
4957		-9.765625
4958		-13.671875
4959		-7.812500
4960		-11.718750
4961		-7.812500
4962		-9.765625
4963		-5.859375
4964		-9.765625
4965		-5.859375
4966		-7.812500
4967		-3.906250
4968		-5.859375
4969		-1.953125
4970		-5.859375
4971		-1.953125
4972		-3.906250
4973		0.000000
4974		-1.953125
4975		1.953125
4976		-1.953125
4977		1.953125
4978		0.000000
4979		3.906250
4980		1.953125
4981		5.859375
4982		3.906250
4983		5.859375
4984		3.906250
4985		7.812500
4986		5.859375
4987		9.765625
4988		7.812500
4989		11.718750
4990		9.765625
4991		11.718750
4992		9.765625
4993		13.671875
4994		11.718750
4995		15.625000
4996		13.671875
4997		17.578125
4998		13.671875
4999		17.578125
5000		15.625000
5001		19.531250
5002		17.578125
5003		21.484375
5004		17.578125
5005		21.484375
5006		19.531250
5007		23.437500
5008		21.484375
5009		25.390625
5010		21.484375
5011		25.390625
5012		23.437500
5013		27.343750
5014		25.390625
5015		29.296875
5016		25.390625
5017		29.296875
5018		25.390625
5019		31.250000
5020		27.343750
5021		31.250000
5022		29.296875
5023		33.203125
5024		29.296875
5025		33.203125
5026		29.296875
5027		33.203125
5028		31.250000
5029		35.156250
5030		31.250000
5031		35.156250
5032		33.203125
5033		35.156250
5034		33.203125
5035		37.109375
5036		33.203125
5037		37.109375
5038		35.156250
5039		39.062500
5040		35.156250
5041		39.062500
5042		35.156250
5043		39.062500
5044		35.156250
5045		39.062500
5046		37.109375
5047		39.062500
5048		35.156250
5049		39.062500
5050		37.109375
5051		39.062500
5052		37.109375
5053		39.062500
5054		37.109375
5055		39.062500
5056		37.109375
5057		39.062500
5058		37.109375
5059		39.062500
5060		37.109375
5061		39.062500
5062		37.109375
5063		39.062500
5064		35.156250
5065		39.062500
5066		35.156250
5067		39.062500
5068		35.156250
5069		37.109375
5070		35.156250
5071		37.109375
5072		33.203125
5073		37.109375
5074		33.203125
5075		37.109375
5076		33.203125
5077		37.109375
5078		31.250000
5079		35.156250
5080		31.250000
5081		33.203125
5082		29.296875
5083		33.203125
5084		29.296875
5085		31.250000
5086		29.296875
5087		31.250000
5088		27.343750
5089		29.296875
5090		25.390625
5091		29.296875
5092		23.437500
5093		27.343750
5094		23.437500
5095		27.343750
5096		23.437500
5097		25.390625
5098		21.484375
5099		25.390625
5100		19.531250
5101		23.437500
5102		19.531250
5103		23.437500
5104		17.578125
5105		21.484375
5106		15.625000
5107		19.531250
5108		15.625000
5109		19.531250
5110		13.671875
5111		17.578125
5112		11.718750
5113		15.625000
5114		9.765625
5115		13.671875
5116		7.812500
5117		11.718750
5118		7.812500
5119		11.718750
5120		5.859375
5121		9.765625
5122		3.906250
5123		7.812500
5124		3.906250
5125		7.812500
5126		1.953125
5127		5.859375
5128		0.000000
5129		3.906250
5130		0.000000
5131		1.953125
5132		-1.953125
5133		1.953125
5134		-3.906250
5135		0.000000
5136		-5.859375
5137		-1.953125
5138		-5.859375
5139		-3.906250
5140		-7.812500
5141		-3.906250
5142		-9.765625
5143		-5.859375
5144		-9.765625
5145		-5.859375
5146		-11.718750
5147		-7.812500
5148		-11.718750
5149		-7.812500
5150		-13.671875
5151		-9.765625
5152		-13.671875
5153		-9.765625
5154		-15.625000
5155		-11.718750
5156		-15.625000
5157		-13.671875
5158		-17.578125
5159		-13.671875
5160		-17.578125
5161		-13.671875
5162		-17.578125
5163		-15.625000
5164		-19.531250
5165		-15.625000
5166		-19.531250
5167		-15.625000
5168		-19.531250
5169		-15.625000
5170		-19.531250
5171		-17.578125
5172		-19.531250
5173		-17.578125
5174		-21.484375
5175		-17.578125
5176		-21.484375
5177		-17.578125
5178		-19.531250
5179		-17.578125
5180		-19.531250
5181		-17.578125
5182		-21.484375
5183		-17.578125
5184		-21.484375
5185		-17.578125
5186		-19.531250
5187		-17.578125
5188		-19.531250
5189		-17.578125
5190		-19.531250
5191		-17.578125
5192		-19.531250
5193		-15.625000
5194		-19.531250
5195		-15.625000
5196		-17.578125
5197		-15.625000
5198		-19.531250
5199		-13.671875
5200		-17.578125
5201		-13.671875
5202		-17.578125
5203		-13.671875
5204		-15.625000
5205		-11.718750
5206		-15.625000
5207		-11.718750
5208		-13.671875
5209		-9.765625
5210		-13.671875
5211		-9.765625
5212		-11.718750
5213		-7.812500
5214		-9.765625
5215		-7.812500
5216		-9.765625
5217		-5.859375
5218		-7.812500
5219		-3.906250
5220		-7.812500
5221		-3.906250
5222		-5.859375
5223		-1.953125
5224		-3.906250
5225		-1.953125
5226		-3.906250
5227		0.000000
5228		-1.953125
5229		1.953125
5230		0.000000
5231		1.953125
5232		1.953125
5233		3.906250
5234		1.953125
5235		5.859375
5236		3.906250
5237		5.859375
5238		5.859375
5239		7.812500
5240		5.859375
5241		9.765625
5242		7.812500
5243		11.718750
5244		7.812500
5245		13.671875
5246		9.765625
5247		13.671875
5248		11.718750
5249		15.625000
5250		13.671875
5251		17.578125
5252		13.671875
5253		19.531250
5254		15.625000
5255		19.531250
5256		17.578125
5257		21.484375
5258		17.578125
5259		23.437500
5260		19.531250
5261		23.437500
5262		21.484375
5263		23.437500
5264		23.437500
5265		25.390625
5266		21.484375
5267		27.343750
5268		25.390625
5269		29.296875
5270		25.390625
5271		29.296875
5272		27.343750
5273		29.296875
5274		27.343750
5275		31.250000
5276		29.296875
5277		31.250000
5278		29.296875
5279		33.203125
5280		31.250000
5281		35.156250
5282		31.250000
5283		35.156250
5284		31.250000
5285		35.156250
5286		33.203125
5287		37.109375
5288		33.203125
5289		37.109375
5290		33.203125
5291		37.109375
5292		35.156250
5293		37.109375
5294		35.156250
5295		39.062500
5296		35.156250
5297		39.062500
5298		37.109375
5299		39.062500
5300		37.109375
5301		39.062500
5302		35.156250
5303		39.062500
5304		37.109375
5305		39.062500
5306		37.109375
5307		41.015625
5308		37.109375
5309		39.062500
5310		37.109375
5311		39.062500
5312		35.156250
5313		41.015625
5314		35.156250
5315		39.062500
5316		35.156250
5317		39.062500
5318		35.156250
5319		39.062500
5320		35.156250
5321		39.062500
5322		33.203125
5323		37.109375
5324		33.203125
5325		37.109375
5326		33.203125
5327		37.109375
5328		33.203125
5329		37.109375
5330		33.203125
5331		35.156250
5332		31.250000
5333		35.156250
5334		31.250000
5335		35.156250
5336		29.296875
5337		33.203125
5338		29.296875
5339		31.250000
5340		27.343750
5341		31.250000
5342		27.343750
5343		29.296875
5344		25.390625
5345		29.296875
5346		25.390625
5347		27.343750
5348		23.437500
5349		27.343750
5350		21.484375
5351		25.390625
5352		21.484375
5353		25.390625
5354		19.531250
5355		23.437500
5356		17.578125
5357		21.484375
5358		15.625000
5359		21.484375
5360		15.625000
5361		19.531250
5362		13.671875
5363		17.578125
5364		13.671875
5365		15.625000
5366		11.718750
5367		15.625000
5368		9.765625
5369		13.671875
5370		7.812500
5371		11.718750
5372		7.812500
5373		9.765625
5374		5.859375
5375		9.765625
5376		3.906250
5377		7.812500
5378		1.953125
5379		5.859375
5380		1.953125
5381		3.906250
5382		0.000000
5383		3.906250
5384		-1.953125
5385		1.953125
5386		-1.953125
5387		1.953125
5388		-3.906250
5389		0.000000
5390		-5.859375
5391		-1.953125
5392		-5.859375
5393		-3.906250
5394		-7.812500
5395		-3.906250
5396		-9.765625
5397		-5.859375
5398		-9.765625
5399		-7.812500
5400		-11.718750
5401		-7.812500
5402		-11.718750
5403		-9.765625
5404		-13.671875
5405		-9.765625
5406		-13.671875
5407		-11.718750
5408		-15.625000
5409		-11.718750
5410		-17.578125
5411		-11.718750
5412		-17.578125
5413		-13.671875
5414		-17.578125
5415		-15.625000
5416		-19.531250
5417		-15.625000
5418		-19.531250
5419		-15.625000
5420		-19.531250
5421		-15.625000
5422		-19.531250
5423		-17.578125
5424		-19.531250
5425		-17.578125
5426		-21.484375
5427		-17.578125
5428		-21.484375
5429		-17.578125
5430		-19.531250
5431		-17.578125
5432		-21.484375
5433		-17.578125
5434		-21.484375
5435		-17.578125
5436		-21.484375
5437		-17.578125
5438		-21.484375
5439		-17.578125
5440		-21.484375
5441		-17.578125
5442		-19.531250
5443		-17.578125
5444		-19.531250
5445		-17.578125
5446		-19.531250
5447		-15.625000
5448		-17.578125
5449		-15.625000
5450		-17.578125
5451		-13.671875
5452		-17.578125
5453		-13.671875
5454		-17.578125
5455		-13.671875
5456		-15.625000
5457		-13.671875
5458		-15.625000
5459		-11.718750
5460		-15.625000
5461		-11.718750
5462		-13.671875
5463		-9.765625
5464		-11.718750
5465		-9.765625
5466		-11.718750
5467		-7.812500
5468		-11.718750
5469		-7.812500
5470		-9.765625
5471		-5.859375
5472		-7.812500
5473		-3.906250
5474		-5.859375
5475		-3.906250
5476		-5.859375
5477		-1.953125
5478		-3.906250
5479		0.000000
5480		-3.906250
5481		0.000000
5482		-1.953125
5483		1.953125
5484		0.000000
5485		3.906250
5486		1.953125
5487		3.906250
5488		1.953125
5489		5.859375
5490		3.906250
5491		7.812500
5492		5.859375
5493		9.765625
5494		5.859375
5495		9.765625
5496		7.812500
5497		11.718750
5498		9.765625
5499		13.671875
5500		11.718750
5501		13.671875
5502		11.718750
5503		15.625000
5504		13.671875
5505		17.578125
5506		13.671875
5507		17.578125
5508		17.578125
5509		19.531250
5510		17.578125
5511		21.484375
5512		19.531250
5513		23.437500
5514		21.484375
5515		23.437500
5516		21.484375
5517		25.390625
5518		23.437500
5519		27.343750
5520		23.437500
5521		27.343750
5522		25.390625
5523		29.296875
5524		25.390625
5525		29.296875
5526		27.343750
5527		31.250000
5528		29.296875
5529		31.250000
5530		29.296875
5531		33.203125
5532		31.250000
5533		33.203125
5534		31.250000
5535		35.156250
5536		31.250000
5537		35.156250
5538		33.203125
5539		35.156250
5540		33.203125
5541		37.109375
5542		33.203125
5543		37.109375
5544		35.156250
5545		37.109375
5546		35.156250
5547		39.062500
5548		35.156250
5549		39.062500
5550		37.109375
5551		39.062500
5552		35.156250
5553		39.062500
5554		37.109375
5555		39.062500
5556		37.109375
5557		39.062500
5558		37.109375
5559		41.015625
5560		37.109375
5561		41.015625
5562		37.109375
5563		41.015625
5564		35.156250
5565		41.015625
5566		37.109375
5567		39.062500
5568		37.109375
5569		39.062500
5570		35.156250
5571		39.062500
5572		35.156250
5573		39.062500
5574		35.156250
5575		39.062500
5576		35.156250
5577		37.109375
5578		33.203125
5579		37.109375
5580		33.203125
5581		37.109375
5582		33.203125
5583		35.156250
5584		33.203125
5585		35.156250
5586		31.250000
5587		35.156250
5588		29.296875
5589		35.156250
5590		29.296875
5591		33.203125
5592		29.296875
5593		33.203125
5594		27.343750
5595		31.250000
5596		25.390625
5597		29.296875
5598		25.390625
5599		29.296875
5600		25.390625
5601		27.343750
5602		23.437500
5603		27.343750
5604		21.484375
5605		25.390625
5606		21.484375
5607		25.390625
5608		19.531250
5609		23.437500
5610		17.578125
5611		21.484375
5612		17.578125
5613		21.484375
5614		15.625000
5615		19.531250
5616		13.671875
5617		17.578125
5618		11.718750
5619		17.578125
5620		11.718750
5621		15.625000
5622		9.765625
5623		13.671875
5624		7.812500
5625		11.718750
5626		7.812500
5627		9.765625
5628		5.859375
5629		9.765625
5630		3.906250
5631		7.812500
5632		1.953125
5633		5.859375
5634		1.953125
5635		3.906250
5636		-1.953125
5637		3.906250
5638		-1.953125
5639		1.953125
5640		-1.953125
5641		0.000000
5642		-3.906250
5643		0.000000
5644		-5.859375
5645		-1.953125
5646		-7.812500
5647		-3.906250
5648		-7.812500
5649		-3.906250
5650		-9.765625
5651		-5.859375
5652		-11.718750
5653		-7.812500
5654		-11.718750
5655		-7.812500
5656		-13.671875
5657		-9.765625
5658		-13.671875
5659		-9.765625
5660		-13.671875
5661		-11.718750
5662		-15.625000
5663		-11.718750
5664		-17.578125
5665		-11.718750
5666		-15.625000
5667		-13.671875
5668		-17.578125
5669		-15.625000
5670		-17.578125
5671		-13.671875
5672		-19.531250
5673		-15.625000
5674		-19.531250
5675		-15.625000
5676		-19.531250
5677		-17.578125
5678		-19.531250
5679		-17.578125
5680		-19.531250
5681		-17.578125
5682		-21.484375
5683		-17.578125
5684		-19.531250
5685		-17.578125
5686		-21.484375
5687		-17.578125
5688		-21.484375
5689		-17.578125
5690		-21.484375
5691		-17.578125
5692		-21.484375
5693		-17.578125
5694		-19.531250
5695		-17.578125
5696		-19.531250
5697		-17.578125
5698		-19.531250
5699		-15.625000
5700		-19.531250
5701		-15.625000
5702		-17.578125
5703		-13.671875
5704		-17.578125
5705		-15.625000
5706		-17.578125
5707		-13.671875
5708		-15.625000
5709		-13.671875
5710		-15.625000
5711		-11.718750
5712		-15.625000
5713		-11.718750
5714		-15.625000
5715		-9.765625
5716		-13.671875
5717		-9.765625
5718		-11.718750
5719		-9.765625
5720		-11.718750
5721		-7.812500
5722		-9.765625
5723		-5.859375
5724		-9.765625
5725		-5.859375
5726		-7.812500
5727		-3.906250
5728		-5.859375
5729		-1.953125
5730		-5.859375
5731		-1.953125
5732		-3.906250
5733		0.000000
5734		-1.953125
5735		1.953125
5736		-1.953125
5737		3.906250
5738		0.000000
5739		3.906250
5740		1.953125
5741		5.859375
5742		3.906250
5743		5.859375
5744		3.906250
5745		7.812500
5746		5.859375
5747		9.765625
5748		5.859375
5749		11.718750
5750		9.765625
5751		11.718750
5752		9.765625
5753		13.671875
5754		9.765625
5755		15.625000
5756		13.671875
5757		15.625000
5758		13.671875
5759		17.578125
5760		13.671875
5761		19.531250
5762		17.578125
5763		19.531250
5764		17.578125
5765		21.484375
5766		19.531250
5767		23.437500
5768		21.484375
5769		23.437500
5770		21.484375
5771		25.390625
5772		23.437500
5773		27.343750
5774		25.390625
5775		27.343750
5776		25.390625
5777		29.296875
5778		27.343750
5779		29.296875
5780		27.343750
5781		31.250000
5782		27.343750
5783		33.203125
5784		29.296875
5785		33.203125
5786		31.250000
5787		33.203125
5788		31.250000
5789		35.156250
5790		31.250000
5791		35.156250
5792		33.203125
5793		37.109375
5794		33.203125
5795		37.109375
5796		33.203125
5797		37.109375
5798		35.156250
5799		39.062500
5800		35.156250
5801		37.109375
5802		35.156250
5803		39.062500
5804		35.156250
5805		39.062500
5806		35.156250
5807		39.062500
5808		35.156250
5809		41.015625
5810		37.109375
5811		39.062500
5812		37.109375
5813		39.062500
5814		37.109375
5815		41.015625
5816		37.109375
5817		41.015625
5818		37.109375
5819		39.062500
5820		35.156250
5821		41.015625
5822		37.109375
5823		39.062500
5824		35.156250
5825		39.062500
5826		35.156250
5827		39.062500
5828		35.156250
5829		39.062500
5830		35.156250
5831		37.109375
5832		33.203125
5833		37.109375
5834		33.203125
5835		35.156250
5836		33.203125
5837		35.156250
5838		31.250000
5839		35.156250
5840		31.250000
5841		35.156250
5842		31.250000
5843		33.203125
5844		29.296875
5845		33.203125
5846		29.296875
5847		33.203125
5848		27.343750
5849		31.250000
5850		25.390625
5851		31.250000
5852		25.390625
5853		29.296875
5854		23.437500
5855		27.343750
5856		21.484375
5857		27.343750
5858		21.484375
5859		25.390625
5860		19.531250
5861		25.390625
5862		17.578125
5863		23.437500
5864		17.578125
5865		21.484375
5866		15.625000
5867		21.484375
5868		15.625000
5869		17.578125
5870		13.671875
5871		17.578125
5872		11.718750
5873		15.625000
5874		9.765625
5875		15.625000
5876		9.765625
5877		13.671875
5878		7.812500
5879		11.718750
5880		5.859375
5881		11.718750
5882		3.906250
5883		9.765625
5884		3.906250
5885		5.859375
5886		1.953125
5887		5.859375
5888		0.000000
5889		5.859375
5890		-1.953125
5891		3.906250
5892		-3.906250
5893		1.953125
5894		-3.906250
5895		1.953125
5896		-5.859375
5897		0.000000
5898		-7.812500
5899		-1.953125
5900		-7.812500
5901		-3.906250
5902		-7.812500
5903		-5.859375
5904		-9.765625
5905		-5.859375
5906		-11.718750
5907		-5.859375
5908		-13.671875
5909		-7.812500
5910		-13.671875
5911		-7.812500
5912		-15.625000
5913		-9.765625
5914		-15.625000
5915		-9.765625
5916		-15.625000
5917		-11.718750
5918		-15.625000
5919		-13.671875
5920		-15.625000
5921		-13.671875
5922		-17.578125
5923		-13.671875
5924		-17.578125
5925		-15.625000
5926		-19.531250
5927		-15.625000
5928		-19.531250
5929		-17.578125
5930		-19.531250
5931		-17.578125
5932		-19.531250
5933		-17.578125
5934		-21.484375
5935		-17.578125
5936		-21.484375
5937		-17.578125
5938		-19.531250
5939		-17.578125
5940		-19.531250
5941		-17.578125
5942		-19.531250
5943		-17.578125
5944		-19.531250
5945		-17.578125
5946		-19.531250
5947		-17.578125
5948		-19.531250
5949		-17.578125
5950		-19.531250
5951		-17.578125
5952		-19.531250
5953		-17.578125
5954		-17.578125
5955		-15.625000
5956		-17.578125
5957		-15.625000
5958		-17.578125
5959		-15.625000
5960		-17.578125
5961		-13.671875
5962		-15.625000
5963		-13.671875
5964		-15.625000
5965		-11.718750
5966		-13.671875
5967		-11.718750
5968		-13.671875
5969		-11.718750
5970		-13.671875
5971		-9.765625
5972		-11.718750
5973		-9.765625
5974		-9.765625
5975		-7.812500
5976		-9.765625
5977		-5.859375
5978		-7.812500
5979		-5.859375
5980		-7.812500
5981		-3.906250
5982		-5.859375
5983		-1.953125
5984		-3.906250
5985		-1.953125
5986		-3.906250
5987		0.000000
5988		-1.953125
5989		1.953125
5990		0.000000
5991		1.953125
5992		0.000000
5993		3.906250
5994		1.953125
5995		5.859375
5996		3.906250
5997		5.859375
5998		5.859375
5999		7.812500
6000		5.859375
6001		9.765625
6002		7.812500
6003		11.718750
6004		9.765625
6005		11.718750
6006		11.718750
6007		13.671875
6008		11.718750
6009		15.625000
6010		13.671875
6011		17.578125
6012		15.625000
6013		17.578125
6014		15.625000
6015		19.531250
6016		17.578125
6017		21.484375
6018		19.531250
6019		21.484375
6020		21.484375
6021		23.437500
6022		19.531250
6023		27.343750
6024		21.484375
6025		29.296875
6026		21.484375
6027		29.296875
6028		25.390625
6029		27.343750
6030		25.390625
6031		29.296875
6032		27.343750
6033		29.296875
6034		29.296875
6035		31.250000
6036		29.296875
6037		31.250000
6038		31.250000
6039		33.203125
6040		27.343750
6041		37.109375
6042		29.296875
6043		37.109375
6044		31.250000
6045		37.109375
6046		33.203125
6047		37.109375
6048		33.203125
6049		37.109375
6050		35.156250
6051		37.109375
6052		35.156250
6053		37.109375
6054		35.156250
6055		39.062500
6056		33.203125
6057		41.015625
6058		33.203125
6059		42.968750
6060		33.203125
6061		42.968750
6062		37.109375
6063		39.062500
6064		37.109375
6065		39.062500
6066		37.109375
6067		39.062500
6068		37.109375
6069		39.062500
6070		37.109375
6071		39.062500
6072		35.156250
6073		42.968750
6074		33.203125
6075		42.968750
6076		33.203125
6077		42.968750
6078		33.203125
6079		42.968750
6080		35.156250
6081		39.062500
6082		35.156250
6083		37.109375
6084		35.156250
6085		37.109375
6086		35.156250
6087		37.109375
6088		33.203125
6089		37.109375
6090		29.296875
6091		39.062500
6092		29.296875
6093		39.062500
6094		27.343750
6095		37.109375
6096		31.250000
6097		33.203125
6098		29.296875
6099		33.203125
6100		29.296875
6101		31.250000
6102		27.343750
6103		31.250000
6104		25.390625
6105		29.296875
6106		21.484375
6107		31.250000
6108		21.484375
6109		29.296875
6110		19.531250
6111		29.296875
6112		21.484375
6113		27.343750
6114		19.531250
6115		23.437500
6116		19.531250
6117		21.484375
6118		17.578125
6119		21.484375
6120		15.625000
6121		19.531250
6122		13.671875
6123		17.578125
6124		9.765625
6125		19.531250
6126		9.765625
6127		19.531250
6128		7.812500
6129		17.578125
6130		9.765625
6131		11.718750
6132		7.812500
6133		11.718750
6134		5.859375
6135		9.765625
6136		5.859375
6137		7.812500
6138		3.906250
6139		7.812500
6140		0.000000
6141		9.765625
6142		-1.953125
6143		7.812500
6144		-3.906250
6145		5.859375
6146		-1.953125
6147		1.953125
6148		-3.906250
6149		0.000000
6150		-3.906250
6151		-1.953125
6152		-5.859375
6153		-1.953125
6154		-7.812500
6155		-3.906250
6156		-11.718750
6157		-1.953125
6158		-11.718750
6159		-3.906250
6160		-13.671875
6161		-3.906250
6162		-13.671875
6163		-5.859375
6164		-13.671875
6165		-9.765625
6166		-13.671875
6167		-11.718750
6168		-13.671875
6169		-11.718750
6170		-15.625000
6171		-13.671875
6172		-15.625000
6173		-13.671875
6174		-19.531250
6175		-11.718750
6176		-21.484375
6177		-11.718750
6178		-21.484375
6179		-11.718750
6180		-19.531250
6181		-15.625000
6182		-19.531250
6183		-15.625000
6184		-19.531250
6185		-17.578125
6186		-19.531250
6187		-17.578125
6188		-21.484375
6189		-17.578125
6190		-23.437500
6191		-13.671875
6192		-23.437500
6193		-13.671875
6194		-23.437500
6195		-15.625000
6196		-21.484375
6197		-15.625000
6198		-19.531250
6199		-17.578125
6200		-19.531250
6201		-17.578125
6202		-19.531250
6203		-17.578125
6204		-19.531250
6205		-17.578125
6206		-19.531250
6207		-15.625000
6208		-17.578125
6209		-13.671875
6210		-21.484375
6211		-13.671875
6212		-19.531250
6213		-11.718750
6214		-15.625000
6215		-13.671875
6216		-15.625000
6217		-13.671875
6218		-15.625000
6219		-11.718750
6220		-15.625000
6221		-11.718750
6222		-13.671875
6223		-9.765625
6224		-11.718750
6225		-9.765625
6226		-13.671875
6227		-5.859375
6228		-11.718750
6229		-3.906250
6230		-9.765625
6231		-5.859375
6232		-7.812500
6233		-3.906250
6234		-5.859375
6235		-3.906250
6236		-5.859375
6237		-1.953125
6238		-3.906250
6239		-1.953125
6240		-1.953125
6241		1.953125
6242		-1.953125
6243		1.953125
6244		-1.953125
6245		5.859375
6246		1.953125
6247		3.906250
6248		1.953125
6249		5.859375
6250		3.906250
6251		7.812500
6252		5.859375
6253		7.812500
6254		7.812500
6255		9.765625
6256		7.812500
6257		11.718750
6258		9.765625
6259		13.671875
6260		11.718750
6261		13.671875
6262		11.718750
6263		15.625000
6264		13.671875
6265		17.578125
6266		15.625000
6267		19.531250
6268		17.578125
6269		19.531250
6270		17.578125
6271		21.484375
6272		19.531250
6273		23.437500
6274		21.484375
6275		23.437500
6276		21.484375
6277		25.390625
6278		23.437500
6279		25.390625
6280		23.437500
6281		27.343750
6282		25.390625
6283		29.296875
6284		27.343750
6285		29.296875
6286		27.343750
6287		31.250000
6288		29.296875
6289		31.250000
6290		29.296875
6291		33.203125
6292		31.250000
6293		33.203125
6294		31.250000
6295		33.203125
6296		31.250000
6297		35.156250
6298		33.203125
6299		35.156250
6300		33.203125
6301		37.109375
6302		35.156250
6303		37.109375
6304		35.156250
6305		37.109375
6306		35.156250
6307		39.062500
6308		35.156250
6309		39.062500
6310		35.156250
6311		39.062500
6312		37.109375
6313		39.062500
6314		37.109375
6315		39.062500
6316		37.109375
6317		39.062500
6318		37.109375
6319		39.062500
6320		37.109375
6321		39.062500
6322		37.109375
6323		39.062500
6324		35.156250
6325		41.015625
6326		37.109375
6327		39.062500
6328		37.109375
6329		39.062500
6330		37.109375
6331		39.062500
6332		35.156250
6333		39.062500
6334		35.156250
6335		39.062500
6336		35.156250
6337		37.109375
6338		35.156250
6339		37.109375
6340		33.203125
6341		37.109375
6342		33.203125
6343		37.109375
6344		33.203125
6345		35.156250
6346		31.250000
6347		35.156250
6348		29.296875
6349		35.156250
6350		29.296875
6351		33.203125
6352		29.296875
6353		31.250000
6354		27.343750
6355		31.250000
6356		27.343750
6357		29.296875
6358		25.390625
6359		29.296875
6360		23.437500
6361		29.296875
6362		23.437500
6363		27.343750
6364		21.484375
6365		25.390625
6366		19.531250
6367		25.390625
6368		19.531250
6369		23.437500
6370		17.578125
6371		21.484375
6372		17.578125
6373		21.484375
6374		15.625000
6375		19.531250
6376		13.671875
6377		19.531250
6378		13.671875
6379		17.578125
6380		11.718750
6381		15.625000
6382		9.765625
6383		13.671875
6384		9.765625
6385		11.718750
6386		7.812500
6387		9.765625
6388		5.859375
6389		9.765625
6390		3.906250
6391		7.812500
6392		1.953125
6393		7.812500
6394		1.953125
6395		5.859375
6396		0.000000
6397		3.906250
6398		-1.953125
6399		1.953125
6400		-1.953125
6401		1.953125
6402		-3.906250
6403		0.000000
6404		-3.906250
6405		-1.953125
6406		-5.859375
6407		-3.906250
6408		-9.765625
6409		-3.906250
6410		-9.765625
6411		-3.906250
6412		-9.765625
6413		-5.859375
6414		-11.718750
6415		-7.812500
6416		-11.718750
6417		-7.812500
6418		-13.671875
6419		-9.765625
6420		-13.671875
6421		-11.718750
6422		-15.625000
6423		-11.718750
6424		-15.625000
6425		-11.718750
6426		-17.578125
6427		-13.671875
6428		-17.578125
6429		-13.671875
6430		-17.578125
6431		-15.625000
6432		-19.531250
6433		-15.625000
6434		-19.531250
6435		-15.625000
6436		-19.531250
6437		-15.625000
6438		-19.531250
6439		-17.578125
6440		-19.531250
6441		-17.578125
6442		-21.484375
6443		-15.625000
6444		-19.531250
6445		-17.578125
6446		-21.484375
6447		-17.578125
6448		-19.531250
6449		-17.578125
6450		-21.484375
6451		-17.578125
6452		-19.531250
6453		-17.578125
6454		-19.531250
6455		-17.578125
6456		-19.531250
6457		-17.578125
6458		-19.531250
6459		-15.625000
6460		-19.531250
6461		-15.625000
6462		-19.531250
6463		-15.625000
6464		-17.578125
6465		-15.625000
6466		-17.578125
6467		-13.671875
6468		-17.578125
6469		-13.671875
6470		-15.625000
6471		-13.671875
6472		-15.625000
6473		-11.718750
6474		-13.671875
6475		-11.718750
6476		-13.671875
6477		-9.765625
6478		-11.718750
6479		-7.812500
6480		-9.765625
6481		-7.812500
6482		-9.765625
6483		-5.859375
6484		-7.812500
6485		-5.859375
6486		-7.812500
6487		-3.906250
6488		-5.859375
6489		-1.953125
6490		-3.906250
6491		-1.953125
6492		-3.906250
6493		0.000000
6494		-1.953125
6495		0.000000
6496		0.000000
6497		1.953125
6498		0.000000
6499		3.906250
6500		1.953125
6501		5.859375
6502		3.906250
6503		5.859375
6504		3.906250
6505		7.812500
6506		5.859375
6507		9.765625
6508		7.812500
6509		11.718750
6510		9.765625
6511		11.718750
6512		9.765625
6513		13.671875
6514		11.718750
6515		15.625000
6516		13.671875
6517		15.625000
6518		13.671875
6519		17.578125
6520		15.625000
6521		19.531250
6522		17.578125
6523		19.531250
6524		19.531250
6525		21.484375
6526		19.531250
6527		23.437500
6528		21.484375
6529		23.437500
6530		23.437500
6531		25.390625
6532		23.437500
6533		27.343750
6534		25.390625
6535		27.343750
6536		25.390625
6537		29.296875
6538		27.343750
6539		29.296875
6540		27.343750
6541		31.250000
6542		29.296875
6543		31.250000
6544		29.296875
6545		33.203125
6546		31.250000
6547		33.203125
6548		31.250000
6549		35.156250
6550		33.203125
6551		37.109375
6552		33.203125
6553		35.156250
6554		35.156250
6555		37.109375
6556		35.156250
6557		37.109375
6558		35.156250
6559		37.109375
6560		35.156250
6561		39.062500
6562		37.109375
6563		39.062500
6564		37.109375
6565		39.062500
6566		37.109375
6567		39.062500
6568		37.109375
6569		39.062500
6570		37.109375
6571		39.062500
6572		37.109375
6573		41.015625
6574		37.109375
6575		39.062500
6576		37.109375
6577		41.015625
6578		37.109375
6579		39.062500
6580		37.109375
6581		39.062500
6582		35.156250
6583		39.062500
6584		37.109375
6585		39.062500
6586		37.109375
6587		39.062500
6588		35.156250
6589		39.062500
6590		35.156250
6591		37.109375
6592		33.203125
6593		37.109375
6594		35.156250
6595		37.109375
6596		33.203125
6597		35.156250
6598		33.203125
6599		35.156250
6600		31.250000
6601		35.156250
6602		31.250000
6603		33.203125
6604		29.296875
6605		33.203125
6606		29.296875
6607		31.250000
6608		29.296875
6609		31.250000
6610		25.390625
6611		29.296875
6612		25.390625
6613		29.296875
6614		25.390625
6615		27.343750
6616		23.437500
6617		25.390625
6618		21.484375
6619		25.390625
6620		21.484375
6621		23.437500
6622		19.531250
6623		23.437500
6624		17.578125
6625		21.484375
6626		17.578125
6627		19.531250
6628		15.625000
6629		19.531250
6630		13.671875
6631		17.578125
6632		13.671875
6633		15.625000
6634		11.718750
6635		15.625000
6636		9.765625
6637		13.671875
6638		9.765625
6639		11.718750
6640		7.812500
6641		9.765625
6642		5.859375
6643		9.765625
6644		3.906250
6645		7.812500
6646		1.953125
6647		7.812500
6648		1.953125
6649		3.906250
6650		0.000000
6651		3.906250
6652		-1.953125
6653		1.953125
6654		-1.953125
6655		0.000000
6656		-3.906250
6657		0.000000
6658		-5.859375
6659		-1.953125
6660		-7.812500
6661		-1.953125
6662		-9.765625
6663		-3.906250
6664		-7.812500
6665		-3.906250
6666		-9.765625
6667		-7.812500
6668		-11.718750
6669		-7.812500
6670		-11.718750
6671		-9.765625
6672		-13.671875
6673		-9.765625
6674		-13.671875
6675		-11.718750
6676		-15.625000
6677		-11.718750
6678		-17.578125
6679		-11.718750
6680		-17.578125
6681		-11.718750
6682		-17.578125
6683		-13.671875
6684		-17.578125
6685		-15.625000
6686		-17.578125
6687		-15.625000
6688		-19.531250
6689		-15.625000
6690		-19.531250
6691		-17.578125
6692		-19.531250
6693		-17.578125
6694		-21.484375
6695		-15.625000
6696		-21.484375
6697		-15.625000
6698		-19.531250
6699		-17.578125
6700		-19.531250
6701		-17.578125
6702		-19.531250
6703		-17.578125
6704		-19.531250
6705		-17.578125
6706		-19.531250
6707		-17.578125
6708		-19.531250
6709		-15.625000
6710		-19.531250
6711		-17.578125
6712		-21.484375
6713		-15.625000
6714		-19.531250
6715		-15.625000
6716		-17.578125
6717		-15.625000
6718		-17.578125
6719		-15.625000
6720		-17.578125
6721		-13.671875
6722		-15.625000
6723		-13.671875
6724		-15.625000
6725		-11.718750
6726		-13.671875
6727		-11.718750
6728		-13.671875
6729		-9.765625
6730		-13.671875
6731		-7.812500
6732		-11.718750
6733		-9.765625
6734		-9.765625
6735		-7.812500
6736		-9.765625
6737		-5.859375
6738		-7.812500
6739		-5.859375
6740		-7.812500
6741		-3.906250
6742		-5.859375
6743		-1.953125
6744		-5.859375
6745		0.000000
6746		-3.906250
6747		1.953125
6748		-3.906250
6749		1.953125
6750		0.000000
6751		1.953125
6752		0.000000
6753		3.906250
6754		1.953125
6755		5.859375
6756		3.906250
6757		5.859375
6758		5.859375
6759		7.812500
6760		5.859375
6761		9.765625
6762		5.859375
6763		11.718750
6764		7.812500
6765		13.671875
6766		9.765625
6767		13.671875
6768		11.718750
6769		15.625000
6770		13.671875
6771		15.625000
6772		13.671875
6773		17.578125
6774		15.625000
6775		19.531250
6776		17.578125
6777		21.484375
6778		17.578125
6779		23.437500
6780		19.531250
6781		25.390625
6782		21.484375
6783		25.390625
6784		23.437500
6785		25.390625
6786		23.437500
6787		27.343750
6788		25.390625
6789		27.343750
6790		25.390625
6791		29.296875
6792		27.343750
6793		29.296875
6794		27.343750
6795		31.250000
6796		27.343750
6797		33.203125
6798		29.296875
6799		33.203125
6800		31.250000
6801		33.203125
6802		31.250000
6803		35.156250
6804		33.203125
6805		35.156250
6806		33.203125
6807		35.156250
6808		35.156250
6809		37.109375
6810		35.156250
6811		37.109375
6812		35.156250
6813		39.062500
6814		35.156250
6815		41.015625
6816		37.109375
6817		39.062500
6818		37.109375
6819		39.062500
6820		37.109375
6821		39.062500
6822		37.109375
6823		39.062500
6824		37.109375
6825		39.062500
6826		37.109375
6827		41.015625
6828		37.109375
6829		39.062500
6830		37.109375
6831		39.062500
6832		37.109375
6833		39.062500
6834		37.109375
6835		39.062500
6836		37.109375
6837		41.015625
6838		37.109375
6839		39.062500
6840		35.156250
6841		39.062500
6842		35.156250
6843		37.109375
6844		35.156250
6845		37.109375
6846		35.156250
6847		37.109375
6848		33.203125
6849		37.109375
6850		33.203125
6851		35.156250
6852		33.203125
6853		35.156250
6854		31.250000
6855		35.156250
6856		31.250000
6857		33.203125
6858		29.296875
6859		33.203125
6860		29.296875
6861		31.250000
6862		27.343750
6863		31.250000
6864		27.343750
6865		29.296875
6866		25.390625
6867		29.296875
6868		23.437500
6869		27.343750
6870		23.437500
6871		25.390625
6872		21.484375
6873		25.390625
6874		21.484375
6875		23.437500
6876		19.531250
6877		23.437500
6878		17.578125
6879		21.484375
6880		17.578125
6881		19.531250
6882		15.625000
6883		19.531250
6884		13.671875
6885		17.578125
6886		13.671875
6887		15.625000
6888		11.718750
6889		13.671875
6890		9.765625
6891		13.671875
6892		7.812500
6893		11.718750
6894		7.812500
6895		9.765625
6896		5.859375
6897		7.812500
6898		3.906250
6899		7.812500
6900		1.953125
6901		5.859375
6902		1.953125
6903		3.906250
6904		0.000000
6905		1.953125
6906		-1.953125
6907		1.953125
6908		-1.953125
6909		0.000000
6910		-3.906250
6911		0.000000
6912		-5.859375
6913		-1.953125
6914		-5.859375
6915		-3.906250
6916		-7.812500
6917		-3.906250
6918		-9.765625
6919		-5.859375
6920		-9.765625
6921		-7.812500
6922		-11.718750
6923		-7.812500
6924		-11.718750
6925		-9.765625
6926		-13.671875
6927		-9.765625
6928		-13.671875
6929		-11.718750
6930		-15.625000
6931		-11.718750
6932		-15.625000
6933		-13.671875
6934		-17.578125
6935		-13.671875
6936		-17.578125
6937		-15.625000
6938		-17.578125
6939		-15.625000
6940		-17.578125
6941		-15.625000
6942		-19.531250
6943		-15.625000
6944		-19.531250
6945		-15.625000
6946		-19.531250
6947		-17.578125
6948		-19.531250
6949		-17.578125
6950		-19.531250
6951		-17.578125
6952		-19.531250
6953		-17.578125
6954		-21.484375
6955		-17.578125
6956		-19.531250
6957		-17.578125
6958		-19.531250
6959		-17.578125
6960		-19.531250
6961		-17.578125
6962		-19.531250
6963		-17.578125
6964		-19.531250
6965		-15.625000
6966		-17.578125
6967		-15.625000
6968		-17.578125
6969		-15.625000
6970		-17.578125
6971		-15.625000
6972		-17.578125
6973		-13.671875
6974		-15.625000
6975		-13.671875
6976		-15.625000
6977		-13.671875
6978		-15.625000
6979		-11.718750
6980		-13.671875
6981		-11.718750
6982		-13.671875
6983		-9.765625
6984		-11.718750
6985		-9.765625
6986		-11.718750
6987		-7.812500
6988		-9.765625
6989		-7.812500
6990		-7.812500
6991		-5.859375
6992		-7.812500
6993		-5.859375
6994		-5.859375
6995		-3.906250
6996		-5.859375
6997		-1.953125
6998		-3.906250
6999		-1.953125
7000		-1.953125
7001		0.000000
7002		-1.953125
7003		1.953125
7004		0.000000
7005		3.906250
7006		1.953125
7007		3.906250
7008		1.953125
7009		5.859375
7010		3.906250
7011		7.812500
7012		5.859375
7013		7.812500
7014		7.812500
7015		9.765625
7016		7.812500
7017		11.718750
7018		9.765625
7019		13.671875
7020		11.718750
7021		13.671875
7022		13.671875
7023		15.625000
7024		13.671875
7025		17.578125
7026		15.625000
7027		19.531250
7028		17.578125
7029		19.531250
7030		17.578125
7031		21.484375
7032		19.531250
7033		23.437500
7034		21.484375
7035		23.437500
7036		21.484375
7037		25.390625
7038		23.437500
7039		25.390625
7040		23.437500
7041		27.343750
7042		25.390625
7043		29.296875
7044		27.343750
7045		29.296875
7046		27.343750
7047		31.250000
7048		29.296875
7049		31.250000
7050		29.296875
7051		33.203125
7052		31.250000
7053		33.203125
7054		31.250000
7055		35.156250
7056		33.203125
7057		35.156250
7058		33.203125
7059		35.156250
7060		33.203125
7061		37.109375
7062		35.156250
7063		37.109375
7064		35.156250
7065		37.109375
7066		35.156250
7067		39.062500
7068		37.109375
7069		39.062500
7070		37.109375
7071		39.062500
7072		37.109375
7073		39.062500
7074		37.109375
7075		39.062500
7076		37.109375
7077		41.015625
7078		37.109375
7079		41.015625
7080		37.109375
7081		41.015625
7082		37.109375
7083		39.062500
7084		37.109375
7085		41.015625
7086		37.109375
7087		41.015625
7088		37.109375
7089		39.062500
7090		37.109375
7091		39.062500
7092		37.109375
7093		39.062500
7094		37.109375
7095		39.062500
7096		35.156250
7097		39.062500
7098		35.156250
7099		37.109375
7100		35.156250
7101		37.109375
7102		33.203125
7103		37.109375
7104		33.203125
7105		35.156250
7106		33.203125
7107		35.156250
7108		31.250000
7109		35.156250
7110		31.250000
7111		33.203125
7112		29.296875
7113		33.203125
7114		29.296875
7115		31.250000
7116		27.343750
7117		31.250000
7118		27.343750
7119		29.296875
7120		25.390625
7121		27.343750
7122		25.390625
7123		27.343750
7124		23.437500
7125		25.390625
7126		21.484375
7127		25.390625
7128		21.484375
7129		23.437500
7130		19.531250
7131		23.437500
7132		17.578125
7133		21.484375
7134		17.578125
7135		19.531250
7136		15.625000
7137		17.578125
7138		13.671875
7139		17.578125
7140		11.718750
7141		15.625000
7142		11.718750
7143		13.671875
7144		9.765625
7145		13.671875
7146		7.812500
7147		11.718750
7148		5.859375
7149		9.765625
7150		5.859375
7151		7.812500
7152		3.906250
7153		7.812500
7154		1.953125
7155		5.859375
7156		1.953125
7157		3.906250
7158		0.000000
7159		1.953125
7160		-1.953125
7161		1.953125
7162		-1.953125
7163		0.000000
7164		-3.906250
7165		0.000000
7166		-5.859375
7167		-1.953125
7168		-7.812500
7169		-3.906250
7170		-7.812500
7171		-5.859375
7172		-9.765625
7173		-5.859375
7174		-9.765625
7175		-7.812500
7176		-11.718750
7177		-7.812500
7178		-11.718750
7179		-9.765625
7180		-13.671875
7181		-9.765625
7182		-13.671875
7183		-11.718750
7184		-15.625000
7185		-11.718750
7186		-15.625000
7187		-13.671875
7188		-17.578125
7189		-13.671875
7190		-17.578125
7191		-15.625000
7192		-17.578125
7193		-15.625000
7194		-19.531250
7195		-15.625000
7196		-19.531250
7197		-15.625000
7198		-19.531250
7199		-17.578125
7200		-19.531250
7201		-17.578125
7202		-19.531250
7203		-17.578125
7204		-19.531250
7205		-17.578125
7206		-21.484375
7207		-17.578125
7208		-19.531250
7209		-17.578125
7210		-19.531250
7211		-17.578125
7212		-19.531250
7213		-17.578125
7214		-19.531250
7215		-17.578125
7216		-19.531250
7217		-15.625000
7218		-19.531250
7219		-15.625000
7220		-17.578125
7221		-15.625000
7222		-17.578125
7223		-15.625000
7224		-17.578125
7225		-13.671875
7226		-17.578125
7227		-13.671875
7228		-15.625000
7229		-13.671875
7230		-15.625000
7231		-13.671875
7232		-13.671875
7233		-11.718750
7234		-13.671875
7235		-11.718750
7236		-11.718750
7237		-9.765625
7238		-11.718750
7239		-7.812500
7240		-11.718750
7241		-7.812500
7242		-9.765625
7243		-5.859375
7244		-7.812500
7245		-5.859375
7246		-7.812500
7247		-3.906250
7248		-5.859375
7249		-3.906250
7250		-5.859375
7251		-1.953125
7252		-3.906250
7253		0.000000
7254		-1.953125
7255		0.000000
7256		-1.953125
7257		1.953125
7258		0.000000
7259		3.906250
7260		1.953125
7261		5.859375
7262		3.906250
7263		5.859375
7264		3.906250
7265		7.812500
7266		5.859375
7267		9.765625
7268		7.812500
7269		9.765625
7270		9.765625
7271		11.718750
7272		9.765625
7273		13.671875
7274		11.718750
7275		15.625000
7276		13.671875
7277		15.625000
7278		13.671875
7279		17.578125
7280		15.625000
7281		19.531250
7282		17.578125
7283		19.531250
7284		17.578125
7285		21.484375
7286		19.531250
7287		23.437500
7288		21.484375
7289		23.437500
7290		23.437500
7291		25.390625
7292		23.437500
7293		27.343750
7294		23.437500
7295		27.343750
7296		25.390625
7297		29.296875
7298		27.343750
7299		29.296875
7300		27.343750
7301		31.250000
7302		29.296875
7303		31.250000
7304		29.296875
7305		33.203125
7306		31.250000
7307		33.203125
7308		31.250000
7309		35.156250
7310		33.203125
7311		35.156250
7312		33.203125
7313		37.109375
7314		33.203125
7315		37.109375
7316		35.156250
7317		37.109375
7318		35.156250
7319		37.109375
7320		35.156250
7321		39.062500
7322		37.109375
7323		39.062500
7324		37.109375
7325		39.062500
7326		37.109375
7327		39.062500
7328		37.109375
7329		41.015625
7330		37.109375
7331		41.015625
7332		37.109375
7333		39.062500
7334		37.109375
7335		39.062500
7336		37.109375
7337		39.062500
7338		37.109375
7339		41.015625
7340		37.109375
7341		41.015625
7342		37.109375
7343		41.015625
7344		37.109375
7345		39.062500
7346		37.109375
7347		39.062500
7348		35.156250
7349		39.062500
7350		35.156250
7351		39.062500
7352		35.156250
7353		37.109375
7354		35.156250
7355		37.109375
7356		33.203125
7357		37.109375
7358		33.203125
7359		35.156250
7360		33.203125
7361		35.156250
7362		31.250000
7363		35.156250
7364		31.250000
7365		33.203125
7366		29.296875
7367		33.203125
7368		29.296875
7369		31.250000
7370		27.343750
7371		31.250000
7372		25.390625
7373		29.296875
7374		25.390625
7375		27.343750
7376		23.437500
7377		27.343750
7378		23.437500
7379		25.390625
7380		21.484375
7381		25.390625
7382		19.531250
7383		23.437500
7384		17.578125
7385		23.437500
7386		17.578125
7387		21.484375
7388		15.625000
7389		19.531250
7390		15.625000
7391		17.578125
7392		13.671875
7393		17.578125
7394		11.718750
7395		15.625000
7396		9.765625
7397		13.671875
7398		9.765625
7399		11.718750
7400		7.812500
7401		11.718750
7402		5.859375
7403		9.765625
7404		3.906250
7405		7.812500
7406		3.906250
7407		7.812500
7408		1.953125
7409		5.859375
7410		0.000000
7411		3.906250
7412		0.000000
7413		1.953125
7414		-1.953125
7415		1.953125
7416		-3.906250
7417		0.000000
7418		-3.906250
7419		-1.953125
7420		-5.859375
7421		-3.906250
7422		-7.812500
7423		-3.906250
7424		-7.812500
7425		-5.859375
7426		-9.765625
7427		-5.859375
7428		-9.765625
7429		-7.812500
7430		-11.718750
7431		-7.812500
7432		-11.718750
7433		-9.765625
7434		-13.671875
7435		-11.718750
7436		-13.671875
7437		-11.718750
7438		-15.625000
7439		-13.671875
7440		-17.578125
7441		-13.671875
7442		-17.578125
7443		-13.671875
7444		-17.578125
7445		-13.671875
7446		-17.578125
7447		-15.625000
7448		-19.531250
7449		-15.625000
7450		-19.531250
7451		-15.625000
7452		-19.531250
7453		-15.625000
7454		-19.531250
7455		-17.578125
7456		-19.531250
7457		-17.578125
7458		-19.531250
7459		-17.578125
7460		-19.531250
7461		-17.578125
7462		-19.531250
7463		-17.578125
7464		-19.531250
7465		-17.578125
7466		-19.531250
7467		-17.578125
7468		-19.531250
7469		-17.578125
7470		-19.531250
7471		-17.578125
7472		-17.578125
7473		-15.625000
7474		-19.531250
7475		-15.625000
7476		-17.578125
7477		-15.625000
7478		-17.578125
7479		-13.671875
7480		-15.625000
7481		-13.671875
7482		-15.625000
7483		-13.671875
7484		-15.625000
7485		-11.718750
7486		-13.671875
7487		-11.718750
7488		-13.671875
7489		-9.765625
7490		-11.718750
7491		-9.765625
7492		-11.718750
7493		-7.812500
7494		-9.765625
7495		-7.812500
7496		-9.765625
7497		-5.859375
7498		-9.765625
7499		-5.859375
7500		-7.812500
7501		-3.906250
7502		-5.859375
7503		-1.953125
7504		-3.906250
7505		-1.953125
7506		-3.906250
7507		0.000000
7508		-1.953125
7509		1.953125
7510		0.000000
7511		1.953125
7512		1.953125
7513		3.906250
7514		1.953125
7515		5.859375
7516		3.906250
7517		7.812500
7518		3.906250
7519		7.812500
7520		5.859375
7521		9.765625
7522		7.812500
7523		11.718750
7524		9.765625
7525		11.718750
7526		11.718750
7527		13.671875
7528		11.718750
7529		15.625000
7530		13.671875
7531		17.578125
7532		13.671875
7533		17.578125
7534		15.625000
7535		19.531250
7536		17.578125
7537		21.484375
7538		19.531250
7539		21.484375
7540		21.484375
7541		23.437500
7542		21.484375
7543		25.390625
7544		23.437500
7545		25.390625
7546		23.437500
7547		27.343750
7548		25.390625
7549		27.343750
7550		25.390625
7551		29.296875
7552		27.343750
7553		31.250000
7554		29.296875
7555		31.250000
7556		29.296875
7557		33.203125
7558		31.250000
7559		33.203125
7560		31.250000
7561		33.203125
7562		31.250000
7563		35.156250
7564		33.203125
7565		35.156250
7566		33.203125
7567		37.109375
7568		35.156250
7569		37.109375
7570		35.156250
7571		37.109375
7572		35.156250
7573		39.062500
7574		37.109375
7575		39.062500
7576		37.109375
7577		39.062500
7578		37.109375
7579		39.062500
7580		37.109375
7581		39.062500
7582		37.109375
7583		41.015625
7584		37.109375
7585		39.062500
7586		37.109375
7587		39.062500
7588		37.109375
7589		41.015625
7590		37.109375
7591		41.015625
7592		37.109375
7593		41.015625
7594		37.109375
7595		41.015625
7596		37.109375
7597		41.015625
7598		37.109375
7599		39.062500
7600		37.109375
7601		39.062500
7602		35.156250
7603		39.062500
7604		35.156250
7605		39.062500
7606		35.156250
7607		37.109375
7608		35.156250
7609		37.109375
7610		33.203125
7611		37.109375
7612		33.203125
7613		35.156250
7614		33.203125
7615		35.156250
7616		31.250000
7617		35.156250
7618		31.250000
7619		33.203125
7620		29.296875
7621		33.203125
7622		29.296875
7623		31.250000
7624		27.343750
7625		31.250000
7626		25.390625
7627		29.296875
7628		25.390625
7629		27.343750
7630		23.437500
7631		27.343750
7632		23.437500
7633		25.390625
7634		21.484375
7635		23.437500
7636		19.531250
7637		23.437500
7638		19.531250
7639		21.484375
7640		17.578125
7641		21.484375
7642		15.625000
7643		19.531250
7644		15.625000
7645		17.578125
7646		13.671875
7647		15.625000
7648		11.718750
7649		15.625000
7650		9.765625
7651		13.671875
7652		9.765625
7653		11.718750
7654		7.812500
7655		9.765625
7656		5.859375
7657		9.765625
7658		3.906250
7659		7.812500
7660		3.906250
7661		5.859375
7662		1.953125
7663		5.859375
7664		0.000000
7665		3.906250
7666		0.000000
7667		1.953125
7668		-1.953125
7669		1.953125
7670		-3.906250
7671		0.000000
7672		-5.859375
7673		-1.953125
7674		-5.859375
7675		-1.953125
7676		-7.812500
7677		-3.906250
7678		-9.765625
7679		-3.906250
7680		-9.765625
7681		-7.812500
7682		-9.765625
7683		-7.812500
7684		-11.718750
7685		-9.765625
7686		-13.671875
7687		-9.765625
7688		-13.671875
7689		-11.718750
7690		-15.625000
7691		-9.765625
7692		-17.578125
7693		-11.718750
7694		-17.578125
7695		-11.718750
7696		-17.578125
7697		-13.671875
7698		-19.531250
7699		-13.671875
7700		-17.578125
7701		-15.625000
7702		-17.578125
7703		-15.625000
7704		-19.531250
7705		-15.625000
7706		-21.484375
7707		-15.625000
7708		-19.531250
7709		-17.578125
7710		-19.531250
7711		-15.625000
7712		-21.484375
7713		-15.625000
7714		-21.484375
7715		-15.625000
7716		-19.531250
7717		-17.578125
7718		-19.531250
7719		-17.578125
7720		-21.484375
7721		-15.625000
7722		-19.531250
7723		-15.625000
7724		-19.531250
7725		-15.625000
7726		-19.531250
7727		-15.625000
7728		-19.531250
7729		-13.671875
7730		-17.578125
7731		-15.625000
7732		-19.531250
7733		-11.718750
7734		-15.625000
7735		-13.671875
7736		-15.625000
7737		-11.718750
7738		-15.625000
7739		-9.765625
7740		-17.578125
7741		-9.765625
7742		-13.671875
7743		-9.765625
7744		-13.671875
7745		-7.812500
7746		-11.718750
7747		-7.812500
7748		-11.718750
7749		-3.906250
7750		-9.765625
7751		-5.859375
7752		-7.812500
7753		-3.906250
7754		-7.812500
7755		-1.953125
7756		-7.812500
7757		0.000000
7758		-5.859375
7759		0.000000
7760		-3.906250
7761		0.000000
7762		-3.906250
7763		3.906250
7764		0.000000
7765		3.906250
7766		-1.953125
7767		5.859375
7768		1.953125
7769		5.859375
7770		3.906250
7771		7.812500
7772		3.906250
7773		11.718750
7774		5.859375
7775		11.718750
7776		7.812500
7777		11.718750
7778		7.812500
7779		13.671875
7780		7.812500
7781		15.625000
7782		9.765625
7783		17.578125
7784		13.671875
7785		17.578125
7786		15.625000
7787		19.531250
7788		15.625000
7789		19.531250
7790		13.671875
7791		23.437500
7792		19.531250
7793		21.484375
7794		21.484375
7795		23.437500
7796		19.531250
7797		29.296875
7798		21.484375
7799		31.250000
7800		21.484375
7801		29.296875
7802		25.390625
7803		29.296875
7804		25.390625
7805		31.250000
7806		23.437500
7807		33.203125
7808		27.343750
7809		33.203125
7810		29.296875
7811		33.203125
7812		29.296875
7813		37.109375
7814		27.343750
7815		37.109375
7816		29.296875
7817		37.109375
7818		33.203125
7819		35.156250
7820		33.203125
7821		37.109375
7822		33.203125
7823		39.062500
7824		31.250000
7825		41.015625
7826		35.156250
7827		39.062500
7828		37.109375
7829		39.062500
7830		33.203125
7831		42.968750
7832		35.156250
7833		42.968750
7834		37.109375
7835		41.015625
7836		37.109375
7837		39.062500
7838		37.109375
7839		41.015625
7840		35.156250
7841		42.968750
7842		37.109375
7843		41.015625
7844		37.109375
7845		39.062500
7846		35.156250
7847		42.968750
7848		35.156250
7849		42.968750
7850		33.203125
7851		41.015625
7852		37.109375
7853		39.062500
7854		35.156250
7855		39.062500
7856		33.203125
7857		41.015625
7858		33.203125
7859		39.062500
7860		35.156250
7861		37.109375
7862		31.250000
7863		37.109375
7864		29.296875
7865		39.062500
7866		31.250000
7867		37.109375
7868		31.250000
7869		35.156250
7870		31.250000
7871		33.203125
7872		29.296875
7873		33.203125
7874		25.390625
7875		35.156250
7876		27.343750
7877		33.203125
7878		25.390625
7879		29.296875
7880		21.484375
7881		31.250000
7882		23.437500
7883		29.296875
7884		23.437500
7885		27.343750
7886		21.484375
7887		25.390625
7888		19.531250
7889		23.437500
7890		15.625000
7891		25.390625
7892		17.578125
7893		23.437500
7894		17.578125
7895		19.531250
7896		13.671875
7897		19.531250
7898		11.718750
7899		19.531250
7900		11.718750
7901		17.578125
7902		11.718750
7903		15.625000
7904		9.765625
7905		13.671875
7906		7.812500
7907		13.671875
7908		3.906250
7909		13.671875
7910		5.859375
7911		9.765625
7912		3.906250
7913		7.812500
7914		0.000000
7915		9.765625
7916		0.000000
7917		5.859375
7918		0.000000
7919		3.906250
7920		-1.953125
7921		1.953125
7922		-3.906250
7923		0.000000
7924		-5.859375
7925		1.953125
7926		-5.859375
7927		0.000000
7928		-5.859375
7929		-1.953125
7930		-9.765625
7931		-1.953125
7932		-11.718750
7933		-3.906250
7934		-11.718750
7935		-5.859375
7936		-11.718750
7937		-7.812500
7938		-11.718750
7939		-9.765625
7940		-15.625000
7941		-7.812500
7942		-15.625000
7943		-9.765625
7944		-15.625000
7945		-11.718750
7946		-17.578125
7947		-11.718750
7948		-15.625000
7949		-13.671875
7950		-19.531250
7951		-11.718750
7952		-17.578125
7953		-13.671875
7954		-17.578125
7955		-15.625000
7956		-17.578125
7957		-15.625000
7958		-21.484375
7959		-13.671875
7960		-21.484375
7961		-15.625000
7962		-19.531250
7963		-15.625000
7964		-21.484375
7965		-15.625000
7966		-19.531250
7967		-17.578125
7968		-19.531250
7969		-17.578125
7970		-19.531250
7971		-17.578125
7972		-19.531250
7973		-17.578125
7974		-19.531250
7975		-15.625000
7976		-21.484375
7977		-15.625000
7978		-19.531250
7979		-15.625000
7980		-19.531250
7981		-13.671875
7982		-17.578125
7983		-15.625000
7984		-17.578125
7985		-13.671875
7986		-17.578125
7987		-13.671875
7988		-15.625000
7989		-13.671875
7990		-15.625000
7991		-13.671875
7992		-15.625000
7993		-11.718750
7994		-13.671875
7995		-9.765625
7996		-11.718750
7997		-9.765625
7998		-11.718750
7999		-7.812500
8000		-11.718750
8001		-7.812500
8002		-9.765625
8003		-5.859375
8004		-7.812500
8005		-5.859375
8006		-7.812500
8007		-3.906250
8008		-5.859375
8009		-3.906250
8010		-3.906250
8011		-1.953125
8012		-3.906250
8013		0.000000
8014		-1.953125
8015		0.000000
8016		0.000000
8017		1.953125
8018		0.000000
8019		3.906250
8020		1.953125
8021		5.859375
8022		3.906250
8023		7.812500
8024		3.906250
8025		9.765625
8026		5.859375
8027		9.765625
8028		5.859375
8029		11.718750
8030		7.812500
8031		13.671875
8032		9.765625
8033		13.671875
8034		9.765625
8035		15.625000
8036		13.671875
8037		15.625000
8038		13.671875
8039		17.578125
8040		15.625000
8041		19.531250
8042		15.625000
8043		21.484375
8044		17.578125
8045		23.437500
8046		19.531250
8047		23.437500
8048		19.531250
8049		25.390625
8050		21.484375
8051		27.343750
8052		23.437500
8053		27.343750
8054		25.390625
8055		27.343750
8056		25.390625
8057		31.250000
8058		25.390625
8059		31.250000
8060		27.343750
8061		31.250000
8062		29.296875
8063		33.203125
8064		29.296875
8065		33.203125
8066		29.296875
8067		35.156250
8068		31.250000
8069		35.156250
8070		33.203125
8071		35.156250
8072		33.203125
8073		35.156250
8074		33.203125
8075		39.062500
8076		33.203125
8077		39.062500
8078		35.156250
8079		39.062500
8080		33.203125
8081		39.062500
8082		35.156250
8083		41.015625
8084		35.156250
8085		41.015625
8086		37.109375
8087		39.062500
8088		37.109375
8089		39.062500
8090		37.109375
8091		41.015625
8092		37.109375
8093		41.015625
8094		37.109375
8095		41.015625
8096		35.156250
8097		42.968750
8098		37.109375
8099		41.015625
8100		37.109375
8101		41.015625
8102		37.109375
8103		41.015625
8104		37.109375
8105		39.062500
8106		35.156250
8107		39.062500
8108		35.156250
8109		39.062500
8110		35.156250
8111		39.062500
8112		33.203125
8113		39.062500
8114		35.156250
8115		37.109375
8116		33.203125
8117		37.109375
8118		33.203125
8119		37.109375
8120		33.203125
8121		35.156250
8122		31.250000
8123		35.156250
8124		29.296875
8125		35.156250
8126		29.296875
8127		33.203125
8128		27.343750
8129		33.203125
8130		25.390625
8131		33.203125
8132		25.390625
8133		31.250000
8134		25.390625
8135		29.296875
8136		23.437500
8137		29.296875
8138		23.437500
8139		25.390625
8140		21.484375
8141		25.390625
8142		21.484375
8143		23.437500
8144		19.531250
8145		23.437500
8146		15.625000
8147		23.437500
8148		15.625000
8149		21.484375
8150		15.625000
8151		19.531250
8152		13.671875
8153		17.578125
8154		11.718750
8155		15.625000
8156		11.718750
8157		13.671875
8158		9.765625
8159		13.671875
8160		7.812500
8161		11.718750
8162		5.859375
8163		9.765625
8164		3.906250
8165		11.718750
8166		3.906250
8167		7.812500
8168		1.953125
8169		5.859375
8170		0.000000
8171		3.906250
8172		0.000000
8173		1.953125
8174		-1.953125
8175		1.953125
8176		-3.906250
8177		0.000000
8178		-3.906250
8179		0.000000
8180		-7.812500
8181		-1.953125
8182		-7.812500
8183		-3.906250
8184		-7.812500
8185		-3.906250
8186		-9.765625
8187		-5.859375
8188		-9.765625
8189		-7.812500
8190		-11.718750
8191		-7.812500
8192		-11.718750
8193		-9.765625
8194		-13.671875
8195		-9.765625
8196		-15.625000
8197		-9.765625
8198		-15.625000
8199		-11.718750
8200		-15.625000
8201		-11.718750
8202		-17.578125
8203		-13.671875
8204		-17.578125
8205		-13.671875
8206		-17.578125
8207		-15.625000
8208		-19.531250
8209		-15.625000
8210		-19.531250
8211		-15.625000
8212		-19.531250
8213		-15.625000
8214		-19.531250
8215		-15.625000
8216		-19.531250
8217		-17.578125
8218		-19.531250
8219		-15.625000
8220		-21.484375
8221		-17.578125
8222		-19.531250
8223		-17.578125
8224		-19.531250
8225		-17.578125
8226		-19.531250
8227		-15.625000
8228		-19.531250
8229		-17.578125
8230		-21.484375
8231		-15.625000
8232		-19.531250
8233		-15.625000
8234		-19.531250
8235		-15.625000
8236		-17.578125
8237		-13.671875
8238		-17.578125
8239		-13.671875
8240		-15.625000
8241		-13.671875
8242		-17.578125
8243		-13.671875
8244		-15.625000
8245		-11.718750
8246		-15.625000
8247		-11.718750
8248		-13.671875
8249		-9.765625
8250		-11.718750
8251		-9.765625
8252		-11.718750
8253		-7.812500
8254		-9.765625
8255		-7.812500
8256		-9.765625
8257		-5.859375
8258		-7.812500
8259		-3.906250
8260		-7.812500
8261		-3.906250
8262		-5.859375
8263		-1.953125
8264		-5.859375
8265		-1.953125
8266		-3.906250
8267		0.000000
8268		-1.953125
8269		1.953125
8270		-1.953125
8271		1.953125
8272		0.000000
8273		3.906250
8274		1.953125
8275		5.859375
8276		3.906250
8277		7.812500
8278		5.859375
8279		7.812500
8280		5.859375
8281		9.765625
8282		7.812500
8283		11.718750
8284		9.765625
8285		11.718750
8286		9.765625
8287		13.671875
8288		11.718750
8289		15.625000
8290		13.671875
8291		17.578125
8292		13.671875
8293		17.578125
8294		15.625000
8295		19.531250
8296		15.625000
8297		21.484375
8298		19.531250
8299		21.484375
8300		19.531250
8301		23.437500
8302		21.484375
8303		23.437500
8304		21.484375
8305		25.390625
8306		23.437500
8307		27.343750
8308		25.390625
8309		29.296875
8310		25.390625
8311		29.296875
8312		27.343750
8313		29.296875
8314		27.343750
8315		31.250000
8316		29.296875
8317		33.203125
8318		29.296875
8319		33.203125
8320		31.250000
8321		35.156250
8322		31.250000
8323		35.156250
8324		33.203125
8325		35.156250
8326		33.203125
8327		37.109375
8328		33.203125
8329		37.109375
8330		35.156250
8331		37.109375
8332		35.156250
8333		39.062500
8334		35.156250
8335		39.062500
8336		35.156250
8337		39.062500
8338		37.109375
8339		39.062500
8340		37.109375
8341		39.062500
8342		37.109375
8343		41.015625
8344		37.109375
8345		41.015625
8346		37.109375
8347		41.015625
8348		37.109375
8349		41.015625
8350		37.109375
8351		41.015625
8352		37.109375
8353		41.015625
8354		37.109375
8355		41.015625
8356		37.109375
8357		39.062500
8358		35.156250
8359		41.015625
8360		37.109375
8361		39.062500
8362		35.156250
8363		39.062500
8364		35.156250
8365		39.062500
8366		35.156250
8367		39.062500
8368		35.156250
8369		37.109375
8370		33.203125
8371		37.109375
8372		33.203125
8373		35.156250
8374		33.203125
8375		35.156250
8376		31.250000
8377		35.156250
8378		31.250000
8379		33.203125
8380		29.296875
8381		33.203125
8382		29.296875
8383		31.250000
8384		27.343750
8385		31.250000
8386		25.390625
8387		31.250000
8388		25.390625
8389		29.296875
8390		23.437500
8391		27.343750
8392		21.484375
8393		25.390625
8394		21.484375
8395		25.390625
8396		19.531250
8397		23.437500
8398		19.531250
8399		23.437500
8400		17.578125
8401		21.484375
8402		15.625000
8403		19.531250
8404		15.625000
8405		17.578125
8406		13.671875
8407		17.578125
8408		11.718750
8409		15.625000
8410		9.765625
8411		13.671875
8412		7.812500
8413		13.671875
8414		7.812500
8415		11.718750
8416		5.859375
8417		9.765625
8418		3.906250
8419		7.812500
8420		3.906250
8421		7.812500
8422		1.953125
8423		5.859375
8424		0.000000
8425		3.906250
8426		0.000000
8427		1.953125
8428		-1.953125
8429		1.953125
8430		-3.906250
8431		0.000000
8432		-5.859375
8433		-1.953125
8434		-5.859375
8435		-1.953125
8436		-7.812500
8437		-3.906250
8438		-7.812500
8439		-3.906250
8440		-9.765625
8441		-5.859375
8442		-11.718750
8443		-7.812500
8444		-11.718750
8445		-7.812500
8446		-13.671875
8447		-9.765625
8448		-13.671875
8449		-9.765625
8450		-13.671875
8451		-11.718750
8452		-15.625000
8453		-11.718750
8454		-15.625000
8455		-13.671875
8456		-17.578125
8457		-13.671875
8458		-17.578125
8459		-13.671875
8460		-17.578125
8461		-15.625000
8462		-17.578125
8463		-15.625000
8464		-19.531250
8465		-15.625000
8466		-19.531250
8467		-15.625000
8468		-19.531250
8469		-15.625000
8470		-19.531250
8471		-17.578125
8472		-19.531250
8473		-15.625000
8474		-19.531250
8475		-17.578125
8476		-19.531250
8477		-15.625000
8478		-19.531250
8479		-17.578125
8480		-19.531250
8481		-15.625000
8482		-19.531250
8483		-15.625000
8484		-19.531250
8485		-15.625000
8486		-19.531250
8487		-15.625000
8488		-17.578125
8489		-15.625000
8490		-17.578125
8491		-13.671875
8492		-17.578125
8493		-13.671875
8494		-15.625000
8495		-13.671875
8496		-15.625000
8497		-11.718750
8498		-15.625000
8499		-11.718750
8500		-13.671875
8501		-9.765625
8502		-13.671875
8503		-9.765625
8504		-11.718750
8505		-7.812500
8506		-11.718750
8507		-7.812500
8508		-9.765625
8509		-7.812500
8510		-7.812500
8511		-5.859375
8512		-7.812500
8513		-3.906250
8514		-5.859375
8515		-3.906250
8516		-5.859375
8517		-1.953125
8518		-3.906250
8519		-1.953125
8520		-1.953125
8521		0.000000
8522		-1.953125
8523		1.953125
8524		0.000000
8525		3.906250
8526		1.953125
8527		3.906250
8528		1.953125
8529		5.859375
8530		3.906250
8531		7.812500
8532		5.859375
8533		7.812500
8534		5.859375
8535		9.765625
8536		7.812500
8537		11.718750
8538		9.765625
8539		13.671875
8540		11.718750
8541		13.671875
8542		11.718750
8543		15.625000
8544		13.671875
8545		17.578125
8546		13.671875
8547		19.531250
8548		17.578125
8549		19.531250
8550		17.578125
8551		21.484375
8552		19.531250
8553		23.437500
8554		21.484375
8555		23.437500
8556		21.484375
8557		25.390625
8558		23.437500
8559		25.390625
8560		23.437500
8561		27.343750
8562		25.390625
8563		29.296875
8564		27.343750
8565		29.296875
8566		27.343750
8567		31.250000
8568		29.296875
8569		31.250000
8570		29.296875
8571		33.203125
8572		29.296875
8573		35.156250
8574		31.250000
8575		35.156250
8576		33.203125
8577		35.156250
8578		33.203125
8579		35.156250
8580		33.203125
8581		37.109375
8582		35.156250
8583		37.109375
8584		35.156250
8585		39.062500
8586		35.156250
8587		39.062500
8588		35.156250
8589		39.062500
8590		37.109375
8591		41.015625
8592		37.109375
8593		39.062500
8594		37.109375
8595		41.015625
8596		37.109375
8597		39.062500
8598		37.109375
8599		41.015625
8600		37.109375
8601		41.015625
8602		37.109375
8603		41.015625
8604		37.109375
8605		41.015625
8606		37.109375
8607		41.015625
8608		37.109375
8609		39.062500
8610		37.109375
8611		41.015625
8612		37.109375
8613		41.015625
8614		37.109375
8615		39.062500
8616		35.156250
8617		39.062500
8618		35.156250
8619		39.062500
8620		35.156250
8621		37.109375
8622		33.203125
8623		37.109375
8624		33.203125
8625		37.109375
8626		33.203125
8627		35.156250
8628		31.250000
8629		35.156250
8630		31.250000
8631		35.156250
8632		31.250000
8633		33.203125
8634		29.296875
8635		33.203125
8636		27.343750
8637		31.250000
8638		27.343750
8639		31.250000
8640		25.390625
8641		29.296875
8642		25.390625
8643		27.343750
8644		23.437500
8645		27.343750
8646		21.484375
8647		25.390625
8648		21.484375
8649		23.437500
8650		19.531250
8651		23.437500
8652		17.578125
8653		23.437500
8654		17.578125
8655		21.484375
8656		15.625000
8657		19.531250
8658		15.625000
8659		17.578125
8660		13.671875
8661		15.625000
8662		11.718750
8663		15.625000
8664		9.765625
8665		13.671875
8666		7.812500
8667		11.718750
8668		7.812500
8669		11.718750
8670		5.859375
8671		9.765625
8672		3.906250
8673		7.812500
8674		3.906250
8675		7.812500
8676		1.953125
8677		3.906250
8678		0.000000
8679		3.906250
8680		0.000000
8681		1.953125
8682		-1.953125
8683		1.953125
8684		-3.906250
8685		0.000000
8686		-5.859375
8687		-1.953125
8688		-7.812500
8689		-1.953125
8690		-7.812500
8691		-3.906250
8692		-7.812500
8693		-5.859375
8694		-9.765625
8695		-5.859375
8696		-11.718750
8697		-5.859375
8698		-11.718750
8699		-9.765625
8700		-13.671875
8701		-9.765625
8702		-13.671875
8703		-9.765625
8704		-13.671875
8705		-11.718750
8706		-15.625000
8707		-11.718750
8708		-15.625000
8709		-11.718750
8710		-15.625000
8711		-13.671875
8712		-17.578125
8713		-13.671875
8714		-17.578125
8715		-15.625000
8716		-19.531250
8717		-15.625000
8718		-19.531250
8719		-15.625000
8720		-19.531250
8721		-15.625000
8722		-19.531250
8723		-15.625000
8724		-19.531250
8725		-15.625000
8726		-19.531250
8727		-17.578125
8728		-21.484375
8729		-17.578125
8730		-19.531250
8731		-17.578125
8732		-19.531250
8733		-17.578125
8734		-19.531250
8735		-17.578125
8736		-19.531250
8737		-15.625000
8738		-19.531250
8739		-15.625000
8740		-19.531250
8741		-15.625000
8742		-17.578125
8743		-15.625000
8744		-17.578125
8745		-15.625000
8746		-17.578125
8747		-13.671875
8748		-15.625000
8749		-11.718750
8750		-15.625000
8751		-11.718750
8752		-13.671875
8753		-11.718750
8754		-13.671875
8755		-9.765625
8756		-13.671875
8757		-9.765625
8758		-11.718750
8759		-9.765625
8760		-11.718750
8761		-7.812500
8762		-9.765625
8763		-5.859375
8764		-9.765625
8765		-5.859375
8766		-7.812500
8767		-3.906250
8768		-5.859375
8769		-3.906250
8770		-5.859375
8771		-1.953125
8772		-3.906250
8773		0.000000
8774		-3.906250
8775		1.953125
8776		-1.953125
8777		1.953125
8778		0.000000
8779		3.906250
8780		1.953125
8781		5.859375
8782		1.953125
8783		5.859375
8784		3.906250
8785		7.812500
8786		5.859375
8787		9.765625
8788		7.812500
8789		9.765625
8790		7.812500
8791		11.718750
8792		9.765625
8793		13.671875
8794		11.718750
8795		13.671875
8796		11.718750
8797		15.625000
8798		13.671875
8799		17.578125
8800		15.625000
8801		19.531250
8802		15.625000
8803		19.531250
8804		17.578125
8805		21.484375
8806		19.531250
8807		23.437500
8808		19.531250
8809		23.437500
8810		21.484375
8811		25.390625
8812		23.437500
8813		27.343750
8814		23.437500
8815		27.343750
8816		25.390625
8817		29.296875
8818		25.390625
8819		29.296875
8820		27.343750
8821		31.250000
8822		29.296875
8823		33.203125
8824		29.296875
8825		33.203125
8826		31.250000
8827		33.203125
8828		31.250000
8829		35.156250
8830		31.250000
8831		35.156250
8832		33.203125
8833		37.109375
8834		33.203125
8835		37.109375
8836		35.156250
8837		37.109375
8838		35.156250
8839		39.062500
8840		35.156250
8841		39.062500
8842		35.156250
8843		39.062500
8844		37.109375
8845		39.062500
8846		37.109375
8847		41.015625
8848		37.109375
8849		39.062500
8850		37.109375
8851		41.015625
8852		37.109375
8853		41.015625
8854		37.109375
8855		41.015625
8856		37.109375
8857		41.015625
8858		37.109375
8859		41.015625
8860		37.109375
8861		41.015625
8862		37.109375
8863		41.015625
8864		37.109375
8865		41.015625
8866		37.109375
8867		39.062500
8868		37.109375
8869		39.062500
8870		37.109375
8871		39.062500
8872		35.156250
8873		37.109375
8874		35.156250
8875		37.109375
8876		35.156250
8877		37.109375
8878		33.203125
8879		35.156250
8880		31.250000
8881		35.156250
8882		31.250000
8883		35.156250
8884		31.250000
8885		33.203125
8886		29.296875
8887		33.203125
8888		29.296875
8889		31.250000
8890		27.343750
8891		31.250000
8892		27.343750
8893		29.296875
8894		25.390625
8895		29.296875
8896		23.437500
8897		27.343750
8898		23.437500
8899		27.343750
8900		21.484375
8901		25.390625
8902		21.484375
8903		23.437500
8904		19.531250
8905		23.437500
8906		17.578125
8907		21.484375
8908		15.625000
8909		21.484375
8910		15.625000
8911		19.531250
8912		13.671875
8913		17.578125
8914		11.718750
8915		15.625000
8916		11.718750
8917		13.671875
8918		9.765625
8919		13.671875
8920		7.812500
8921		11.718750
8922		5.859375
8923		9.765625
8924		5.859375
8925		9.765625
8926		3.906250
8927		7.812500
8928		1.953125
8929		5.859375
8930		0.000000
8931		3.906250
8932		0.000000
8933		3.906250
8934		-1.953125
8935		1.953125
8936		-1.953125
8937		0.000000
8938		-3.906250
8939		0.000000
8940		-5.859375
8941		-1.953125
8942		-5.859375
8943		-1.953125
8944		-7.812500
8945		-3.906250
8946		-7.812500
8947		-5.859375
8948		-9.765625
8949		-5.859375
8950		-11.718750
8951		-7.812500
8952		-11.718750
8953		-9.765625
8954		-13.671875
8955		-9.765625
8956		-13.671875
8957		-11.718750
8958		-15.625000
8959		-11.718750
8960		-15.625000
8961		-11.718750
8962		-15.625000
8963		-13.671875
8964		-17.578125
8965		-13.671875
8966		-17.578125
8967		-13.671875
8968		-17.578125
8969		-15.625000
8970		-19.531250
8971		-15.625000
8972		-19.531250
8973		-15.625000
8974		-19.531250
8975		-15.625000
8976		-21.484375
8977		-15.625000
8978		-19.531250
8979		-17.578125
8980		-19.531250
8981		-15.625000
8982		-21.484375
8983		-17.578125
8984		-19.531250
8985		-17.578125
8986		-19.531250
8987		-17.578125
8988		-19.531250
8989		-15.625000
8990		-19.531250
8991		-15.625000
8992		-19.531250
8993		-15.625000
8994		-17.578125
8995		-15.625000
8996		-17.578125
8997		-15.625000
8998		-17.578125
8999		-13.671875
9000		-17.578125
9001		-13.671875
9002		-15.625000
9003		-13.671875
9004		-15.625000
9005		-11.718750
9006		-15.625000
9007		-11.718750
9008		-13.671875
9009		-9.765625
9010		-11.718750
9011		-9.765625
9012		-11.718750
9013		-9.765625
9014		-11.718750
9015		-7.812500
9016		-9.765625
9017		-5.859375
9018		-7.812500
9019		-3.906250
9020		-7.812500
9021		-3.906250
9022		-5.859375
9023		-1.953125
9024		-3.906250
9025		-1.953125
9026		-3.906250
9027		0.000000
9028		-1.953125
9029		0.000000
9030		0.000000
9031		1.953125
9032		0.000000
9033		3.906250
9034		1.953125
9035		5.859375
9036		3.906250
9037		7.812500
9038		3.906250
9039		7.812500
9040		5.859375
9041		9.765625
9042		7.812500
9043		11.718750
9044		7.812500
9045		11.718750
9046		9.765625
9047		13.671875
9048		11.718750
9049		15.625000
9050		13.671875
9051		15.625000
9052		13.671875
9053		17.578125
9054		15.625000
9055		19.531250
9056		17.578125
9057		21.484375
9058		17.578125
9059		21.484375
9060		19.531250
9061		23.437500
9062		21.484375
9063		23.437500
9064		23.437500
9065		25.390625
9066		23.437500
9067		27.343750
9068		25.390625
9069		27.343750
9070		25.390625
9071		29.296875
9072		27.343750
9073		31.250000
9074		27.343750
9075		31.250000
9076		29.296875
9077		33.203125
9078		31.250000
9079		33.203125
9080		31.250000
9081		33.203125
9082		31.250000
9083		35.156250
9084		33.203125
9085		35.156250
9086		33.203125
9087		37.109375
9088		35.156250
9089		37.109375
9090		35.156250
9091		39.062500
9092		35.156250
9093		39.062500
9094		35.156250
9095		39.062500
9096		37.109375
9097		39.062500
9098		37.109375
9099		41.015625
9100		37.109375
9101		41.015625
9102		37.109375
9103		41.015625
9104		37.109375
9105		41.015625
9106		37.109375
9107		41.015625
9108		37.109375
9109		41.015625
9110		37.109375
9111		41.015625
9112		37.109375
9113		41.015625
9114		37.109375
9115		39.062500
9116		35.156250
9117		41.015625
9118		37.109375
9119		39.062500
9120		37.109375
9121		39.062500
9122		35.156250
9123		39.062500
9124		35.156250
9125		39.062500
9126		35.156250
9127		39.062500
9128		33.203125
9129		39.062500
9130		35.156250
9131		37.109375
9132		33.203125
9133		35.156250
9134		33.203125
9135		35.156250
9136		31.250000
9137		35.156250
9138		31.250000
9139		33.203125
9140		29.296875
9141		33.203125
9142		29.296875
9143		31.250000
9144		27.343750
9145		31.250000
9146		27.343750
9147		29.296875
9148		25.390625
9149		29.296875
9150		23.437500
9151		29.296875
9152		23.437500
9153		27.343750
9154		21.484375
9155		25.390625
9156		19.531250
9157		23.437500
9158		19.531250
9159		23.437500
9160		17.578125
9161		21.484375
9162		17.578125
9163		19.531250
9164		15.625000
9165		17.578125
9166		13.671875
9167		17.578125
9168		11.718750
9169		15.625000
9170		11.718750
9171		13.671875
9172		9.765625
9173		13.671875
9174		7.812500
9175		11.718750
9176		5.859375
9177		9.765625
9178		3.906250
9179		7.812500
9180		3.906250
9181		7.812500
9182		1.953125
9183		5.859375
9184		0.000000
9185		3.906250
9186		0.000000
9187		3.906250
9188		-1.953125
9189		1.953125
9190		-3.906250
9191		0.000000
9192		-3.906250
9193		-1.953125
9194		-7.812500
9195		-1.953125
9196		-5.859375
9197		-3.906250
9198		-7.812500
9199		-5.859375
9200		-9.765625
9201		-5.859375
9202		-9.765625
9203		-5.859375
9204		-11.718750
9205		-7.812500
9206		-11.718750
9207		-9.765625
9208		-13.671875
9209		-9.765625
9210		-13.671875
9211		-9.765625
9212		-15.625000
9213		-11.718750
9214		-15.625000
9215		-13.671875
9216		-17.578125
9217		-13.671875
9218		-17.578125
9219		-13.671875
9220		-17.578125
9221		-15.625000
9222		-17.578125
9223		-15.625000
9224		-19.531250
9225		-15.625000
9226		-19.531250
9227		-15.625000
9228		-19.531250
9229		-17.578125
9230		-19.531250
9231		-17.578125
9232		-19.531250
9233		-17.578125
9234		-19.531250
9235		-17.578125
9236		-19.531250
9237		-17.578125
9238		-19.531250
9239		-17.578125
9240		-19.531250
9241		-17.578125
9242		-19.531250
9243		-15.625000
9244		-19.531250
9245		-15.625000
9246		-19.531250
9247		-15.625000
9248		-17.578125
9249		-15.625000
9250		-17.578125
9251		-13.671875
9252		-17.578125
9253		-13.671875
9254		-17.578125
9255		-13.671875
9256		-15.625000
9257		-11.718750
9258		-15.625000
9259		-11.718750
9260		-13.671875
9261		-11.718750
9262		-15.625000
9263		-9.765625
9264		-11.718750
9265		-9.765625
9266		-11.718750
9267		-7.812500
9268		-9.765625
9269		-5.859375
9270		-9.765625
9271		-5.859375
9272		-7.812500
9273		-5.859375
9274		-7.812500
9275		-3.906250
9276		-5.859375
9277		-1.953125
9278		-3.906250
9279		0.000000
9280		-3.906250
9281		0.000000
9282		-1.953125
9283		1.953125
9284		-1.953125
9285		3.906250
9286		0.000000
9287		3.906250
9288		1.953125
9289		5.859375
9290		3.906250
9291		7.812500
9292		3.906250
9293		7.812500
9294		5.859375
9295		9.765625
9296		7.812500
9297		11.718750
9298		9.765625
9299		11.718750
9300		9.765625
9301		13.671875
9302		11.718750
9303		15.625000
9304		13.671875
9305		17.578125
9306		15.625000
9307		17.578125
9308		15.625000
9309		19.531250
9310		17.578125
9311		21.484375
9312		19.531250
9313		21.484375
9314		19.531250
9315		23.437500
9316		21.484375
9317		25.390625
9318		21.484375
9319		25.390625
9320		23.437500
9321		27.343750
9322		25.390625
9323		27.343750
9324		25.390625
9325		29.296875
9326		27.343750
9327		31.250000
9328		29.296875
9329		31.250000
9330		27.343750
9331		33.203125
9332		31.250000
9333		33.203125
9334		31.250000
9335		35.156250
9336		31.250000
9337		35.156250
9338		33.203125
9339		37.109375
9340		33.203125
9341		37.109375
9342		35.156250
9343		37.109375
9344		33.203125
9345		37.109375
9346		35.156250
9347		39.062500
9348		37.109375
9349		39.062500
9350		35.156250
9351		39.062500
9352		37.109375
9353		41.015625
9354		37.109375
9355		39.062500
9356		37.109375
9357		41.015625
9358		37.109375
9359		41.015625
9360		37.109375
9361		41.015625
9362		37.109375
9363		41.015625
9364		39.062500
9365		41.015625
9366		37.109375
9367		41.015625
9368		37.109375
9369		41.015625
9370		37.109375
9371		41.015625
9372		37.109375
9373		39.062500
9374		35.156250
9375		39.062500
9376		35.156250
9377		39.062500
9378		35.156250
9379		39.062500
9380		35.156250
9381		39.062500
9382		35.156250
9383		37.109375
9384		33.203125
9385		37.109375
9386		33.203125
9387		37.109375
9388		31.250000
9389		35.156250
9390		31.250000
9391		35.156250
9392		31.250000
9393		33.203125
9394		29.296875
9395		33.203125
9396		27.343750
9397		31.250000
9398		27.343750
9399		31.250000
9400		25.390625
9401		29.296875
9402		25.390625
9403		29.296875
9404		23.437500
9405		27.343750
9406		23.437500
9407		25.390625
9408		21.484375
9409		25.390625
9410		19.531250
9411		23.437500
9412		19.531250
9413		23.437500
9414		17.578125
9415		21.484375
9416		15.625000
9417		19.531250
9418		13.671875
9419		17.578125
9420		13.671875
9421		17.578125
9422		11.718750
9423		15.625000
9424		9.765625
9425		13.671875
9426		9.765625
9427		13.671875
9428		7.812500
9429		11.718750
9430		5.859375
9431		9.765625
9432		5.859375
9433		7.812500
9434		1.953125
9435		5.859375
9436		1.953125
9437		5.859375
9438		0.000000
9439		3.906250
9440		0.000000
9441		1.953125
9442		-1.953125
9443		1.953125
9444		-3.906250
9445		0.000000
9446		-3.906250
9447		0.000000
9448		-5.859375
9449		-3.906250
9450		-7.812500
9451		-3.906250
9452		-7.812500
9453		-3.906250
9454		-9.765625
9455		-5.859375
9456		-11.718750
9457		-5.859375
9458		-11.718750
9459		-7.812500
9460		-13.671875
9461		-9.765625
9462		-13.671875
9463		-9.765625
9464		-15.625000
9465		-11.718750
9466		-15.625000
9467		-11.718750
9468		-15.625000
9469		-13.671875
9470		-17.578125
9471		-13.671875
9472		-17.578125
9473		-13.671875
9474		-17.578125
9475		-15.625000
9476		-17.578125
9477		-15.625000
9478		-19.531250
9479		-15.625000
9480		-19.531250
9481		-15.625000
9482		-19.531250
9483		-17.578125
9484		-19.531250
9485		-17.578125
9486		-21.484375
9487		-15.625000
9488		-19.531250
9489		-17.578125
9490		-19.531250
9491		-17.578125
9492		-19.531250
9493		-17.578125
9494		-19.531250
9495		-15.625000
9496		-19.531250
9497		-15.625000
9498		-19.531250
9499		-15.625000
9500		-17.578125
9501		-15.625000
9502		-19.531250
9503		-13.671875
9504		-17.578125
9505		-13.671875
9506		-17.578125
9507		-13.671875
9508		-15.625000
9509		-13.671875
9510		-15.625000
9511		-11.718750
9512		-15.625000
9513		-11.718750
9514		-13.671875
9515		-11.718750
9516		-13.671875
9517		-9.765625
9518		-11.718750
9519		-7.812500
9520		-11.718750
9521		-7.812500
9522		-9.765625
9523		-5.859375
9524		-7.812500
9525		-5.859375
9526		-7.812500
9527		-3.906250
9528		-7.812500
9529		-3.906250
9530		-5.859375
9531		-1.953125
9532		-3.906250
9533		0.000000
9534		-1.953125
9535		0.000000
9536		-1.953125
9537		1.953125
9538		0.000000
9539		3.906250
9540		0.000000
9541		5.859375
9542		1.953125
9543		5.859375
9544		3.906250
9545		7.812500
9546		5.859375
9547		9.765625
9548		5.859375
9549		9.765625
9550		7.812500
9551		11.718750
9552		9.765625
9553		13.671875
9554		11.718750
9555		15.625000
9556		11.718750
9557		15.625000
9558		13.671875
9559		17.578125
9560		15.625000
9561		19.531250
9562		17.578125
9563		19.531250
9564		17.578125
9565		21.484375
9566		19.531250
9567		21.484375
9568		21.484375
9569		23.437500
9570		21.484375
9571		25.390625
9572		23.437500
9573		27.343750
9574		25.390625
9575		27.343750
9576		25.390625
9577		29.296875
9578		27.343750
9579		29.296875
9580		27.343750
9581		31.250000
9582		29.296875
9583		31.250000
9584		29.296875
9585		33.203125
9586		29.296875
9587		33.203125
9588		31.250000
9589		35.156250
9590		31.250000
9591		35.156250
9592		33.203125
9593		37.109375
9594		33.203125
9595		37.109375
9596		35.156250
9597		37.109375
9598		35.156250
9599		39.062500
9600		35.156250
9601		39.062500
9602		35.156250
9603		39.062500
9604		37.109375
9605		39.062500
9606		37.109375
9607		39.062500
9608		37.109375
9609		39.062500
9610		37.109375
9611		41.015625
9612		37.109375
9613		41.015625
9614		37.109375
9615		41.015625
9616		37.109375
9617		41.015625
9618		37.109375
9619		41.015625
9620		37.109375
9621		41.015625
9622		37.109375
9623		41.015625
9624		37.109375
9625		41.015625
9626		37.109375
9627		39.062500
9628		37.109375
9629		39.062500
9630		35.156250
9631		39.062500
9632		35.156250
9633		39.062500
9634		35.156250
9635		37.109375
9636		33.203125
9637		37.109375
9638		33.203125
9639		37.109375
9640		33.203125
9641		35.156250
9642		31.250000
9643		35.156250
9644		31.250000
9645		35.156250
9646		29.296875
9647		33.203125
9648		27.343750
9649		33.203125
9650		29.296875
9651		31.250000
9652		27.343750
9653		29.296875
9654		25.390625
9655		29.296875
9656		25.390625
9657		27.343750
9658		23.437500
9659		27.343750
9660		21.484375
9661		25.390625
9662		21.484375
9663		25.390625
9664		19.531250
9665		23.437500
9666		19.531250
9667		21.484375
9668		17.578125
9669		19.531250
9670		15.625000
9671		19.531250
9672		13.671875
9673		17.578125
9674		11.718750
9675		17.578125
9676		9.765625
9677		15.625000
9678		9.765625
9679		13.671875
9680		7.812500
9681		13.671875
9682		5.859375
9683		9.765625
9684		5.859375
9685		9.765625
9686		3.906250
9687		7.812500
9688		1.953125
9689		5.859375
9690		1.953125
9691		5.859375
9692		0.000000
9693		3.906250
9694		-1.953125
9695		1.953125
9696		-1.953125
9697		0.000000
9698		-3.906250
9699		0.000000
9700		-5.859375
9701		-1.953125
9702		-5.859375
9703		-3.906250
9704		-7.812500
9705		-3.906250
9706		-9.765625
9707		-5.859375
9708		-9.765625
9709		-7.812500
9710		-11.718750
9711		-7.812500
9712		-11.718750
9713		-7.812500
9714		-13.671875
9715		-9.765625
9716		-13.671875
9717		-11.718750
9718		-15.625000
9719		-11.718750
9720		-15.625000
9721		-11.718750
9722		-15.625000
9723		-13.671875
9724		-17.578125
9725		-13.671875
9726		-17.578125
9727		-15.625000
9728		-17.578125
9729		-15.625000
9730		-19.531250
9731		-15.625000
9732		-19.531250
9733		-15.625000
9734		-19.531250
9735		-17.578125
9736		-19.531250
9737		-17.578125
9738		-19.531250
9739		-17.578125
9740		-19.531250
9741		-17.578125
9742		-21.484375
9743		-15.625000
9744		-19.531250
9745		-17.578125
9746		-19.531250
9747		-17.578125
9748		-19.531250
9749		-17.578125
9750		-19.531250
9751		-15.625000
9752		-19.531250
9753		-15.625000
9754		-19.531250
9755		-15.625000
9756		-17.578125
9757		-15.625000
9758		-17.578125
9759		-13.671875
9760		-17.578125
9761		-13.671875
9762		-15.625000
9763		-13.671875
9764		-15.625000
9765		-13.671875
9766		-15.625000
9767		-11.718750
9768		-13.671875
9769		-11.718750
9770		-13.671875
9771		-9.765625
9772		-13.671875
9773		-9.765625
9774		-11.718750
9775		-7.812500
9776		-9.765625
9777		-7.812500
9778		-7.812500
9779		-5.859375
9780		-7.812500
9781		-3.906250
9782		-5.859375
9783		-1.953125
9784		-5.859375
9785		-1.953125
9786		-3.906250
9787		0.000000
9788		-3.906250
9789		0.000000
9790		-1.953125
9791		1.953125
9792		0.000000
9793		3.906250
9794		0.000000
9795		5.859375
9796		3.906250
9797		7.812500
9798		3.906250
9799		7.812500
9800		3.906250
9801		9.765625
9802		5.859375
9803		9.765625
9804		7.812500
9805		13.671875
9806		9.765625
9807		13.671875
9808		11.718750
9809		15.625000
9810		11.718750
9811		15.625000
9812		13.671875
9813		17.578125
9814		15.625000
9815		19.531250
9816		15.625000
9817		21.484375
9818		17.578125
9819		21.484375
9820		19.531250
9821		23.437500
9822		21.484375
9823		23.437500
9824		21.484375
9825		25.390625
9826		23.437500
9827		27.343750
9828		25.390625
9829		27.343750
9830		25.390625
9831		29.296875
9832		27.343750
9833		29.296875
9834		27.343750
9835		31.250000
9836		29.296875
9837		31.250000
9838		29.296875
9839		33.203125
9840		31.250000
9841		33.203125
9842		31.250000
9843		35.156250
9844		31.250000
9845		35.156250
9846		33.203125
9847		37.109375
9848		33.203125
9849		37.109375
9850		35.156250
9851		37.109375
9852		35.156250
9853		39.062500
9854		35.156250
9855		39.062500
9856		35.156250
9857		39.062500
9858		37.109375
9859		39.062500
9860		37.109375
9861		39.062500
9862		37.109375
9863		39.062500
9864		37.109375
9865		41.015625
9866		37.109375
9867		41.015625
9868		37.109375
9869		41.015625
9870		37.109375
9871		41.015625
9872		37.109375
9873		41.015625
9874		37.109375
9875		41.015625
9876		37.109375
9877		41.015625
9878		35.156250
9879		41.015625
9880		37.109375
9881		39.062500
9882		35.156250
9883		39.062500
9884		35.156250
9885		39.062500
9886		35.156250
9887		37.109375
9888		35.156250
9889		37.109375
9890		33.203125
9891		37.109375
9892		33.203125
9893		37.109375
9894		33.203125
9895		37.109375
9896		31.250000
9897		35.156250
9898		29.296875
9899		33.203125
9900		29.296875
9901		33.203125
9902		29.296875
9903		31.250000
9904		27.343750
9905		31.250000
9906		27.343750
9907		29.296875
9908		25.390625
9909		29.296875
9910		23.437500
9911		27.343750
9912		23.437500
9913		27.343750
9914		21.484375
9915		25.390625
9916		21.484375
9917		23.437500
9918		19.531250
9919		23.437500
9920		17.578125
9921		21.484375
9922		15.625000
9923		19.531250
9924		15.625000
9925		17.578125
9926		13.671875
9927		17.578125
9928		11.718750
9929		15.625000
9930		9.765625
9931		15.625000
9932		9.765625
9933		13.671875
9934		7.812500
9935		11.718750
9936		7.812500
9937		9.765625
9938		5.859375
9939		7.812500
9940		3.906250
9941		7.812500
9942		1.953125
9943		5.859375
9944		1.953125
9945		3.906250
9946		0.000000
9947		3.906250
9948		-1.953125
9949		1.953125
9950		-3.906250
9951		0.000000
9952		-3.906250
9953		0.000000
9954		-5.859375
9955		-1.953125
9956		-7.812500
9957		-3.906250
9958		-7.812500
9959		-3.906250
9960		-9.765625
9961		-5.859375
9962		-9.765625
9963		-7.812500
9964		-11.718750
9965		-7.812500
9966		-11.718750
9967		-9.765625
9968		-13.671875
9969		-9.765625
9970		-13.671875
9971		-11.718750
9972		-15.625000
9973		-11.718750
9974		-15.625000
9975		-11.718750
9976		-15.625000
9977		-13.671875
9978		-17.578125
9979		-13.671875
9980		-17.578125
9981		-15.625000
9982		-19.531250
9983		-15.625000
9984		-19.531250
9985		-15.625000
9986		-19.531250
9987		-17.578125
9988		-19.531250
9989		-17.578125
9990		-21.484375
9991		-17.578125
9992		-19.531250
9993		-17.578125
9994		-19.531250
9995		-17.578125
9996		-19.531250
9997		-17.578125
9998		-19.531250
9999		-17.578125
10000		-19.531250
