Channel              :		CH1
Frequency            :		1.061kHz
Period               :		0.943ms
PK-PK                :		35.16mV
Probe attenuation    :		1X
Voltage per ADC value:		0.122070mV
Time interval        :		2.00000us

index		CH1_Voltage(mV)
1		7.812500
2		7.812500
3		5.859375
4		7.812500
5		5.859375
6		7.812500
7		3.906250
8		7.812500
9		3.906250
10		7.812500
11		3.906250
12		7.812500
13		3.906250
14		7.812500
15		3.906250
16		7.812500
17		3.906250
18		7.812500
19		3.906250
20		5.859375
21		1.953125
22		5.859375
23		1.953125
24		5.859375
25		3.906250
26		5.859375
27		1.953125
28		5.859375
29		1.953125
30		5.859375
31		1.953125
32		5.859375
33		1.953125
34		3.906250
35		1.953125
36		3.906250
37		1.953125
38		5.859375
39		1.953125
40		3.906250
41		1.953125
42		3.906250
43		1.953125
44		3.906250
45		1.953125
46		3.906250
47		1.953125
48		3.906250
49		0.000000
50		3.906250
51		0.000000
52		3.906250
53		0.000000
54		3.906250
55		0.000000
56		3.906250
57		0.000000
58		3.906250
59		0.000000
60		3.906250
61		0.000000
62		3.906250
63		0.000000
64		3.906250
65		0.000000
66		3.906250
67		0.000000
68		3.906250
69		0.000000
70		1.953125
71		0.000000
72		3.906250
73		0.000000
74		3.906250
75		0.000000
76		3.906250
77		0.000000
78		3.906250
79		0.000000
80		3.906250
81		0.000000
82		3.906250
83		0.000000
84		3.906250
85		0.000000
86		3.906250
87		0.000000
88		1.953125
89		0.000000
90		3.906250
91		0.000000
92		3.906250
93		0.000000
94		3.906250
95		0.000000
96		3.906250
97		0.000000
98		3.906250
99		0.000000
100		3.906250
101		0.000000
102		3.906250
103		1.953125
104		3.906250
105		0.000000
106		3.906250
107		0.000000
108		3.906250
109		0.000000
110		3.906250
111		1.953125
112		3.906250
113		0.000000
114		3.906250
115		1.953125
116		3.906250
117		0.000000
118		5.859375
119		1.953125
120		3.906250
121		0.000000
122		5.859375
123		1.953125
124		5.859375
125		1.953125
126		5.859375
127		1.953125
128		5.859375
129		3.906250
130		5.859375
131		1.953125
132		5.859375
133		1.953125
134		5.859375
135		3.906250
136		5.859375
137		3.906250
138		5.859375
139		3.906250
140		7.812500
141		3.906250
142		7.812500
143		3.906250
144		7.812500
145		3.906250
146		7.812500
147		3.906250
148		7.812500
149		5.859375
150		7.812500
151		5.859375
152		9.765625
153		5.859375
154		7.812500
155		3.906250
156		9.765625
157		5.859375
158		9.765625
159		5.859375
160		9.765625
161		5.859375
162		9.765625
163		7.812500
164		9.765625
165		7.812500
166		9.765625
167		7.812500
168		11.718750
169		7.812500
170		9.765625
171		7.812500
172		11.718750
173		5.859375
174		11.718750
175		9.765625
176		11.718750
177		7.812500
178		11.718750
179		9.765625
180		11.718750
181		9.765625
182		13.671875
183		9.765625
184		13.671875
185		9.765625
186		13.671875
187		11.718750
188		13.671875
189		9.765625
190		13.671875
191		11.718750
192		15.625000
193		11.718750
194		13.671875
195		11.718750
196		15.625000
197		11.718750
198		15.625000
199		11.718750
200		15.625000
201		11.718750
202		15.625000
203		11.718750
204		15.625000
205		13.671875
206		17.578125
207		13.671875
208		15.625000
209		13.671875
210		17.578125
211		13.671875
212		17.578125
213		13.671875
214		17.578125
215		13.671875
216		17.578125
217		15.625000
218		17.578125
219		15.625000
220		19.531250
221		15.625000
222		19.531250
223		15.625000
224		19.531250
225		15.625000
226		19.531250
227		15.625000
228		19.531250
229		17.578125
230		19.531250
231		17.578125
232		21.484375
233		17.578125
234		19.531250
235		17.578125
236		21.484375
237		17.578125
238		21.484375
239		17.578125
240		21.484375
241		19.531250
242		21.484375
243		17.578125
244		21.484375
245		19.531250
246		21.484375
247		19.531250
248		23.437500
249		19.531250
250		21.484375
251		19.531250
252		23.437500
253		19.531250
254		23.437500
255		21.484375
256		23.437500
257		19.531250
258		25.390625
259		21.484375
260		25.390625
261		21.484375
262		23.437500
263		21.484375
264		23.437500
265		21.484375
266		25.390625
267		21.484375
268		25.390625
269		21.484375
270		25.390625
271		23.437500
272		25.390625
273		23.437500
274		25.390625
275		23.437500
276		25.390625
277		23.437500
278		27.343750
279		23.437500
280		25.390625
281		23.437500
282		25.390625
283		23.437500
284		25.390625
285		23.437500
286		27.343750
287		23.437500
288		27.343750
289		23.437500
290		27.343750
291		23.437500
292		27.343750
293		25.390625
294		27.343750
295		23.437500
296		27.343750
297		23.437500
298		27.343750
299		25.390625
300		27.343750
301		23.437500
302		29.296875
303		25.390625
304		27.343750
305		25.390625
306		27.343750
307		23.437500
308		29.296875
309		25.390625
310		29.296875
311		25.390625
312		29.296875
313		25.390625
314		27.343750
315		25.390625
316		29.296875
317		25.390625
318		29.296875
319		25.390625
320		27.343750
321		25.390625
322		27.343750
323		25.390625
324		29.296875
325		25.390625
326		27.343750
327		25.390625
328		27.343750
329		25.390625
330		27.343750
331		25.390625
332		27.343750
333		25.390625
334		27.343750
335		23.437500
336		27.343750
337		25.390625
338		27.343750
339		25.390625
340		27.343750
341		23.437500
342		27.343750
343		23.437500
344		27.343750
345		25.390625
346		27.343750
347		23.437500
348		27.343750
349		23.437500
350		27.343750
351		23.437500
352		27.343750
353		23.437500
354		27.343750
355		23.437500
356		25.390625
357		23.437500
358		27.343750
359		23.437500
360		27.343750
361		23.437500
362		25.390625
363		23.437500
364		27.343750
365		23.437500
366		25.390625
367		21.484375
368		25.390625
369		21.484375
370		25.390625
371		23.437500
372		25.390625
373		21.484375
374		25.390625
375		21.484375
376		25.390625
377		21.484375
378		25.390625
379		21.484375
380		25.390625
381		19.531250
382		23.437500
383		21.484375
384		23.437500
385		19.531250
386		23.437500
387		19.531250
388		23.437500
389		19.531250
390		23.437500
391		19.531250
392		23.437500
393		19.531250
394		21.484375
395		19.531250
396		21.484375
397		17.578125
398		21.484375
399		17.578125
400		21.484375
401		17.578125
402		21.484375
403		15.625000
404		21.484375
405		17.578125
406		19.531250
407		17.578125
408		19.531250
409		15.625000
410		19.531250
411		15.625000
412		19.531250
413		15.625000
414		19.531250
415		15.625000
416		19.531250
417		15.625000
418		19.531250
419		13.671875
420		17.578125
421		15.625000
422		17.578125
423		13.671875
424		17.578125
425		13.671875
426		17.578125
427		13.671875
428		15.625000
429		13.671875
430		15.625000
431		11.718750
432		15.625000
433		11.718750
434		15.625000
435		11.718750
436		15.625000
437		11.718750
438		15.625000
439		11.718750
440		13.671875
441		9.765625
442		13.671875
443		9.765625
444		13.671875
445		9.765625
446		13.671875
447		9.765625
448		13.671875
449		9.765625
450		13.671875
451		9.765625
452		11.718750
453		7.812500
454		11.718750
455		7.812500
456		11.718750
457		7.812500
458		11.718750
459		7.812500
460		11.718750
461		7.812500
462		9.765625
463		5.859375
464		9.765625
465		5.859375
466		9.765625
467		5.859375
468		9.765625
469		5.859375
470		9.765625
471		5.859375
472		7.812500
473		5.859375
474		7.812500
475		5.859375
476		7.812500
477		3.906250
478		7.812500
479		3.906250
480		7.812500
481		3.906250
482		7.812500
483		3.906250
484		7.812500
485		3.906250
486		5.859375
487		1.953125
488		7.812500
489		3.906250
490		5.859375
491		1.953125
492		5.859375
493		1.953125
494		5.859375
495		1.953125
496		5.859375
497		1.953125
498		5.859375
499		1.953125
500		5.859375
501		1.953125
502		3.906250
503		1.953125
504		5.859375
505		1.953125
506		3.906250
507		1.953125
508		3.906250
509		0.000000
510		3.906250
511		1.953125
512		3.906250
513		0.000000
514		3.906250
515		0.000000
516		3.906250
517		0.000000
518		3.906250
519		0.000000
520		3.906250
521		0.000000
522		3.906250
523		0.000000
524		1.953125
525		0.000000
526		1.953125
527		0.000000
528		3.906250
529		0.000000
530		3.906250
531		0.000000
532		3.906250
533		0.000000
534		1.953125
535		0.000000
536		3.906250
537		0.000000
538		3.906250
539		0.000000
540		1.953125
541		0.000000
542		1.953125
543		0.000000
544		1.953125
545		0.000000
546		1.953125
547		0.000000
548		1.953125
549		-1.953125
550		1.953125
551		0.000000
552		1.953125
553		-1.953125
554		3.906250
555		0.000000
556		1.953125
557		0.000000
558		1.953125
559		0.000000
560		3.906250
561		0.000000
562		1.953125
563		0.000000
564		1.953125
565		0.000000
566		3.906250
567		0.000000
568		3.906250
569		0.000000
570		3.906250
571		0.000000
572		3.906250
573		0.000000
574		1.953125
575		0.000000
576		3.906250
577		0.000000
578		3.906250
579		0.000000
580		3.906250
581		0.000000
582		3.906250
583		0.000000
584		3.906250
585		1.953125
586		3.906250
587		1.953125
588		3.906250
589		1.953125
590		3.906250
591		1.953125
592		3.906250
593		0.000000
594		5.859375
595		1.953125
596		5.859375
597		1.953125
598		5.859375
599		1.953125
600		5.859375
601		1.953125
602		5.859375
603		1.953125
604		5.859375
605		1.953125
606		5.859375
607		3.906250
608		5.859375
609		3.906250
610		5.859375
611		3.906250
612		5.859375
613		3.906250
614		7.812500
615		3.906250
616		7.812500
617		3.906250
618		7.812500
619		3.906250
620		7.812500
621		3.906250
622		7.812500
623		5.859375
624		7.812500
625		5.859375
626		7.812500
627		5.859375
628		7.812500
629		5.859375
630		9.765625
631		5.859375
632		9.765625
633		5.859375
634		9.765625
635		5.859375
636		9.765625
637		7.812500
638		9.765625
639		5.859375
640		9.765625
641		7.812500
642		9.765625
643		7.812500
644		11.718750
645		7.812500
646		11.718750
647		9.765625
648		11.718750
649		9.765625
650		11.718750
651		9.765625
652		11.718750
653		9.765625
654		11.718750
655		7.812500
656		13.671875
657		9.765625
658		11.718750
659		9.765625
660		13.671875
661		9.765625
662		13.671875
663		11.718750
664		13.671875
665		11.718750
666		13.671875
667		11.718750
668		13.671875
669		11.718750
670		15.625000
671		11.718750
672		15.625000
673		13.671875
674		15.625000
675		13.671875
676		15.625000
677		13.671875
678		17.578125
679		13.671875
680		15.625000
681		13.671875
682		17.578125
683		13.671875
684		17.578125
685		13.671875
686		17.578125
687		15.625000
688		17.578125
689		13.671875
690		17.578125
691		15.625000
692		17.578125
693		15.625000
694		19.531250
695		15.625000
696		19.531250
697		15.625000
698		19.531250
699		15.625000
700		19.531250
701		17.578125
702		19.531250
703		17.578125
704		21.484375
705		17.578125
706		21.484375
707		17.578125
708		19.531250
709		17.578125
710		21.484375
711		17.578125
712		21.484375
713		17.578125
714		21.484375
715		19.531250
716		21.484375
717		19.531250
718		21.484375
719		19.531250
720		21.484375
721		19.531250
722		23.437500
723		19.531250
724		23.437500
725		19.531250
726		23.437500
727		19.531250
728		23.437500
729		21.484375
730		23.437500
731		21.484375
732		23.437500
733		21.484375
734		25.390625
735		21.484375
736		25.390625
737		21.484375
738		25.390625
739		21.484375
740		25.390625
741		21.484375
742		25.390625
743		21.484375
744		25.390625
745		21.484375
746		25.390625
747		21.484375
748		25.390625
749		23.437500
750		25.390625
751		23.437500
752		25.390625
753		23.437500
754		25.390625
755		21.484375
756		27.343750
757		23.437500
758		25.390625
759		23.437500
760		27.343750
761		23.437500
762		27.343750
763		23.437500
764		27.343750
765		23.437500
766		27.343750
767		23.437500
768		27.343750
769		23.437500
770		27.343750
771		25.390625
772		27.343750
773		25.390625
774		27.343750
775		25.390625
776		27.343750
777		23.437500
778		27.343750
779		25.390625
780		27.343750
781		25.390625
782		27.343750
783		25.390625
784		27.343750
785		25.390625
786		27.343750
787		25.390625
788		27.343750
789		25.390625
790		27.343750
791		25.390625
792		27.343750
793		25.390625
794		27.343750
795		23.437500
796		29.296875
797		25.390625
798		27.343750
799		25.390625
800		27.343750
801		25.390625
802		27.343750
803		25.390625
804		27.343750
805		25.390625
806		27.343750
807		23.437500
808		27.343750
809		25.390625
810		27.343750
811		23.437500
812		27.343750
813		23.437500
814		27.343750
815		23.437500
816		27.343750
817		23.437500
818		27.343750
819		23.437500
820		27.343750
821		23.437500
822		27.343750
823		23.437500
824		27.343750
825		23.437500
826		27.343750
827		23.437500
828		25.390625
829		23.437500
830		25.390625
831		23.437500
832		25.390625
833		21.484375
834		25.390625
835		23.437500
836		25.390625
837		21.484375
838		25.390625
839		21.484375
840		25.390625
841		21.484375
842		25.390625
843		21.484375
844		25.390625
845		21.484375
846		25.390625
847		21.484375
848		25.390625
849		19.531250
850		25.390625
851		21.484375
852		23.437500
853		21.484375
854		23.437500
855		19.531250
856		23.437500
857		19.531250
858		23.437500
859		19.531250
860		21.484375
861		17.578125
862		23.437500
863		19.531250
864		23.437500
865		19.531250
866		21.484375
867		17.578125
868		21.484375
869		17.578125
870		21.484375
871		17.578125
872		21.484375
873		17.578125
874		21.484375
875		17.578125
876		19.531250
877		17.578125
878		19.531250
879		15.625000
880		19.531250
881		15.625000
882		19.531250
883		15.625000
884		19.531250
885		15.625000
886		19.531250
887		15.625000
888		17.578125
889		15.625000
890		17.578125
891		13.671875
892		17.578125
893		13.671875
894		17.578125
895		13.671875
896		15.625000
897		13.671875
898		15.625000
899		13.671875
900		15.625000
901		11.718750
902		15.625000
903		11.718750
904		15.625000
905		11.718750
906		15.625000
907		11.718750
908		15.625000
909		11.718750
910		13.671875
911		9.765625
912		13.671875
913		9.765625
914		13.671875
915		9.765625
916		13.671875
917		9.765625
918		13.671875
919		9.765625
920		11.718750
921		7.812500
922		11.718750
923		7.812500
924		11.718750
925		7.812500
926		11.718750
927		7.812500
928		11.718750
929		5.859375
930		11.718750
931		7.812500
932		9.765625
933		5.859375
934		9.765625
935		7.812500
936		9.765625
937		5.859375
938		9.765625
939		5.859375
940		9.765625
941		5.859375
942		9.765625
943		5.859375
944		7.812500
945		3.906250
946		7.812500
947		3.906250
948		7.812500
949		3.906250
950		7.812500
951		3.906250
952		7.812500
953		3.906250
954		5.859375
955		3.906250
956		5.859375
957		1.953125
958		5.859375
959		3.906250
960		5.859375
961		3.906250
962		5.859375
963		1.953125
964		5.859375
965		1.953125
966		5.859375
967		1.953125
968		5.859375
969		1.953125
970		5.859375
971		1.953125
972		3.906250
973		1.953125
974		3.906250
975		0.000000
976		3.906250
977		1.953125
978		3.906250
979		0.000000
980		3.906250
981		0.000000
982		3.906250
983		0.000000
984		3.906250
985		0.000000
986		3.906250
987		0.000000
988		3.906250
989		0.000000
990		3.906250
991		0.000000
992		3.906250
993		0.000000
994		1.953125
995		-1.953125
996		3.906250
997		0.000000
998		3.906250
999		0.000000
1000		1.953125
1001		0.000000
1002		1.953125
1003		0.000000
1004		1.953125
1005		0.000000
1006		3.906250
1007		-1.953125
1008		1.953125
1009		0.000000
1010		1.953125
1011		0.000000
1012		1.953125
1013		0.000000
1014		1.953125
1015		-1.953125
1016		1.953125
1017		0.000000
1018		1.953125
1019		0.000000
1020		1.953125
1021		0.000000
1022		1.953125
1023		0.000000
1024		1.953125
1025		-1.953125
1026		1.953125
1027		0.000000
1028		1.953125
1029		0.000000
1030		3.906250
1031		0.000000
1032		1.953125
1033		0.000000
1034		1.953125
1035		0.000000
1036		1.953125
1037		0.000000
1038		1.953125
1039		0.000000
1040		3.906250
1041		-1.953125
1042		3.906250
1043		0.000000
1044		1.953125
1045		0.000000
1046		1.953125
1047		0.000000
1048		3.906250
1049		0.000000
1050		3.906250
1051		0.000000
1052		3.906250
1053		0.000000
1054		3.906250
1055		1.953125
1056		3.906250
1057		0.000000
1058		3.906250
1059		1.953125
1060		3.906250
1061		1.953125
1062		3.906250
1063		0.000000
1064		3.906250
1065		1.953125
1066		3.906250
1067		1.953125
1068		3.906250
1069		1.953125
1070		5.859375
1071		1.953125
1072		5.859375
1073		1.953125
1074		5.859375
1075		1.953125
1076		5.859375
1077		3.906250
1078		5.859375
1079		3.906250
1080		5.859375
1081		1.953125
1082		5.859375
1083		3.906250
1084		7.812500
1085		3.906250
1086		7.812500
1087		3.906250
1088		7.812500
1089		3.906250
1090		7.812500
1091		3.906250
1092		7.812500
1093		3.906250
1094		7.812500
1095		5.859375
1096		7.812500
1097		5.859375
1098		7.812500
1099		5.859375
1100		9.765625
1101		5.859375
1102		9.765625
1103		5.859375
1104		9.765625
1105		5.859375
1106		9.765625
1107		5.859375
1108		9.765625
1109		5.859375
1110		11.718750
1111		7.812500
1112		9.765625
1113		7.812500
1114		9.765625
1115		7.812500
1116		11.718750
1117		7.812500
1118		11.718750
1119		7.812500
1120		11.718750
1121		7.812500
1122		11.718750
1123		9.765625
1124		11.718750
1125		7.812500
1126		11.718750
1127		9.765625
1128		11.718750
1129		9.765625
1130		11.718750
1131		9.765625
1132		13.671875
1133		9.765625
1134		13.671875
1135		11.718750
1136		13.671875
1137		9.765625
1138		13.671875
1139		11.718750
1140		13.671875
1141		11.718750
1142		15.625000
1143		11.718750
1144		15.625000
1145		13.671875
1146		15.625000
1147		11.718750
1148		15.625000
1149		13.671875
1150		15.625000
1151		13.671875
1152		17.578125
1153		13.671875
1154		17.578125
1155		13.671875
1156		17.578125
1157		13.671875
1158		17.578125
1159		13.671875
1160		17.578125
1161		15.625000
1162		17.578125
1163		15.625000
1164		17.578125
1165		15.625000
1166		19.531250
1167		15.625000
1168		19.531250
1169		15.625000
1170		19.531250
1171		15.625000
1172		19.531250
1173		17.578125
1174		19.531250
1175		15.625000
1176		19.531250
1177		17.578125
1178		19.531250
1179		17.578125
1180		19.531250
1181		17.578125
1182		21.484375
1183		17.578125
1184		21.484375
1185		17.578125
1186		21.484375
1187		17.578125
1188		21.484375
1189		19.531250
1190		21.484375
1191		17.578125
1192		23.437500
1193		19.531250
1194		23.437500
1195		19.531250
1196		21.484375
1197		19.531250
1198		23.437500
1199		19.531250
1200		23.437500
1201		19.531250
1202		23.437500
1203		21.484375
1204		23.437500
1205		21.484375
1206		23.437500
1207		21.484375
1208		23.437500
1209		21.484375
1210		25.390625
1211		21.484375
1212		23.437500
1213		21.484375
1214		23.437500
1215		21.484375
1216		25.390625
1217		21.484375
1218		25.390625
1219		21.484375
1220		25.390625
1221		23.437500
1222		25.390625
1223		23.437500
1224		25.390625
1225		23.437500
1226		25.390625
1227		21.484375
1228		27.343750
1229		23.437500
1230		25.390625
1231		23.437500
1232		27.343750
1233		23.437500
1234		27.343750
1235		23.437500
1236		27.343750
1237		23.437500
1238		25.390625
1239		23.437500
1240		27.343750
1241		23.437500
1242		27.343750
1243		23.437500
1244		27.343750
1245		23.437500
1246		27.343750
1247		25.390625
1248		27.343750
1249		23.437500
1250		27.343750
1251		25.390625
1252		27.343750
1253		25.390625
1254		27.343750
1255		23.437500
1256		27.343750
1257		23.437500
1258		27.343750
1259		23.437500
1260		27.343750
1261		23.437500
1262		27.343750
1263		25.390625
1264		27.343750
1265		23.437500
1266		27.343750
1267		23.437500
1268		27.343750
1269		25.390625
1270		27.343750
1271		23.437500
1272		27.343750
1273		23.437500
1274		27.343750
1275		23.437500
1276		27.343750
1277		23.437500
1278		27.343750
1279		25.390625
1280		27.343750
1281		23.437500
1282		27.343750
1283		23.437500
1284		27.343750
1285		23.437500
1286		27.343750
1287		23.437500
1288		27.343750
1289		23.437500
1290		27.343750
1291		23.437500
1292		25.390625
1293		21.484375
1294		27.343750
1295		23.437500
1296		25.390625
1297		23.437500
1298		25.390625
1299		23.437500
1300		27.343750
1301		23.437500
1302		25.390625
1303		23.437500
1304		25.390625
1305		21.484375
1306		25.390625
1307		21.484375
1308		25.390625
1309		21.484375
1310		25.390625
1311		21.484375
1312		25.390625
1313		21.484375
1314		23.437500
1315		21.484375
1316		25.390625
1317		21.484375
1318		23.437500
1319		21.484375
1320		23.437500
1321		19.531250
1322		23.437500
1323		19.531250
1324		23.437500
1325		19.531250
1326		23.437500
1327		19.531250
1328		23.437500
1329		19.531250
1330		21.484375
1331		19.531250
1332		21.484375
1333		17.578125
1334		21.484375
1335		17.578125
1336		21.484375
1337		17.578125
1338		21.484375
1339		17.578125
1340		21.484375
1341		17.578125
1342		19.531250
1343		17.578125
1344		21.484375
1345		17.578125
1346		21.484375
1347		17.578125
1348		19.531250
1349		15.625000
1350		19.531250
1351		15.625000
1352		19.531250
1353		15.625000
1354		19.531250
1355		15.625000
1356		17.578125
1357		15.625000
1358		17.578125
1359		13.671875
1360		17.578125
1361		13.671875
1362		17.578125
1363		13.671875
1364		17.578125
1365		13.671875
1366		15.625000
1367		13.671875
1368		15.625000
1369		11.718750
1370		15.625000
1371		11.718750
1372		15.625000
1373		11.718750
1374		15.625000
1375		11.718750
1376		15.625000
1377		11.718750
1378		15.625000
1379		11.718750
1380		13.671875
1381		11.718750
1382		13.671875
1383		9.765625
1384		13.671875
1385		9.765625
1386		13.671875
1387		9.765625
1388		11.718750
1389		9.765625
1390		11.718750
1391		7.812500
1392		11.718750
1393		7.812500
1394		11.718750
1395		7.812500
1396		11.718750
1397		7.812500
1398		9.765625
1399		5.859375
1400		11.718750
1401		7.812500
1402		9.765625
1403		7.812500
1404		9.765625
1405		5.859375
1406		9.765625
1407		5.859375
1408		9.765625
1409		5.859375
1410		9.765625
1411		5.859375
1412		9.765625
1413		5.859375
1414		7.812500
1415		5.859375
1416		7.812500
1417		3.906250
1418		7.812500
1419		3.906250
1420		7.812500
1421		3.906250
1422		7.812500
1423		3.906250
1424		7.812500
1425		3.906250
1426		7.812500
1427		3.906250
1428		5.859375
1429		1.953125
1430		5.859375
1431		3.906250
1432		5.859375
1433		1.953125
1434		5.859375
1435		1.953125
1436		5.859375
1437		1.953125
1438		3.906250
1439		1.953125
1440		3.906250
1441		1.953125
1442		3.906250
1443		1.953125
1444		3.906250
1445		0.000000
1446		3.906250
1447		1.953125
1448		3.906250
1449		0.000000
1450		3.906250
1451		0.000000
1452		3.906250
1453		0.000000
1454		3.906250
1455		0.000000
1456		3.906250
1457		0.000000
1458		3.906250
1459		0.000000
1460		3.906250
1461		0.000000
1462		3.906250
1463		0.000000
1464		1.953125
1465		0.000000
1466		1.953125
1467		-1.953125
1468		1.953125
1469		-1.953125
1470		3.906250
1471		-1.953125
1472		1.953125
1473		0.000000
1474		1.953125
1475		-1.953125
1476		1.953125
1477		-1.953125
1478		1.953125
1479		-1.953125
1480		1.953125
1481		-1.953125
1482		1.953125
1483		-1.953125
1484		1.953125
1485		-1.953125
1486		1.953125
1487		-1.953125
1488		1.953125
1489		-1.953125
1490		1.953125
1491		-1.953125
1492		1.953125
1493		-1.953125
1494		1.953125
1495		-1.953125
1496		1.953125
1497		-1.953125
1498		1.953125
1499		0.000000
1500		1.953125
1501		-1.953125
1502		1.953125
1503		-1.953125
1504		1.953125
1505		0.000000
1506		1.953125
1507		-1.953125
1508		1.953125
1509		0.000000
1510		1.953125
1511		-1.953125
1512		1.953125
1513		-1.953125
1514		1.953125
1515		0.000000
1516		1.953125
1517		0.000000
1518		1.953125
1519		0.000000
1520		1.953125
1521		0.000000
1522		3.906250
1523		0.000000
1524		3.906250
1525		0.000000
1526		3.906250
1527		0.000000
1528		3.906250
1529		0.000000
1530		3.906250
1531		1.953125
1532		3.906250
1533		0.000000
1534		3.906250
1535		0.000000
1536		3.906250
1537		0.000000
1538		3.906250
1539		1.953125
1540		3.906250
1541		1.953125
1542		5.859375
1543		1.953125
1544		5.859375
1545		1.953125
1546		3.906250
1547		1.953125
1548		3.906250
1549		1.953125
1550		5.859375
1551		1.953125
1552		5.859375
1553		1.953125
1554		5.859375
1555		1.953125
1556		5.859375
1557		3.906250
1558		5.859375
1559		3.906250
1560		5.859375
1561		3.906250
1562		5.859375
1563		3.906250
1564		7.812500
1565		3.906250
1566		5.859375
1567		3.906250
1568		7.812500
1569		3.906250
1570		7.812500
1571		3.906250
1572		7.812500
1573		5.859375
1574		7.812500
1575		5.859375
1576		9.765625
1577		5.859375
1578		9.765625
1579		5.859375
1580		9.765625
1581		7.812500
1582		9.765625
1583		7.812500
1584		9.765625
1585		7.812500
1586		9.765625
1587		7.812500
1588		9.765625
1589		7.812500
1590		9.765625
1591		7.812500
1592		11.718750
1593		7.812500
1594		11.718750
1595		7.812500
1596		11.718750
1597		7.812500
1598		11.718750
1599		9.765625
1600		11.718750
1601		7.812500
1602		13.671875
1603		9.765625
1604		13.671875
1605		9.765625
1606		13.671875
1607		9.765625
1608		13.671875
1609		9.765625
1610		13.671875
1611		11.718750
1612		13.671875
1613		11.718750
1614		15.625000
1615		11.718750
1616		13.671875
1617		11.718750
1618		15.625000
1619		11.718750
1620		15.625000
1621		11.718750
1622		15.625000
1623		13.671875
1624		15.625000
1625		13.671875
1626		15.625000
1627		13.671875
1628		15.625000
1629		13.671875
1630		17.578125
1631		13.671875
1632		17.578125
1633		15.625000
1634		17.578125
1635		13.671875
1636		19.531250
1637		15.625000
1638		17.578125
1639		15.625000
1640		17.578125
1641		15.625000
1642		17.578125
1643		15.625000
1644		19.531250
1645		17.578125
1646		19.531250
1647		17.578125
1648		19.531250
1649		17.578125
1650		19.531250
1651		17.578125
1652		21.484375
1653		17.578125
1654		21.484375
1655		17.578125
1656		21.484375
1657		17.578125
1658		21.484375
1659		17.578125
1660		21.484375
1661		19.531250
1662		21.484375
1663		19.531250
1664		21.484375
1665		19.531250
1666		21.484375
1667		19.531250
1668		21.484375
1669		19.531250
1670		23.437500
1671		19.531250
1672		23.437500
1673		19.531250
1674		23.437500
1675		19.531250
1676		23.437500
1677		21.484375
1678		23.437500
1679		21.484375
1680		23.437500
1681		21.484375
1682		25.390625
1683		21.484375
1684		23.437500
1685		19.531250
1686		25.390625
1687		21.484375
1688		25.390625
1689		21.484375
1690		25.390625
1691		21.484375
1692		25.390625
1693		21.484375
1694		25.390625
1695		21.484375
1696		25.390625
1697		21.484375
1698		25.390625
1699		23.437500
1700		25.390625
1701		23.437500
1702		25.390625
1703		21.484375
1704		25.390625
1705		23.437500
1706		25.390625
1707		23.437500
1708		25.390625
1709		23.437500
1710		25.390625
1711		23.437500
1712		27.343750
1713		23.437500
1714		27.343750
1715		23.437500
1716		25.390625
1717		23.437500
1718		27.343750
1719		23.437500
1720		27.343750
1721		23.437500
1722		27.343750
1723		23.437500
1724		27.343750
1725		23.437500
1726		27.343750
1727		23.437500
1728		27.343750
1729		23.437500
1730		27.343750
1731		23.437500
1732		27.343750
1733		23.437500
1734		27.343750
1735		23.437500
1736		27.343750
1737		23.437500
1738		27.343750
1739		23.437500
1740		27.343750
1741		23.437500
1742		27.343750
1743		23.437500
1744		27.343750
1745		23.437500
1746		27.343750
1747		23.437500
1748		27.343750
1749		23.437500
1750		27.343750
1751		23.437500
1752		27.343750
1753		23.437500
1754		27.343750
1755		23.437500
1756		27.343750
1757		23.437500
1758		27.343750
1759		23.437500
1760		25.390625
1761		23.437500
1762		25.390625
1763		23.437500
1764		25.390625
1765		23.437500
1766		27.343750
1767		23.437500
1768		25.390625
1769		21.484375
1770		27.343750
1771		21.484375
1772		25.390625
1773		21.484375
1774		25.390625
1775		21.484375
1776		25.390625
1777		21.484375
1778		25.390625
1779		21.484375
1780		25.390625
1781		21.484375
1782		25.390625
1783		21.484375
1784		23.437500
1785		21.484375
1786		23.437500
1787		21.484375
1788		25.390625
1789		19.531250
1790		23.437500
1791		19.531250
1792		23.437500
1793		19.531250
1794		23.437500
1795		19.531250
1796		23.437500
1797		17.578125
1798		23.437500
1799		19.531250
1800		21.484375
1801		19.531250
1802		21.484375
1803		17.578125
1804		21.484375
1805		19.531250
1806		21.484375
1807		17.578125
1808		21.484375
1809		17.578125
1810		21.484375
1811		17.578125
1812		19.531250
1813		17.578125
1814		19.531250
1815		15.625000
1816		19.531250
1817		17.578125
1818		19.531250
1819		15.625000
1820		19.531250
1821		15.625000
1822		19.531250
1823		15.625000
1824		19.531250
1825		15.625000
1826		17.578125
1827		13.671875
1828		17.578125
1829		13.671875
1830		17.578125
1831		13.671875
1832		17.578125
1833		13.671875
1834		15.625000
1835		13.671875
1836		15.625000
1837		11.718750
1838		17.578125
1839		11.718750
1840		15.625000
1841		11.718750
1842		15.625000
1843		11.718750
1844		15.625000
1845		11.718750
1846		15.625000
1847		11.718750
1848		13.671875
1849		9.765625
1850		13.671875
1851		9.765625
1852		13.671875
1853		9.765625
1854		13.671875
1855		9.765625
1856		13.671875
1857		9.765625
1858		11.718750
1859		9.765625
1860		11.718750
1861		7.812500
1862		11.718750
1863		7.812500
1864		11.718750
1865		7.812500
1866		11.718750
1867		7.812500
1868		9.765625
1869		7.812500
1870		9.765625
1871		7.812500
1872		9.765625
1873		5.859375
1874		9.765625
1875		5.859375
1876		9.765625
1877		5.859375
1878		9.765625
1879		5.859375
1880		9.765625
1881		3.906250
1882		7.812500
1883		3.906250
1884		7.812500
1885		5.859375
1886		7.812500
1887		3.906250
1888		7.812500
1889		3.906250
1890		7.812500
1891		3.906250
1892		5.859375
1893		3.906250
1894		7.812500
1895		1.953125
1896		5.859375
1897		1.953125
1898		5.859375
1899		1.953125
1900		5.859375
1901		1.953125
1902		5.859375
1903		1.953125
1904		5.859375
1905		1.953125
1906		5.859375
1907		1.953125
1908		3.906250
1909		1.953125
1910		3.906250
1911		0.000000
1912		3.906250
1913		0.000000
1914		3.906250
1915		0.000000
1916		3.906250
1917		0.000000
1918		3.906250
1919		0.000000
1920		3.906250
1921		0.000000
1922		3.906250
1923		0.000000
1924		3.906250
1925		0.000000
1926		3.906250
1927		-1.953125
1928		1.953125
1929		0.000000
1930		1.953125
1931		-1.953125
1932		1.953125
1933		-1.953125
1934		1.953125
1935		0.000000
1936		1.953125
1937		-1.953125
1938		1.953125
1939		-1.953125
1940		1.953125
1941		-1.953125
1942		1.953125
1943		-1.953125
1944		1.953125
1945		-1.953125
1946		1.953125
1947		-1.953125
1948		1.953125
1949		-1.953125
1950		1.953125
1951		-1.953125
1952		1.953125
1953		-1.953125
1954		1.953125
1955		-1.953125
1956		1.953125
1957		-1.953125
1958		1.953125
1959		-1.953125
1960		1.953125
1961		-3.906250
1962		1.953125
1963		-1.953125
1964		1.953125
1965		-1.953125
1966		1.953125
1967		-1.953125
1968		1.953125
1969		-1.953125
1970		1.953125
1971		-1.953125
1972		1.953125
1973		-1.953125
1974		1.953125
1975		-1.953125
1976		1.953125
1977		-3.906250
1978		3.906250
1979		-3.906250
1980		3.906250
1981		-1.953125
1982		3.906250
1983		-1.953125
1984		1.953125
1985		0.000000
1986		1.953125
1987		-1.953125
1988		3.906250
1989		0.000000
1990		1.953125
1991		-1.953125
1992		1.953125
1993		-1.953125
1994		3.906250
1995		-1.953125
1996		3.906250
1997		-1.953125
1998		3.906250
1999		0.000000
2000		3.906250
2001		0.000000
2002		1.953125
2003		0.000000
2004		3.906250
2005		0.000000
2006		3.906250
2007		-1.953125
2008		5.859375
2009		0.000000
2010		5.859375
2011		-1.953125
2012		5.859375
2013		0.000000
2014		5.859375
2015		-1.953125
2016		5.859375
2017		0.000000
2018		5.859375
2019		1.953125
2020		3.906250
2021		0.000000
2022		5.859375
2023		1.953125
2024		7.812500
2025		0.000000
2026		7.812500
2027		1.953125
2028		7.812500
2029		1.953125
2030		7.812500
2031		1.953125
2032		7.812500
2033		1.953125
2034		7.812500
2035		3.906250
2036		5.859375
2037		3.906250
2038		7.812500
2039		3.906250
2040		9.765625
2041		1.953125
2042		9.765625
2043		3.906250
2044		9.765625
2045		3.906250
2046		9.765625
2047		3.906250
2048		9.765625
2049		3.906250
2050		9.765625
2051		5.859375
2052		9.765625
2053		5.859375
2054		9.765625
2055		5.859375
2056		11.718750
2057		5.859375
2058		11.718750
2059		5.859375
2060		11.718750
2061		5.859375
2062		11.718750
2063		5.859375
2064		11.718750
2065		5.859375
2066		13.671875
2067		5.859375
2068		13.671875
2069		9.765625
2070		11.718750
2071		7.812500
2072		13.671875
2073		7.812500
2074		13.671875
2075		7.812500
2076		13.671875
2077		7.812500
2078		13.671875
2079		7.812500
2080		13.671875
2081		7.812500
2082		15.625000
2083		9.765625
2084		15.625000
2085		11.718750
2086		13.671875
2087		11.718750
2088		13.671875
2089		9.765625
2090		15.625000
2091		9.765625
2092		15.625000
2093		9.765625
2094		17.578125
2095		9.765625
2096		17.578125
2097		11.718750
2098		17.578125
2099		11.718750
2100		17.578125
2101		11.718750
2102		17.578125
2103		13.671875
2104		17.578125
2105		13.671875
2106		19.531250
2107		13.671875
2108		19.531250
2109		13.671875
2110		19.531250
2111		13.671875
2112		19.531250
2113		13.671875
2114		21.484375
2115		13.671875
2116		21.484375
2117		13.671875
2118		21.484375
2119		17.578125
2120		19.531250
2121		17.578125
2122		19.531250
2123		15.625000
2124		21.484375
2125		15.625000
2126		21.484375
2127		15.625000
2128		21.484375
2129		15.625000
2130		23.437500
2131		15.625000
2132		23.437500
2133		15.625000
2134		23.437500
2135		19.531250
2136		21.484375
2137		19.531250
2138		21.484375
2139		17.578125
2140		23.437500
2141		17.578125
2142		25.390625
2143		17.578125
2144		23.437500
2145		17.578125
2146		25.390625
2147		17.578125
2148		25.390625
2149		17.578125
2150		25.390625
2151		19.531250
2152		25.390625
2153		21.484375
2154		23.437500
2155		19.531250
2156		25.390625
2157		19.531250
2158		25.390625
2159		19.531250
2160		25.390625
2161		19.531250
2162		27.343750
2163		19.531250
2164		27.343750
2165		19.531250
2166		27.343750
2167		19.531250
2168		27.343750
2169		21.484375
2170		25.390625
2171		23.437500
2172		25.390625
2173		21.484375
2174		27.343750
2175		21.484375
2176		27.343750
2177		21.484375
2178		27.343750
2179		21.484375
2180		27.343750
2181		21.484375
2182		27.343750
2183		21.484375
2184		27.343750
2185		21.484375
2186		27.343750
2187		23.437500
2188		25.390625
2189		21.484375
2190		27.343750
2191		21.484375
2192		29.296875
2193		21.484375
2194		27.343750
2195		21.484375
2196		27.343750
2197		21.484375
2198		29.296875
2199		21.484375
2200		29.296875
2201		21.484375
2202		27.343750
2203		23.437500
2204		27.343750
2205		23.437500
2206		25.390625
2207		21.484375
2208		29.296875
2209		21.484375
2210		27.343750
2211		21.484375
2212		29.296875
2213		21.484375
2214		29.296875
2215		21.484375
2216		27.343750
2217		21.484375
2218		27.343750
2219		21.484375
2220		27.343750
2221		23.437500
2222		25.390625
2223		21.484375
2224		27.343750
2225		21.484375
2226		27.343750
2227		21.484375
2228		27.343750
2229		21.484375
2230		27.343750
2231		21.484375
2232		27.343750
2233		19.531250
2234		27.343750
2235		21.484375
2236		27.343750
2237		23.437500
2238		25.390625
2239		21.484375
2240		25.390625
2241		19.531250
2242		27.343750
2243		19.531250
2244		27.343750
2245		19.531250
2246		27.343750
2247		19.531250
2248		25.390625
2249		19.531250
2250		25.390625
2251		19.531250
2252		25.390625
2253		21.484375
2254		23.437500
2255		21.484375
2256		23.437500
2257		19.531250
2258		25.390625
2259		19.531250
2260		25.390625
2261		17.578125
2262		25.390625
2263		17.578125
2264		25.390625
2265		17.578125
2266		25.390625
2267		17.578125
2268		23.437500
2269		15.625000
2270		23.437500
2271		19.531250
2272		21.484375
2273		17.578125
2274		23.437500
2275		15.625000
2276		23.437500
2277		15.625000
2278		23.437500
2279		15.625000
2280		21.484375
2281		15.625000
2282		21.484375
2283		15.625000
2284		21.484375
2285		15.625000
2286		21.484375
2287		15.625000
2288		19.531250
2289		15.625000
2290		19.531250
2291		13.671875
2292		19.531250
2293		13.671875
2294		19.531250
2295		13.671875
2296		19.531250
2297		13.671875
2298		19.531250
2299		11.718750
2300		17.578125
2301		11.718750
2302		19.531250
2303		11.718750
2304		17.578125
2305		13.671875
2306		15.625000
2307		11.718750
2308		17.578125
2309		9.765625
2310		17.578125
2311		9.765625
2312		17.578125
2313		9.765625
2314		17.578125
2315		9.765625
2316		15.625000
2317		7.812500
2318		15.625000
2319		9.765625
2320		15.625000
2321		9.765625
2322		13.671875
2323		9.765625
2324		13.671875
2325		7.812500
2326		13.671875
2327		7.812500
2328		13.671875
2329		5.859375
2330		13.671875
2331		5.859375
2332		13.671875
2333		5.859375
2334		13.671875
2335		5.859375
2336		11.718750
2337		7.812500
2338		9.765625
2339		7.812500
2340		9.765625
2341		3.906250
2342		11.718750
2343		3.906250
2344		11.718750
2345		3.906250
2346		11.718750
2347		3.906250
2348		9.765625
2349		3.906250
2350		9.765625
2351		3.906250
2352		9.765625
2353		3.906250
2354		9.765625
2355		3.906250
2356		7.812500
2357		1.953125
2358		7.812500
2359		1.953125
2360		9.765625
2361		1.953125
2362		7.812500
2363		1.953125
2364		7.812500
2365		1.953125
2366		7.812500
2367		1.953125
2368		7.812500
2369		0.000000
2370		7.812500
2371		1.953125
2372		3.906250
2373		1.953125
2374		3.906250
2375		0.000000
2376		5.859375
2377		0.000000
2378		5.859375
2379		0.000000
2380		5.859375
2381		-1.953125
2382		5.859375
2383		-1.953125
2384		5.859375
2385		-1.953125
2386		5.859375
2387		-1.953125
2388		3.906250
2389		0.000000
2390		1.953125
2391		-1.953125
2392		3.906250
2393		-1.953125
2394		3.906250
2395		-1.953125
2396		3.906250
2397		-1.953125
2398		3.906250
2399		-3.906250
2400		3.906250
2401		-3.906250
2402		3.906250
2403		-1.953125
2404		3.906250
2405		-1.953125
2406		1.953125
2407		-1.953125
2408		1.953125
2409		-3.906250
2410		3.906250
2411		-3.906250
2412		3.906250
2413		-3.906250
2414		3.906250
2415		-3.906250
2416		3.906250
2417		-3.906250
2418		1.953125
2419		-3.906250
2420		1.953125
2421		-1.953125
2422		0.000000
2423		-1.953125
2424		0.000000
2425		-3.906250
2426		1.953125
2427		-3.906250
2428		3.906250
2429		-3.906250
2430		1.953125
2431		-3.906250
2432		1.953125
2433		-3.906250
2434		1.953125
2435		-3.906250
2436		1.953125
2437		-3.906250
2438		1.953125
2439		-1.953125
2440		0.000000
2441		-3.906250
2442		1.953125
2443		-3.906250
2444		3.906250
2445		-3.906250
2446		1.953125
2447		-3.906250
2448		1.953125
2449		-3.906250
2450		1.953125
2451		-3.906250
2452		1.953125
2453		-3.906250
2454		1.953125
2455		-1.953125
2456		0.000000
2457		-1.953125
2458		1.953125
2459		-3.906250
2460		3.906250
2461		-3.906250
2462		3.906250
2463		-1.953125
2464		3.906250
2465		-1.953125
2466		3.906250
2467		-1.953125
2468		3.906250
2469		-3.906250
2470		3.906250
2471		-1.953125
2472		3.906250
2473		0.000000
2474		1.953125
2475		-1.953125
2476		3.906250
2477		-1.953125
2478		5.859375
2479		-1.953125
2480		3.906250
2481		-1.953125
2482		3.906250
2483		-1.953125
2484		3.906250
2485		-1.953125
2486		5.859375
2487		0.000000
2488		3.906250
2489		1.953125
2490		3.906250
2491		1.953125
2492		3.906250
2493		0.000000
2494		5.859375
2495		0.000000
2496		5.859375
2497		0.000000
2498		5.859375
2499		0.000000
2500		7.812500
2501		0.000000
2502		5.859375
2503		1.953125
2504		7.812500
2505		1.953125
2506		5.859375
2507		3.906250
2508		5.859375
2509		1.953125
2510		7.812500
2511		1.953125
2512		7.812500
2513		3.906250
2514		7.812500
2515		3.906250
2516		7.812500
2517		3.906250
2518		7.812500
2519		1.953125
2520		7.812500
2521		5.859375
2522		7.812500
2523		5.859375
2524		7.812500
2525		5.859375
2526		9.765625
2527		3.906250
2528		9.765625
2529		5.859375
2530		9.765625
2531		5.859375
2532		9.765625
2533		7.812500
2534		9.765625
2535		5.859375
2536		11.718750
2537		7.812500
2538		9.765625
2539		7.812500
2540		9.765625
2541		7.812500
2542		9.765625
2543		7.812500
2544		11.718750
2545		7.812500
2546		11.718750
2547		7.812500
2548		11.718750
2549		9.765625
2550		11.718750
2551		9.765625
2552		13.671875
2553		9.765625
2554		13.671875
2555		9.765625
2556		13.671875
2557		9.765625
2558		13.671875
2559		11.718750
2560		13.671875
2561		9.765625
2562		15.625000
2563		11.718750
2564		15.625000
2565		11.718750
2566		15.625000
2567		11.718750
2568		15.625000
2569		11.718750
2570		15.625000
2571		13.671875
2572		15.625000
2573		11.718750
2574		15.625000
2575		13.671875
2576		15.625000
2577		13.671875
2578		17.578125
2579		13.671875
2580		17.578125
2581		13.671875
2582		17.578125
2583		15.625000
2584		17.578125
2585		15.625000
2586		17.578125
2587		15.625000
2588		19.531250
2589		15.625000
2590		19.531250
2591		15.625000
2592		19.531250
2593		15.625000
2594		19.531250
2595		15.625000
2596		19.531250
2597		17.578125
2598		19.531250
2599		15.625000
2600		19.531250
2601		17.578125
2602		19.531250
2603		17.578125
2604		19.531250
2605		17.578125
2606		21.484375
2607		17.578125
2608		19.531250
2609		17.578125
2610		21.484375
2611		19.531250
2612		21.484375
2613		19.531250
2614		21.484375
2615		19.531250
2616		21.484375
2617		19.531250
2618		23.437500
2619		19.531250
2620		21.484375
2621		19.531250
2622		23.437500
2623		19.531250
2624		23.437500
2625		21.484375
2626		23.437500
2627		19.531250
2628		23.437500
2629		19.531250
2630		23.437500
2631		21.484375
2632		23.437500
2633		21.484375
2634		23.437500
2635		21.484375
2636		23.437500
2637		21.484375
2638		23.437500
2639		19.531250
2640		25.390625
2641		21.484375
2642		23.437500
2643		21.484375
2644		25.390625
2645		21.484375
2646		25.390625
2647		21.484375
2648		25.390625
2649		21.484375
2650		25.390625
2651		21.484375
2652		25.390625
2653		21.484375
2654		25.390625
2655		21.484375
2656		25.390625
2657		23.437500
2658		25.390625
2659		23.437500
2660		25.390625
2661		21.484375
2662		25.390625
2663		23.437500
2664		25.390625
2665		23.437500
2666		25.390625
2667		23.437500
2668		25.390625
2669		23.437500
2670		25.390625
2671		23.437500
2672		25.390625
2673		23.437500
2674		27.343750
2675		23.437500
2676		25.390625
2677		21.484375
2678		27.343750
2679		23.437500
2680		25.390625
2681		23.437500
2682		25.390625
2683		23.437500
2684		25.390625
2685		21.484375
2686		25.390625
2687		23.437500
2688		25.390625
2689		21.484375
2690		27.343750
2691		23.437500
2692		25.390625
2693		23.437500
2694		25.390625
2695		23.437500
2696		27.343750
2697		21.484375
2698		25.390625
2699		21.484375
2700		25.390625
2701		21.484375
2702		25.390625
2703		21.484375
2704		25.390625
2705		21.484375
2706		25.390625
2707		21.484375
2708		25.390625
2709		21.484375
2710		25.390625
2711		21.484375
2712		25.390625
2713		21.484375
2714		23.437500
2715		21.484375
2716		23.437500
2717		21.484375
2718		23.437500
2719		19.531250
2720		23.437500
2721		21.484375
2722		23.437500
2723		19.531250
2724		25.390625
2725		21.484375
2726		23.437500
2727		19.531250
2728		23.437500
2729		19.531250
2730		23.437500
2731		19.531250
2732		23.437500
2733		19.531250
2734		23.437500
2735		19.531250
2736		21.484375
2737		19.531250
2738		21.484375
2739		17.578125
2740		21.484375
2741		17.578125
2742		21.484375
2743		19.531250
2744		21.484375
2745		17.578125
2746		21.484375
2747		17.578125
2748		21.484375
2749		17.578125
2750		19.531250
2751		17.578125
2752		19.531250
2753		17.578125
2754		19.531250
2755		15.625000
2756		19.531250
2757		15.625000
2758		19.531250
2759		15.625000
2760		17.578125
2761		15.625000
2762		19.531250
2763		13.671875
2764		17.578125
2765		13.671875
2766		17.578125
2767		13.671875
2768		17.578125
2769		13.671875
2770		17.578125
2771		13.671875
2772		17.578125
2773		13.671875
2774		17.578125
2775		13.671875
2776		15.625000
2777		11.718750
2778		15.625000
2779		11.718750
2780		15.625000
2781		11.718750
2782		15.625000
2783		11.718750
2784		13.671875
2785		11.718750
2786		13.671875
2787		9.765625
2788		13.671875
2789		9.765625
2790		13.671875
2791		9.765625
2792		11.718750
2793		9.765625
2794		13.671875
2795		7.812500
2796		13.671875
2797		7.812500
2798		11.718750
2799		7.812500
2800		11.718750
2801		7.812500
2802		11.718750
2803		7.812500
2804		11.718750
2805		7.812500
2806		9.765625
2807		7.812500
2808		9.765625
2809		5.859375
2810		9.765625
2811		5.859375
2812		9.765625
2813		5.859375
2814		9.765625
2815		5.859375
2816		7.812500
2817		5.859375
2818		7.812500
2819		5.859375
2820		7.812500
2821		3.906250
2822		7.812500
2823		3.906250
2824		7.812500
2825		3.906250
2826		7.812500
2827		3.906250
2828		5.859375
2829		3.906250
2830		7.812500
2831		3.906250
2832		5.859375
2833		1.953125
2834		5.859375
2835		1.953125
2836		5.859375
2837		1.953125
2838		3.906250
2839		1.953125
2840		5.859375
2841		0.000000
2842		5.859375
2843		1.953125
2844		3.906250
2845		1.953125
2846		3.906250
2847		1.953125
2848		3.906250
2849		0.000000
2850		3.906250
2851		0.000000
2852		3.906250
2853		0.000000
2854		3.906250
2855		0.000000
2856		3.906250
2857		0.000000
2858		3.906250
2859		0.000000
2860		1.953125
2861		-1.953125
2862		3.906250
2863		0.000000
2864		1.953125
2865		-1.953125
2866		1.953125
2867		-1.953125
2868		1.953125
2869		-1.953125
2870		1.953125
2871		-1.953125
2872		1.953125
2873		-1.953125
2874		1.953125
2875		-1.953125
2876		1.953125
2877		-1.953125
2878		1.953125
2879		-1.953125
2880		1.953125
2881		-1.953125
2882		1.953125
2883		-1.953125
2884		0.000000
2885		-1.953125
2886		1.953125
2887		-1.953125
2888		0.000000
2889		-1.953125
2890		0.000000
2891		-3.906250
2892		0.000000
2893		-1.953125
2894		0.000000
2895		-1.953125
2896		1.953125
2897		-1.953125
2898		0.000000
2899		-1.953125
2900		0.000000
2901		-3.906250
2902		0.000000
2903		-1.953125
2904		0.000000
2905		-1.953125
2906		0.000000
2907		-3.906250
2908		0.000000
2909		-1.953125
2910		0.000000
2911		-1.953125
2912		0.000000
2913		-3.906250
2914		0.000000
2915		-1.953125
2916		0.000000
2917		-1.953125
2918		0.000000
2919		-1.953125
2920		0.000000
2921		-1.953125
2922		0.000000
2923		-1.953125
2924		0.000000
2925		-1.953125
2926		0.000000
2927		-1.953125
2928		0.000000
2929		-3.906250
2930		1.953125
2931		-1.953125
2932		1.953125
2933		-1.953125
2934		0.000000
2935		-1.953125
2936		1.953125
2937		-1.953125
2938		1.953125
2939		-1.953125
2940		1.953125
2941		-1.953125
2942		1.953125
2943		0.000000
2944		1.953125
2945		0.000000
2946		1.953125
2947		-1.953125
2948		3.906250
2949		0.000000
2950		1.953125
2951		0.000000
2952		1.953125
2953		0.000000
2954		3.906250
2955		0.000000
2956		3.906250
2957		0.000000
2958		3.906250
2959		0.000000
2960		3.906250
2961		1.953125
2962		3.906250
2963		0.000000
2964		3.906250
2965		0.000000
2966		3.906250
2967		1.953125
2968		3.906250
2969		1.953125
2970		3.906250
2971		1.953125
2972		3.906250
2973		1.953125
2974		3.906250
2975		1.953125
2976		5.859375
2977		3.906250
2978		5.859375
2979		1.953125
2980		5.859375
2981		1.953125
2982		5.859375
2983		3.906250
2984		5.859375
2985		3.906250
2986		7.812500
2987		3.906250
2988		7.812500
2989		3.906250
2990		7.812500
2991		3.906250
2992		7.812500
2993		3.906250
2994		7.812500
2995		5.859375
2996		7.812500
2997		3.906250
2998		9.765625
2999		5.859375
3000		9.765625
3001		5.859375
3002		9.765625
3003		5.859375
3004		9.765625
3005		5.859375
3006		9.765625
3007		5.859375
3008		9.765625
3009		7.812500
3010		9.765625
3011		7.812500
3012		9.765625
3013		7.812500
3014		11.718750
3015		7.812500
3016		11.718750
3017		7.812500
3018		11.718750
3019		7.812500
3020		11.718750
3021		9.765625
3022		11.718750
3023		9.765625
3024		13.671875
3025		9.765625
3026		13.671875
3027		9.765625
3028		13.671875
3029		9.765625
3030		13.671875
3031		9.765625
3032		13.671875
3033		9.765625
3034		13.671875
3035		11.718750
3036		13.671875
3037		11.718750
3038		15.625000
3039		11.718750
3040		15.625000
3041		11.718750
3042		15.625000
3043		13.671875
3044		15.625000
3045		13.671875
3046		15.625000
3047		11.718750
3048		15.625000
3049		13.671875
3050		15.625000
3051		13.671875
3052		15.625000
3053		13.671875
3054		17.578125
3055		13.671875
3056		17.578125
3057		15.625000
3058		17.578125
3059		15.625000
3060		17.578125
3061		15.625000
3062		17.578125
3063		15.625000
3064		19.531250
3065		15.625000
3066		19.531250
3067		15.625000
3068		19.531250
3069		15.625000
3070		19.531250
3071		15.625000
3072		19.531250
3073		17.578125
3074		19.531250
3075		15.625000
3076		21.484375
3077		17.578125
3078		19.531250
3079		17.578125
3080		21.484375
3081		17.578125
3082		21.484375
3083		17.578125
3084		21.484375
3085		17.578125
3086		21.484375
3087		17.578125
3088		21.484375
3089		19.531250
3090		21.484375
3091		19.531250
3092		21.484375
3093		19.531250
3094		21.484375
3095		19.531250
3096		23.437500
3097		19.531250
3098		23.437500
3099		19.531250
3100		23.437500
3101		19.531250
3102		23.437500
3103		21.484375
3104		23.437500
3105		21.484375
3106		23.437500
3107		21.484375
3108		23.437500
3109		19.531250
3110		25.390625
3111		21.484375
3112		25.390625
3113		19.531250
3114		25.390625
3115		21.484375
3116		25.390625
3117		21.484375
3118		25.390625
3119		21.484375
3120		25.390625
3121		21.484375
3122		25.390625
3123		21.484375
3124		25.390625
3125		21.484375
3126		25.390625
3127		21.484375
3128		25.390625
3129		23.437500
3130		25.390625
3131		21.484375
3132		27.343750
3133		21.484375
3134		25.390625
3135		21.484375
3136		25.390625
3137		21.484375
3138		25.390625
3139		23.437500
3140		25.390625
3141		21.484375
3142		25.390625
3143		21.484375
3144		25.390625
3145		23.437500
3146		25.390625
3147		21.484375
3148		27.343750
3149		21.484375
3150		25.390625
3151		23.437500
3152		25.390625
3153		21.484375
3154		27.343750
3155		21.484375
3156		25.390625
3157		23.437500
3158		25.390625
3159		21.484375
3160		25.390625
3161		23.437500
3162		25.390625
3163		23.437500
3164		25.390625
3165		21.484375
3166		25.390625
3167		21.484375
3168		25.390625
3169		21.484375
3170		25.390625
3171		21.484375
3172		25.390625
3173		21.484375
3174		25.390625
3175		21.484375
3176		25.390625
3177		21.484375
3178		25.390625
3179		21.484375
3180		23.437500
3181		21.484375
3182		25.390625
3183		21.484375
3184		25.390625
3185		21.484375
3186		23.437500
3187		21.484375
3188		23.437500
3189		21.484375
3190		23.437500
3191		19.531250
3192		23.437500
3193		19.531250
3194		23.437500
3195		19.531250
3196		23.437500
3197		19.531250
3198		23.437500
3199		19.531250
3200		23.437500
3201		19.531250
3202		21.484375
3203		19.531250
3204		21.484375
3205		19.531250
3206		21.484375
3207		17.578125
3208		21.484375
3209		17.578125
3210		21.484375
3211		17.578125
3212		21.484375
3213		17.578125
3214		19.531250
3215		17.578125
3216		21.484375
3217		17.578125
3218		21.484375
3219		15.625000
3220		19.531250
3221		17.578125
3222		19.531250
3223		15.625000
3224		19.531250
3225		15.625000
3226		19.531250
3227		15.625000
3228		19.531250
3229		15.625000
3230		17.578125
3231		13.671875
3232		17.578125
3233		13.671875
3234		17.578125
3235		13.671875
3236		17.578125
3237		13.671875
3238		15.625000
3239		13.671875
3240		15.625000
3241		13.671875
3242		17.578125
3243		11.718750
3244		15.625000
3245		13.671875
3246		15.625000
3247		11.718750
3248		15.625000
3249		11.718750
3250		15.625000
3251		11.718750
3252		13.671875
3253		11.718750
3254		13.671875
3255		9.765625
3256		13.671875
3257		9.765625
3258		13.671875
3259		9.765625
3260		13.671875
3261		9.765625
3262		13.671875
3263		9.765625
3264		11.718750
3265		7.812500
3266		11.718750
3267		7.812500
3268		11.718750
3269		7.812500
3270		11.718750
3271		7.812500
3272		11.718750
3273		7.812500
3274		9.765625
3275		7.812500
3276		9.765625
3277		5.859375
3278		9.765625
3279		5.859375
3280		9.765625
3281		5.859375
3282		9.765625
3283		5.859375
3284		9.765625
3285		3.906250
3286		7.812500
3287		3.906250
3288		7.812500
3289		5.859375
3290		7.812500
3291		3.906250
3292		7.812500
3293		3.906250
3294		7.812500
3295		3.906250
3296		5.859375
3297		3.906250
3298		5.859375
3299		1.953125
3300		7.812500
3301		1.953125
3302		5.859375
3303		1.953125
3304		5.859375
3305		1.953125
3306		5.859375
3307		1.953125
3308		3.906250
3309		1.953125
3310		5.859375
3311		0.000000
3312		5.859375
3313		1.953125
3314		3.906250
3315		0.000000
3316		3.906250
3317		1.953125
3318		3.906250
3319		0.000000
3320		1.953125
3321		0.000000
3322		1.953125
3323		0.000000
3324		1.953125
3325		0.000000
3326		1.953125
3327		-1.953125
3328		1.953125
3329		0.000000
3330		1.953125
3331		0.000000
3332		1.953125
3333		-1.953125
3334		1.953125
3335		-1.953125
3336		1.953125
3337		-1.953125
3338		1.953125
3339		-1.953125
3340		1.953125
3341		-1.953125
3342		1.953125
3343		-1.953125
3344		1.953125
3345		-1.953125
3346		1.953125
3347		-1.953125
3348		0.000000
3349		-1.953125
3350		1.953125
3351		-1.953125
3352		0.000000
3353		-1.953125
3354		0.000000
3355		-1.953125
3356		0.000000
3357		-3.906250
3358		0.000000
3359		-1.953125
3360		0.000000
3361		-3.906250
3362		0.000000
3363		-1.953125
3364		0.000000
3365		-1.953125
3366		0.000000
3367		-3.906250
3368		0.000000
3369		-3.906250
3370		0.000000
3371		-3.906250
3372		0.000000
3373		-1.953125
3374		0.000000
3375		-1.953125
3376		0.000000
3377		-3.906250
3378		0.000000
3379		-3.906250
3380		0.000000
3381		-1.953125
3382		0.000000
3383		-1.953125
3384		0.000000
3385		-1.953125
3386		0.000000
3387		-1.953125
3388		0.000000
3389		-3.906250
3390		0.000000
3391		-1.953125
3392		0.000000
3393		-3.906250
3394		0.000000
3395		-1.953125
3396		0.000000
3397		-3.906250
3398		0.000000
3399		-1.953125
3400		0.000000
3401		-1.953125
3402		1.953125
3403		-1.953125
3404		1.953125
3405		-1.953125
3406		1.953125
3407		-1.953125
3408		1.953125
3409		-1.953125
3410		1.953125
3411		-1.953125
3412		1.953125
3413		-1.953125
3414		1.953125
3415		0.000000
3416		1.953125
3417		-1.953125
3418		1.953125
3419		-1.953125
3420		1.953125
3421		-1.953125
3422		1.953125
3423		0.000000
3424		1.953125
3425		0.000000
3426		1.953125
3427		0.000000
3428		3.906250
3429		0.000000
3430		3.906250
3431		0.000000
3432		3.906250
3433		0.000000
3434		3.906250
3435		0.000000
3436		3.906250
3437		0.000000
3438		3.906250
3439		1.953125
3440		3.906250
3441		1.953125
3442		3.906250
3443		1.953125
3444		5.859375
3445		1.953125
3446		5.859375
3447		1.953125
3448		3.906250
3449		1.953125
3450		5.859375
3451		1.953125
3452		5.859375
3453		1.953125
3454		5.859375
3455		1.953125
3456		5.859375
3457		3.906250
3458		5.859375
3459		3.906250
3460		7.812500
3461		3.906250
3462		7.812500
3463		3.906250
3464		7.812500
3465		3.906250
3466		7.812500
3467		5.859375
3468		7.812500
3469		5.859375
3470		7.812500
3471		5.859375
3472		7.812500
3473		5.859375
3474		9.765625
3475		5.859375
3476		9.765625
3477		5.859375
3478		9.765625
3479		5.859375
3480		9.765625
3481		7.812500
3482		9.765625
3483		7.812500
3484		9.765625
3485		7.812500
3486		11.718750
3487		7.812500
3488		11.718750
3489		7.812500
3490		11.718750
3491		7.812500
3492		11.718750
3493		7.812500
3494		11.718750
3495		9.765625
3496		13.671875
3497		9.765625
3498		11.718750
3499		9.765625
3500		11.718750
3501		9.765625
3502		13.671875
3503		9.765625
3504		13.671875
3505		9.765625
3506		13.671875
3507		11.718750
3508		13.671875
3509		11.718750
3510		13.671875
3511		11.718750
3512		15.625000
3513		11.718750
3514		15.625000
3515		13.671875
3516		15.625000
3517		11.718750
3518		17.578125
3519		13.671875
3520		15.625000
3521		13.671875
3522		15.625000
3523		13.671875
3524		17.578125
3525		13.671875
3526		17.578125
3527		13.671875
3528		17.578125
3529		13.671875
3530		17.578125
3531		15.625000
3532		17.578125
3533		15.625000
3534		17.578125
3535		15.625000
3536		19.531250
3537		15.625000
3538		19.531250
3539		15.625000
3540		19.531250
3541		15.625000
3542		19.531250
3543		17.578125
3544		19.531250
3545		15.625000
3546		19.531250
3547		17.578125
3548		21.484375
3549		17.578125
3550		19.531250
3551		17.578125
3552		21.484375
3553		17.578125
3554		21.484375
3555		17.578125
3556		21.484375
3557		17.578125
3558		21.484375
3559		17.578125
3560		21.484375
3561		19.531250
3562		21.484375
3563		19.531250
3564		21.484375
3565		19.531250
3566		21.484375
3567		19.531250
3568		21.484375
3569		19.531250
3570		23.437500
3571		19.531250
3572		23.437500
3573		21.484375
3574		23.437500
3575		19.531250
3576		23.437500
3577		19.531250
3578		23.437500
3579		19.531250
3580		23.437500
3581		21.484375
3582		23.437500
3583		21.484375
3584		23.437500
3585		21.484375
3586		25.390625
3587		21.484375
3588		23.437500
3589		21.484375
3590		25.390625
3591		21.484375
3592		25.390625
3593		21.484375
3594		25.390625
3595		21.484375
3596		25.390625
3597		21.484375
3598		25.390625
3599		23.437500
3600		25.390625
3601		21.484375
3602		25.390625
3603		23.437500
3604		25.390625
3605		21.484375
3606		25.390625
3607		23.437500
3608		25.390625
3609		23.437500
3610		25.390625
3611		23.437500
3612		25.390625
3613		21.484375
3614		25.390625
3615		23.437500
3616		25.390625
3617		21.484375
3618		25.390625
3619		21.484375
3620		25.390625
3621		23.437500
3622		25.390625
3623		23.437500
3624		25.390625
3625		23.437500
3626		25.390625
3627		21.484375
3628		25.390625
3629		21.484375
3630		25.390625
3631		21.484375
3632		25.390625
3633		23.437500
3634		25.390625
3635		21.484375
3636		27.343750
3637		21.484375
3638		25.390625
3639		21.484375
3640		25.390625
3641		23.437500
3642		25.390625
3643		21.484375
3644		25.390625
3645		21.484375
3646		25.390625
3647		21.484375
3648		25.390625
3649		21.484375
3650		25.390625
3651		21.484375
3652		25.390625
3653		21.484375
3654		25.390625
3655		21.484375
3656		23.437500
3657		21.484375
3658		25.390625
3659		21.484375
3660		25.390625
3661		21.484375
3662		23.437500
3663		21.484375
3664		23.437500
3665		19.531250
3666		23.437500
3667		21.484375
3668		23.437500
3669		19.531250
3670		23.437500
3671		19.531250
3672		23.437500
3673		19.531250
3674		23.437500
3675		19.531250
3676		21.484375
3677		19.531250
3678		21.484375
3679		19.531250
3680		21.484375
3681		17.578125
3682		21.484375
3683		17.578125
3684		21.484375
3685		17.578125
3686		21.484375
3687		17.578125
3688		21.484375
3689		17.578125
3690		19.531250
3691		17.578125
3692		19.531250
3693		15.625000
3694		19.531250
3695		15.625000
3696		19.531250
3697		15.625000
3698		19.531250
3699		15.625000
3700		17.578125
3701		15.625000
3702		17.578125
3703		13.671875
3704		19.531250
3705		13.671875
3706		17.578125
3707		13.671875
3708		17.578125
3709		13.671875
3710		17.578125
3711		13.671875
3712		17.578125
3713		13.671875
3714		15.625000
3715		13.671875
3716		15.625000
3717		13.671875
3718		15.625000
3719		11.718750
3720		15.625000
3721		11.718750
3722		15.625000
3723		11.718750
3724		15.625000
3725		11.718750
3726		13.671875
3727		9.765625
3728		13.671875
3729		9.765625
3730		13.671875
3731		9.765625
3732		13.671875
3733		9.765625
3734		11.718750
3735		9.765625
3736		11.718750
3737		7.812500
3738		11.718750
3739		7.812500
3740		11.718750
3741		7.812500
3742		11.718750
3743		7.812500
3744		11.718750
3745		7.812500
3746		11.718750
3747		7.812500
3748		9.765625
3749		5.859375
3750		9.765625
3751		7.812500
3752		9.765625
3753		5.859375
3754		9.765625
3755		5.859375
3756		7.812500
3757		5.859375
3758		7.812500
3759		5.859375
3760		7.812500
3761		5.859375
3762		7.812500
3763		3.906250
3764		7.812500
3765		3.906250
3766		7.812500
3767		3.906250
3768		5.859375
3769		1.953125
3770		7.812500
3771		3.906250
3772		5.859375
3773		1.953125
3774		5.859375
3775		1.953125
3776		5.859375
3777		1.953125
3778		5.859375
3779		1.953125
3780		5.859375
3781		1.953125
3782		5.859375
3783		1.953125
3784		3.906250
3785		1.953125
3786		3.906250
3787		0.000000
3788		3.906250
3789		0.000000
3790		3.906250
3791		0.000000
3792		3.906250
3793		0.000000
3794		3.906250
3795		0.000000
3796		3.906250
3797		0.000000
3798		3.906250
3799		-1.953125
3800		3.906250
3801		0.000000
3802		1.953125
3803		0.000000
3804		1.953125
3805		0.000000
3806		1.953125
3807		-1.953125
3808		1.953125
3809		-1.953125
3810		1.953125
3811		-1.953125
3812		1.953125
3813		-1.953125
3814		1.953125
3815		-1.953125
3816		1.953125
3817		-1.953125
3818		1.953125
3819		-1.953125
3820		0.000000
3821		-1.953125
3822		1.953125
3823		-1.953125
3824		1.953125
3825		-1.953125
3826		0.000000
3827		-1.953125
3828		0.000000
3829		-1.953125
3830		0.000000
3831		-1.953125
3832		0.000000
3833		-1.953125
3834		0.000000
3835		-1.953125
3836		0.000000
3837		-3.906250
3838		0.000000
3839		-3.906250
3840		0.000000
3841		-3.906250
3842		0.000000
3843		-1.953125
3844		0.000000
3845		-3.906250
3846		0.000000
3847		-1.953125
3848		0.000000
3849		-3.906250
3850		0.000000
3851		-1.953125
3852		0.000000
3853		-1.953125
3854		1.953125
3855		-3.906250
3856		0.000000
3857		-1.953125
3858		0.000000
3859		-1.953125
3860		0.000000
3861		-1.953125
3862		0.000000
3863		-1.953125
3864		0.000000
3865		-1.953125
3866		0.000000
3867		-1.953125
3868		0.000000
3869		-1.953125
3870		0.000000
3871		-1.953125
3872		1.953125
3873		-1.953125
3874		1.953125
3875		-1.953125
3876		0.000000
3877		-1.953125
3878		1.953125
3879		-1.953125
3880		1.953125
3881		-1.953125
3882		1.953125
3883		-1.953125
3884		1.953125
3885		0.000000
3886		1.953125
3887		-1.953125
3888		1.953125
3889		0.000000
3890		1.953125
3891		-1.953125
3892		1.953125
3893		0.000000
3894		1.953125
3895		0.000000
3896		1.953125
3897		0.000000
3898		1.953125
3899		0.000000
3900		3.906250
3901		0.000000
3902		1.953125
3903		0.000000
3904		3.906250
3905		0.000000
3906		3.906250
3907		0.000000
3908		3.906250
3909		0.000000
3910		3.906250
3911		1.953125
3912		3.906250
3913		1.953125
3914		3.906250
3915		1.953125
3916		5.859375
3917		1.953125
3918		5.859375
3919		1.953125
3920		5.859375
3921		1.953125
3922		5.859375
3923		1.953125
3924		5.859375
3925		3.906250
3926		5.859375
3927		3.906250
3928		5.859375
3929		3.906250
3930		5.859375
3931		3.906250
3932		7.812500
3933		3.906250
3934		7.812500
3935		3.906250
3936		7.812500
3937		3.906250
3938		9.765625
3939		5.859375
3940		7.812500
3941		5.859375
3942		7.812500
3943		5.859375
3944		7.812500
3945		5.859375
3946		9.765625
3947		5.859375
3948		9.765625
3949		5.859375
3950		9.765625
3951		7.812500
3952		9.765625
3953		7.812500
3954		9.765625
3955		7.812500
3956		11.718750
3957		7.812500
3958		11.718750
3959		7.812500
3960		11.718750
3961		7.812500
3962		11.718750
3963		7.812500
3964		11.718750
3965		9.765625
3966		11.718750
3967		7.812500
3968		13.671875
3969		9.765625
3970		11.718750
3971		9.765625
3972		13.671875
3973		11.718750
3974		13.671875
3975		9.765625
3976		13.671875
3977		9.765625
3978		13.671875
3979		11.718750
3980		15.625000
3981		11.718750
3982		15.625000
3983		11.718750
3984		15.625000
3985		11.718750
3986		15.625000
3987		13.671875
3988		15.625000
3989		13.671875
3990		15.625000
3991		13.671875
3992		15.625000
3993		13.671875
3994		17.578125
3995		13.671875
3996		17.578125
3997		13.671875
3998		17.578125
3999		13.671875
4000		17.578125
4001		13.671875
4002		17.578125
4003		15.625000
4004		17.578125
4005		15.625000
4006		19.531250
4007		15.625000
4008		19.531250
4009		15.625000
4010		19.531250
4011		15.625000
4012		19.531250
4013		17.578125
4014		19.531250
4015		15.625000
4016		19.531250
4017		15.625000
4018		19.531250
4019		17.578125
4020		19.531250
4021		17.578125
4022		21.484375
4023		17.578125
4024		21.484375
4025		17.578125
4026		21.484375
4027		17.578125
4028		21.484375
4029		17.578125
4030		21.484375
4031		19.531250
4032		21.484375
4033		19.531250
4034		23.437500
4035		19.531250
4036		21.484375
4037		19.531250
4038		21.484375
4039		19.531250
4040		23.437500
4041		19.531250
4042		23.437500
4043		19.531250
4044		23.437500
4045		21.484375
4046		23.437500
4047		19.531250
4048		23.437500
4049		21.484375
4050		23.437500
4051		21.484375
4052		23.437500
4053		21.484375
4054		23.437500
4055		19.531250
4056		25.390625
4057		21.484375
4058		25.390625
4059		21.484375
4060		25.390625
4061		21.484375
4062		25.390625
4063		21.484375
4064		25.390625
4065		21.484375
4066		25.390625
4067		21.484375
4068		25.390625
4069		23.437500
4070		25.390625
4071		23.437500
4072		25.390625
4073		21.484375
4074		25.390625
4075		21.484375
4076		25.390625
4077		23.437500
4078		25.390625
4079		21.484375
4080		25.390625
4081		23.437500
4082		25.390625
4083		23.437500
4084		25.390625
4085		21.484375
4086		27.343750
4087		23.437500
4088		25.390625
4089		23.437500
4090		25.390625
4091		23.437500
4092		25.390625
4093		23.437500
4094		25.390625
4095		23.437500
4096		25.390625
4097		23.437500
4098		25.390625
4099		21.484375
4100		25.390625
4101		21.484375
4102		25.390625
4103		23.437500
4104		25.390625
4105		21.484375
4106		25.390625
4107		23.437500
4108		25.390625
4109		21.484375
4110		25.390625
4111		21.484375
4112		25.390625
4113		21.484375
4114		25.390625
4115		21.484375
4116		25.390625
4117		21.484375
4118		25.390625
4119		21.484375
4120		25.390625
4121		21.484375
4122		23.437500
4123		21.484375
4124		25.390625
4125		21.484375
4126		23.437500
4127		21.484375
4128		23.437500
4129		21.484375
4130		23.437500
4131		21.484375
4132		23.437500
4133		19.531250
4134		23.437500
4135		19.531250
4136		23.437500
4137		21.484375
4138		23.437500
4139		19.531250
4140		23.437500
4141		19.531250
4142		23.437500
4143		19.531250
4144		23.437500
4145		19.531250
4146		21.484375
4147		19.531250
4148		21.484375
4149		19.531250
4150		21.484375
4151		17.578125
4152		21.484375
4153		17.578125
4154		21.484375
4155		17.578125
4156		19.531250
4157		17.578125
4158		21.484375
4159		17.578125
4160		19.531250
4161		17.578125
4162		19.531250
4163		17.578125
4164		19.531250
4165		15.625000
4166		19.531250
4167		15.625000
4168		19.531250
4169		15.625000
4170		19.531250
4171		15.625000
4172		17.578125
4173		15.625000
4174		17.578125
4175		13.671875
4176		17.578125
4177		13.671875
4178		17.578125
4179		13.671875
4180		17.578125
4181		13.671875
4182		17.578125
4183		13.671875
4184		17.578125
4185		13.671875
4186		17.578125
4187		13.671875
4188		15.625000
4189		13.671875
4190		15.625000
4191		11.718750
4192		15.625000
4193		11.718750
4194		13.671875
4195		11.718750
4196		13.671875
4197		9.765625
4198		13.671875
4199		9.765625
4200		13.671875
4201		9.765625
4202		13.671875
4203		9.765625
4204		11.718750
4205		9.765625
4206		11.718750
4207		7.812500
4208		11.718750
4209		7.812500
4210		11.718750
4211		7.812500
4212		11.718750
4213		7.812500
4214		11.718750
4215		7.812500
4216		11.718750
4217		7.812500
4218		9.765625
4219		5.859375
4220		9.765625
4221		7.812500
4222		9.765625
4223		5.859375
4224		9.765625
4225		5.859375
4226		9.765625
4227		5.859375
4228		9.765625
4229		5.859375
4230		9.765625
4231		3.906250
4232		7.812500
4233		3.906250
4234		7.812500
4235		3.906250
4236		7.812500
4237		3.906250
4238		5.859375
4239		3.906250
4240		5.859375
4241		3.906250
4242		5.859375
4243		1.953125
4244		5.859375
4245		1.953125
4246		5.859375
4247		1.953125
4248		5.859375
4249		1.953125
4250		5.859375
4251		1.953125
4252		5.859375
4253		1.953125
4254		5.859375
4255		1.953125
4256		3.906250
4257		0.000000
4258		3.906250
4259		0.000000
4260		3.906250
4261		0.000000
4262		3.906250
4263		0.000000
4264		3.906250
4265		0.000000
4266		3.906250
4267		0.000000
4268		1.953125
4269		0.000000
4270		1.953125
4271		0.000000
4272		1.953125
4273		0.000000
4274		1.953125
4275		-1.953125
4276		1.953125
4277		-1.953125
4278		1.953125
4279		-1.953125
4280		1.953125
4281		-1.953125
4282		1.953125
4283		-1.953125
4284		1.953125
4285		-1.953125
4286		1.953125
4287		-1.953125
4288		1.953125
4289		-1.953125
4290		0.000000
4291		-1.953125
4292		0.000000
4293		-1.953125
4294		0.000000
4295		-1.953125
4296		0.000000
4297		-1.953125
4298		0.000000
4299		-1.953125
4300		0.000000
4301		-3.906250
4302		0.000000
4303		-3.906250
4304		0.000000
4305		-3.906250
4306		0.000000
4307		-3.906250
4308		0.000000
4309		-3.906250
4310		0.000000
4311		-3.906250
4312		0.000000
4313		-3.906250
4314		0.000000
4315		-1.953125
4316		0.000000
4317		-1.953125
4318		0.000000
4319		-1.953125
4320		0.000000
4321		-3.906250
4322		0.000000
4323		-1.953125
4324		0.000000
4325		-3.906250
4326		0.000000
4327		-3.906250
4328		0.000000
4329		-1.953125
4330		0.000000
4331		-3.906250
4332		0.000000
4333		-1.953125
4334		0.000000
4335		-3.906250
4336		0.000000
4337		-3.906250
4338		0.000000
4339		-1.953125
4340		0.000000
4341		-1.953125
4342		1.953125
4343		-1.953125
4344		0.000000
4345		-1.953125
4346		0.000000
4347		-1.953125
4348		0.000000
4349		-1.953125
4350		1.953125
4351		-1.953125
4352		1.953125
4353		-1.953125
4354		1.953125
4355		-1.953125
4356		1.953125
4357		0.000000
4358		1.953125
4359		-1.953125
4360		1.953125
4361		-1.953125
4362		1.953125
4363		0.000000
4364		1.953125
4365		-1.953125
4366		1.953125
4367		0.000000
4368		3.906250
4369		0.000000
4370		3.906250
4371		-1.953125
4372		3.906250
4373		0.000000
4374		3.906250
4375		0.000000
4376		3.906250
4377		0.000000
4378		3.906250
4379		1.953125
4380		3.906250
4381		1.953125
4382		5.859375
4383		1.953125
4384		3.906250
4385		1.953125
4386		5.859375
4387		1.953125
4388		5.859375
4389		1.953125
4390		5.859375
4391		1.953125
4392		5.859375
4393		1.953125
4394		5.859375
4395		1.953125
4396		5.859375
4397		3.906250
4398		5.859375
4399		3.906250
4400		5.859375
4401		3.906250
4402		7.812500
4403		3.906250
4404		7.812500
4405		3.906250
4406		7.812500
4407		5.859375
4408		7.812500
4409		3.906250
4410		7.812500
4411		5.859375
4412		7.812500
4413		5.859375
4414		9.765625
4415		5.859375
4416		9.765625
4417		5.859375
4418		9.765625
4419		5.859375
4420		9.765625
4421		5.859375
4422		9.765625
4423		7.812500
4424		9.765625
4425		7.812500
4426		11.718750
4427		7.812500
4428		11.718750
4429		7.812500
4430		9.765625
4431		7.812500
4432		11.718750
4433		7.812500
4434		11.718750
4435		7.812500
4436		11.718750
4437		7.812500
4438		11.718750
4439		9.765625
4440		11.718750
4441		9.765625
4442		11.718750
4443		9.765625
4444		13.671875
4445		9.765625
4446		13.671875
4447		9.765625
4448		13.671875
4449		11.718750
4450		13.671875
4451		11.718750
4452		13.671875
4453		11.718750
4454		15.625000
4455		11.718750
4456		15.625000
4457		11.718750
4458		15.625000
4459		11.718750
4460		15.625000
4461		13.671875
4462		15.625000
4463		13.671875
4464		17.578125
4465		13.671875
4466		17.578125
4467		13.671875
4468		17.578125
4469		13.671875
4470		17.578125
4471		13.671875
4472		17.578125
4473		15.625000
4474		17.578125
4475		13.671875
4476		17.578125
4477		15.625000
4478		19.531250
4479		15.625000
4480		17.578125
4481		15.625000
4482		19.531250
4483		15.625000
4484		19.531250
4485		17.578125
4486		19.531250
4487		17.578125
4488		19.531250
4489		17.578125
4490		19.531250
4491		17.578125
4492		19.531250
4493		17.578125
4494		21.484375
4495		17.578125
4496		21.484375
4497		17.578125
4498		21.484375
4499		17.578125
4500		21.484375
4501		17.578125
4502		21.484375
4503		19.531250
4504		21.484375
4505		17.578125
4506		21.484375
4507		19.531250
4508		21.484375
4509		19.531250
4510		23.437500
4511		19.531250
4512		23.437500
4513		19.531250
4514		23.437500
4515		19.531250
4516		23.437500
4517		19.531250
4518		23.437500
4519		21.484375
4520		23.437500
4521		21.484375
4522		23.437500
4523		21.484375
4524		23.437500
4525		21.484375
4526		23.437500
4527		19.531250
4528		25.390625
4529		21.484375
4530		25.390625
4531		21.484375
4532		23.437500
4533		21.484375
4534		25.390625
4535		21.484375
4536		25.390625
4537		21.484375
4538		25.390625
4539		21.484375
4540		25.390625
4541		21.484375
4542		25.390625
4543		21.484375
4544		25.390625
4545		21.484375
4546		25.390625
4547		21.484375
4548		25.390625
4549		21.484375
4550		25.390625
4551		23.437500
4552		25.390625
4553		23.437500
4554		25.390625
4555		21.484375
4556		25.390625
4557		21.484375
4558		25.390625
4559		23.437500
4560		25.390625
4561		21.484375
4562		25.390625
4563		21.484375
4564		25.390625
4565		23.437500
4566		25.390625
4567		23.437500
4568		25.390625
4569		21.484375
4570		25.390625
4571		21.484375
4572		25.390625
4573		23.437500
4574		25.390625
4575		23.437500
4576		25.390625
4577		21.484375
4578		25.390625
4579		21.484375
4580		25.390625
4581		21.484375
4582		25.390625
4583		21.484375
4584		25.390625
4585		21.484375
4586		25.390625
4587		21.484375
4588		25.390625
4589		21.484375
4590		25.390625
4591		21.484375
4592		23.437500
4593		19.531250
4594		23.437500
4595		21.484375
4596		25.390625
4597		21.484375
4598		25.390625
4599		21.484375
4600		25.390625
4601		21.484375
4602		23.437500
4603		19.531250
4604		23.437500
4605		19.531250
4606		23.437500
4607		19.531250
4608		23.437500
4609		19.531250
4610		23.437500
4611		19.531250
4612		23.437500
4613		19.531250
4614		23.437500
4615		19.531250
4616		23.437500
4617		19.531250
4618		21.484375
4619		19.531250
4620		21.484375
4621		17.578125
4622		21.484375
4623		17.578125
4624		21.484375
4625		17.578125
4626		21.484375
4627		17.578125
4628		21.484375
4629		17.578125
4630		19.531250
4631		17.578125
4632		21.484375
4633		15.625000
4634		19.531250
4635		15.625000
4636		19.531250
4637		15.625000
4638		19.531250
4639		15.625000
4640		19.531250
4641		15.625000
4642		17.578125
4643		15.625000
4644		19.531250
4645		15.625000
4646		17.578125
4647		15.625000
4648		17.578125
4649		13.671875
4650		17.578125
4651		13.671875
4652		17.578125
4653		13.671875
4654		17.578125
4655		13.671875
4656		17.578125
4657		13.671875
4658		15.625000
4659		13.671875
4660		15.625000
4661		11.718750
4662		15.625000
4663		11.718750
4664		15.625000
4665		11.718750
4666		15.625000
4667		11.718750
4668		13.671875
4669		9.765625
4670		13.671875
4671		9.765625
4672		13.671875
4673		9.765625
4674		13.671875
4675		9.765625
4676		11.718750
4677		7.812500
4678		11.718750
4679		7.812500
4680		11.718750
4681		7.812500
4682		11.718750
4683		7.812500
4684		11.718750
4685		7.812500
4686		9.765625
4687		7.812500
4688		9.765625
4689		5.859375
4690		9.765625
4691		7.812500
4692		9.765625
4693		5.859375
4694		9.765625
4695		5.859375
4696		9.765625
4697		5.859375
4698		9.765625
4699		5.859375
4700		7.812500
4701		3.906250
4702		7.812500
4703		3.906250
4704		7.812500
4705		3.906250
4706		7.812500
4707		3.906250
4708		7.812500
4709		3.906250
4710		5.859375
4711		3.906250
4712		5.859375
4713		1.953125
4714		5.859375
4715		1.953125
4716		5.859375
4717		1.953125
4718		5.859375
4719		1.953125
4720		5.859375
4721		1.953125
4722		5.859375
4723		1.953125
4724		3.906250
4725		1.953125
4726		3.906250
4727		1.953125
4728		3.906250
4729		0.000000
4730		3.906250
4731		0.000000
4732		3.906250
4733		0.000000
4734		3.906250
4735		0.000000
4736		3.906250
4737		0.000000
4738		3.906250
4739		0.000000
4740		3.906250
4741		0.000000
4742		1.953125
4743		0.000000
4744		1.953125
4745		-1.953125
4746		3.906250
4747		-1.953125
4748		1.953125
4749		-1.953125
4750		1.953125
4751		-1.953125
4752		1.953125
4753		-1.953125
4754		1.953125
4755		-1.953125
4756		1.953125
4757		-1.953125
4758		1.953125
4759		-1.953125
4760		0.000000
4761		-1.953125
4762		1.953125
4763		-1.953125
4764		1.953125
4765		-1.953125
4766		1.953125
4767		-1.953125
4768		0.000000
4769		-1.953125
4770		0.000000
4771		-1.953125
4772		0.000000
4773		-3.906250
4774		0.000000
4775		-1.953125
4776		0.000000
4777		-1.953125
4778		0.000000
4779		-3.906250
4780		0.000000
4781		-1.953125
4782		0.000000
4783		-3.906250
4784		0.000000
4785		-3.906250
4786		0.000000
4787		-3.906250
4788		0.000000
4789		-3.906250
4790		0.000000
4791		-3.906250
4792		0.000000
4793		-1.953125
4794		0.000000
4795		-3.906250
4796		0.000000
4797		-1.953125
4798		0.000000
4799		-1.953125
4800		0.000000
4801		-3.906250
4802		0.000000
4803		-1.953125
4804		0.000000
4805		-1.953125
4806		0.000000
4807		-1.953125
4808		0.000000
4809		-1.953125
4810		0.000000
4811		-1.953125
4812		0.000000
4813		-3.906250
4814		1.953125
4815		-1.953125
4816		1.953125
4817		-1.953125
4818		0.000000
4819		-1.953125
4820		1.953125
4821		-1.953125
4822		1.953125
4823		-1.953125
4824		1.953125
4825		-1.953125
4826		1.953125
4827		-1.953125
4828		1.953125
4829		-1.953125
4830		1.953125
4831		-1.953125
4832		1.953125
4833		-1.953125
4834		1.953125
4835		-1.953125
4836		1.953125
4837		0.000000
4838		3.906250
4839		0.000000
4840		1.953125
4841		0.000000
4842		3.906250
4843		0.000000
4844		1.953125
4845		0.000000
4846		3.906250
4847		0.000000
4848		3.906250
4849		0.000000
4850		3.906250
4851		0.000000
4852		3.906250
4853		1.953125
4854		3.906250
4855		1.953125
4856		3.906250
4857		1.953125
4858		5.859375
4859		1.953125
4860		3.906250
4861		1.953125
4862		5.859375
4863		1.953125
4864		5.859375
4865		1.953125
4866		5.859375
4867		1.953125
4868		5.859375
4869		3.906250
4870		5.859375
4871		3.906250
4872		5.859375
4873		3.906250
4874		5.859375
4875		3.906250
4876		7.812500
4877		3.906250
4878		7.812500
4879		3.906250
4880		7.812500
4881		3.906250
4882		7.812500
4883		3.906250
4884		7.812500
4885		5.859375
4886		7.812500
4887		5.859375
4888		7.812500
4889		5.859375
4890		9.765625
4891		5.859375
4892		9.765625
4893		7.812500
4894		9.765625
4895		7.812500
4896		9.765625
4897		5.859375
4898		11.718750
4899		7.812500
4900		11.718750
4901		7.812500
4902		11.718750
4903		7.812500
4904		11.718750
4905		7.812500
4906		11.718750
4907		7.812500
4908		11.718750
4909		7.812500
4910		11.718750
4911		9.765625
4912		11.718750
4913		9.765625
4914		13.671875
4915		9.765625
4916		13.671875
4917		9.765625
4918		13.671875
4919		9.765625
4920		13.671875
4921		9.765625
4922		13.671875
4923		11.718750
4924		13.671875
4925		9.765625
4926		15.625000
4927		11.718750
4928		15.625000
4929		11.718750
4930		15.625000
4931		11.718750
4932		15.625000
4933		11.718750
4934		15.625000
4935		13.671875
4936		15.625000
4937		13.671875
4938		17.578125
4939		13.671875
4940		17.578125
4941		13.671875
4942		17.578125
4943		15.625000
4944		17.578125
4945		15.625000
4946		17.578125
4947		13.671875
4948		19.531250
4949		15.625000
4950		17.578125
4951		15.625000
4952		17.578125
4953		15.625000
4954		17.578125
4955		15.625000
4956		19.531250
4957		15.625000
4958		19.531250
4959		17.578125
4960		19.531250
4961		17.578125
4962		19.531250
4963		15.625000
4964		19.531250
4965		17.578125
4966		19.531250
4967		17.578125
4968		21.484375
4969		17.578125
4970		21.484375
4971		17.578125
4972		21.484375
4973		17.578125
4974		21.484375
4975		17.578125
4976		21.484375
4977		19.531250
4978		21.484375
4979		19.531250
4980		21.484375
4981		19.531250
4982		23.437500
4983		19.531250
4984		21.484375
4985		19.531250
4986		23.437500
4987		19.531250
4988		23.437500
4989		19.531250
4990		23.437500
4991		19.531250
4992		23.437500
4993		19.531250
4994		23.437500
4995		21.484375
4996		23.437500
4997		21.484375
4998		23.437500
4999		21.484375
5000		23.437500
5001		21.484375
5002		23.437500
5003		21.484375
5004		23.437500
5005		21.484375
5006		23.437500
5007		21.484375
5008		23.437500
5009		21.484375
5010		25.390625
5011		21.484375
5012		25.390625
5013		21.484375
5014		25.390625
5015		21.484375
5016		25.390625
5017		21.484375
5018		25.390625
5019		21.484375
5020		25.390625
5021		21.484375
5022		25.390625
5023		23.437500
5024		25.390625
5025		21.484375
5026		25.390625
5027		23.437500
5028		25.390625
5029		23.437500
5030		25.390625
5031		21.484375
5032		25.390625
5033		23.437500
5034		25.390625
5035		23.437500
5036		25.390625
5037		23.437500
5038		25.390625
5039		23.437500
5040		25.390625
5041		23.437500
5042		25.390625
5043		21.484375
5044		25.390625
5045		23.437500
5046		25.390625
5047		21.484375
5048		25.390625
5049		21.484375
5050		25.390625
5051		21.484375
5052		25.390625
5053		21.484375
5054		25.390625
5055		21.484375
5056		25.390625
5057		21.484375
5058		25.390625
5059		21.484375
5060		25.390625
5061		21.484375
5062		23.437500
5063		21.484375
5064		23.437500
5065		21.484375
5066		25.390625
5067		21.484375
5068		25.390625
5069		21.484375
5070		23.437500
5071		21.484375
5072		23.437500
5073		21.484375
5074		23.437500
5075		19.531250
5076		23.437500
5077		19.531250
5078		23.437500
5079		21.484375
5080		23.437500
5081		19.531250
5082		23.437500
5083		19.531250
5084		23.437500
5085		19.531250
5086		21.484375
5087		19.531250
5088		23.437500
5089		19.531250
5090		21.484375
5091		17.578125
5092		21.484375
5093		17.578125
5094		21.484375
5095		19.531250
5096		21.484375
5097		17.578125
5098		21.484375
5099		17.578125
5100		21.484375
5101		17.578125
5102		21.484375
5103		17.578125
5104		19.531250
5105		17.578125
5106		19.531250
5107		15.625000
5108		19.531250
5109		15.625000
5110		19.531250
5111		15.625000
5112		19.531250
5113		15.625000
5114		17.578125
5115		15.625000
5116		19.531250
5117		15.625000
5118		17.578125
5119		13.671875
5120		17.578125
5121		13.671875
5122		17.578125
5123		13.671875
5124		17.578125
5125		13.671875
5126		15.625000
5127		11.718750
5128		15.625000
5129		11.718750
5130		15.625000
5131		11.718750
5132		15.625000
5133		11.718750
5134		15.625000
5135		11.718750
5136		15.625000
5137		11.718750
5138		13.671875
5139		11.718750
5140		13.671875
5141		9.765625
5142		13.671875
5143		9.765625
5144		13.671875
5145		9.765625
5146		11.718750
5147		9.765625
5148		11.718750
5149		9.765625
5150		11.718750
5151		7.812500
5152		11.718750
5153		7.812500
5154		11.718750
5155		7.812500
5156		11.718750
5157		7.812500
5158		11.718750
5159		7.812500
5160		9.765625
5161		7.812500
5162		9.765625
5163		5.859375
5164		9.765625
5165		5.859375
5166		9.765625
5167		5.859375
5168		9.765625
5169		5.859375
5170		9.765625
5171		3.906250
5172		7.812500
5173		5.859375
5174		7.812500
5175		3.906250
5176		7.812500
5177		3.906250
5178		7.812500
5179		3.906250
5180		5.859375
5181		1.953125
5182		7.812500
5183		3.906250
5184		5.859375
5185		1.953125
5186		7.812500
5187		3.906250
5188		5.859375
5189		1.953125
5190		5.859375
5191		1.953125
5192		5.859375
5193		0.000000
5194		5.859375
5195		1.953125
5196		3.906250
5197		1.953125
5198		3.906250
5199		1.953125
5200		3.906250
5201		0.000000
5202		3.906250
5203		0.000000
5204		3.906250
5205		0.000000
5206		3.906250
5207		0.000000
5208		3.906250
5209		0.000000
5210		3.906250
5211		0.000000
5212		3.906250
5213		0.000000
5214		1.953125
5215		-1.953125
5216		1.953125
5217		-1.953125
5218		1.953125
5219		-1.953125
5220		1.953125
5221		-1.953125
5222		1.953125
5223		-1.953125
5224		1.953125
5225		-1.953125
5226		1.953125
5227		-1.953125
5228		1.953125
5229		-1.953125
5230		1.953125
5231		-1.953125
5232		0.000000
5233		-1.953125
5234		1.953125
5235		-1.953125
5236		1.953125
5237		-1.953125
5238		1.953125
5239		-1.953125
5240		0.000000
5241		-1.953125
5242		0.000000
5243		-3.906250
5244		0.000000
5245		-3.906250
5246		0.000000
5247		-1.953125
5248		0.000000
5249		-3.906250
5250		0.000000
5251		-3.906250
5252		0.000000
5253		-3.906250
5254		0.000000
5255		-1.953125
5256		0.000000
5257		-1.953125
5258		0.000000
5259		-3.906250
5260		0.000000
5261		-3.906250
5262		0.000000
5263		-3.906250
5264		0.000000
5265		-1.953125
5266		0.000000
5267		-1.953125
5268		0.000000
5269		-1.953125
5270		0.000000
5271		-1.953125
5272		0.000000
5273		-1.953125
5274		0.000000
5275		-1.953125
5276		0.000000
5277		-3.906250
5278		0.000000
5279		-1.953125
5280		0.000000
5281		-1.953125
5282		0.000000
5283		-1.953125
5284		1.953125
5285		-1.953125
5286		0.000000
5287		-1.953125
5288		1.953125
5289		-1.953125
5290		1.953125
5291		-1.953125
5292		1.953125
5293		-1.953125
5294		1.953125
5295		-1.953125
5296		1.953125
5297		-1.953125
5298		1.953125
5299		-1.953125
5300		1.953125
5301		0.000000
5302		1.953125
5303		0.000000
5304		1.953125
5305		0.000000
5306		1.953125
5307		0.000000
5308		3.906250
5309		0.000000
5310		1.953125
5311		0.000000
5312		1.953125
5313		0.000000
5314		1.953125
5315		0.000000
5316		3.906250
5317		0.000000
5318		3.906250
5319		0.000000
5320		3.906250
5321		1.953125
5322		3.906250
5323		1.953125
5324		3.906250
5325		1.953125
5326		3.906250
5327		1.953125
5328		5.859375
5329		1.953125
5330		5.859375
5331		1.953125
5332		5.859375
5333		1.953125
5334		5.859375
5335		1.953125
5336		5.859375
5337		3.906250
5338		5.859375
5339		3.906250
5340		7.812500
5341		3.906250
5342		5.859375
5343		3.906250
5344		7.812500
5345		3.906250
5346		7.812500
5347		5.859375
5348		7.812500
5349		5.859375
5350		7.812500
5351		3.906250
5352		7.812500
5353		5.859375
5354		7.812500
5355		5.859375
5356		9.765625
5357		5.859375
5358		9.765625
5359		5.859375
5360		9.765625
5361		5.859375
5362		9.765625
5363		7.812500
5364		9.765625
5365		7.812500
5366		9.765625
5367		7.812500
5368		11.718750
5369		7.812500
5370		11.718750
5371		7.812500
5372		11.718750
5373		7.812500
5374		11.718750
5375		7.812500
5376		11.718750
5377		9.765625
5378		11.718750
5379		9.765625
5380		11.718750
5381		9.765625
5382		11.718750
5383		9.765625
5384		13.671875
5385		9.765625
5386		13.671875
5387		11.718750
5388		13.671875
5389		11.718750
5390		13.671875
5391		11.718750
5392		13.671875
5393		11.718750
5394		15.625000
5395		11.718750
5396		15.625000
5397		11.718750
5398		15.625000
5399		13.671875
5400		15.625000
5401		13.671875
5402		15.625000
5403		13.671875
5404		17.578125
5405		13.671875
5406		17.578125
5407		13.671875
5408		17.578125
5409		13.671875
5410		17.578125
5411		13.671875
5412		17.578125
5413		13.671875
5414		17.578125
5415		15.625000
5416		17.578125
5417		15.625000
5418		19.531250
5419		15.625000
5420		19.531250
5421		15.625000
5422		19.531250
5423		15.625000
5424		19.531250
5425		15.625000
5426		19.531250
5427		17.578125
5428		19.531250
5429		17.578125
5430		21.484375
5431		17.578125
5432		19.531250
5433		17.578125
5434		21.484375
5435		17.578125
5436		21.484375
5437		17.578125
5438		21.484375
5439		17.578125
5440		21.484375
5441		17.578125
5442		21.484375
5443		19.531250
5444		21.484375
5445		17.578125
5446		23.437500
5447		19.531250
5448		21.484375
5449		19.531250
5450		21.484375
5451		19.531250
5452		23.437500
5453		19.531250
5454		23.437500
5455		19.531250
5456		23.437500
5457		21.484375
5458		23.437500
5459		21.484375
5460		23.437500
5461		21.484375
5462		23.437500
5463		19.531250
5464		23.437500
5465		21.484375
5466		23.437500
5467		21.484375
5468		25.390625
5469		21.484375
5470		25.390625
5471		21.484375
5472		25.390625
5473		21.484375
5474		25.390625
5475		21.484375
5476		25.390625
5477		21.484375
5478		25.390625
5479		21.484375
5480		25.390625
5481		23.437500
5482		25.390625
5483		23.437500
5484		25.390625
5485		23.437500
5486		25.390625
5487		21.484375
5488		25.390625
5489		21.484375
5490		25.390625
5491		23.437500
5492		25.390625
5493		21.484375
5494		25.390625
5495		23.437500
5496		25.390625
5497		23.437500
5498		27.343750
5499		23.437500
5500		25.390625
5501		23.437500
5502		27.343750
5503		23.437500
5504		25.390625
5505		23.437500
5506		27.343750
5507		21.484375
5508		27.343750
5509		23.437500
5510		25.390625
5511		23.437500
5512		25.390625
5513		21.484375
5514		27.343750
5515		23.437500
5516		25.390625
5517		23.437500
5518		25.390625
5519		23.437500
5520		25.390625
5521		23.437500
5522		25.390625
5523		23.437500
5524		25.390625
5525		23.437500
5526		25.390625
5527		21.484375
5528		25.390625
5529		23.437500
5530		25.390625
5531		21.484375
5532		25.390625
5533		21.484375
5534		25.390625
5535		21.484375
5536		25.390625
5537		21.484375
5538		25.390625
5539		21.484375
5540		25.390625
5541		21.484375
5542		23.437500
5543		21.484375
5544		25.390625
5545		21.484375
5546		25.390625
5547		21.484375
5548		25.390625
5549		21.484375
5550		23.437500
5551		21.484375
5552		23.437500
5553		19.531250
5554		23.437500
5555		19.531250
5556		23.437500
5557		19.531250
5558		23.437500
5559		19.531250
5560		23.437500
5561		19.531250
5562		23.437500
5563		19.531250
5564		23.437500
5565		19.531250
5566		21.484375
5567		19.531250
5568		21.484375
5569		17.578125
5570		21.484375
5571		17.578125
5572		21.484375
5573		17.578125
5574		21.484375
5575		17.578125
5576		21.484375
5577		17.578125
5578		19.531250
5579		17.578125
5580		21.484375
5581		17.578125
5582		19.531250
5583		17.578125
5584		19.531250
5585		15.625000
5586		19.531250
5587		15.625000
5588		19.531250
5589		15.625000
5590		19.531250
5591		15.625000
5592		17.578125
5593		13.671875
5594		17.578125
5595		13.671875
5596		17.578125
5597		13.671875
5598		17.578125
5599		13.671875
5600		17.578125
5601		13.671875
5602		15.625000
5603		13.671875
5604		17.578125
5605		11.718750
5606		15.625000
5607		13.671875
5608		15.625000
5609		11.718750
5610		15.625000
5611		11.718750
5612		15.625000
5613		11.718750
5614		13.671875
5615		9.765625
5616		13.671875
5617		9.765625
5618		13.671875
5619		9.765625
5620		13.671875
5621		9.765625
5622		13.671875
5623		9.765625
5624		11.718750
5625		9.765625
5626		11.718750
5627		9.765625
5628		11.718750
5629		7.812500
5630		11.718750
5631		7.812500
5632		11.718750
5633		7.812500
5634		9.765625
5635		5.859375
5636		9.765625
5637		7.812500
5638		9.765625
5639		5.859375
5640		9.765625
5641		5.859375
5642		9.765625
5643		5.859375
5644		9.765625
5645		5.859375
5646		9.765625
5647		5.859375
5648		7.812500
5649		5.859375
5650		7.812500
5651		5.859375
5652		7.812500
5653		3.906250
5654		7.812500
5655		3.906250
5656		7.812500
5657		3.906250
5658		7.812500
5659		3.906250
5660		5.859375
5661		3.906250
5662		5.859375
5663		1.953125
5664		5.859375
5665		1.953125
5666		5.859375
5667		1.953125
5668		5.859375
5669		1.953125
5670		5.859375
5671		1.953125
5672		3.906250
5673		1.953125
5674		3.906250
5675		0.000000
5676		5.859375
5677		0.000000
5678		3.906250
5679		0.000000
5680		3.906250
5681		0.000000
5682		3.906250
5683		0.000000
5684		3.906250
5685		0.000000
5686		3.906250
5687		0.000000
5688		3.906250
5689		0.000000
5690		1.953125
5691		0.000000
5692		3.906250
5693		0.000000
5694		1.953125
5695		0.000000
5696		1.953125
5697		-1.953125
5698		1.953125
5699		-1.953125
5700		1.953125
5701		-1.953125
5702		1.953125
5703		-1.953125
5704		1.953125
5705		-1.953125
5706		1.953125
5707		-1.953125
5708		1.953125
5709		-1.953125
5710		1.953125
5711		-1.953125
5712		1.953125
5713		-1.953125
5714		1.953125
5715		-1.953125
5716		1.953125
5717		-1.953125
5718		0.000000
5719		-1.953125
5720		1.953125
5721		-1.953125
5722		1.953125
5723		-1.953125
5724		1.953125
5725		-3.906250
5726		1.953125
5727		-1.953125
5728		1.953125
5729		-1.953125
5730		1.953125
5731		-1.953125
5732		1.953125
5733		-1.953125
5734		0.000000
5735		-1.953125
5736		0.000000
5737		-1.953125
5738		1.953125
5739		-3.906250
5740		1.953125
5741		-1.953125
5742		1.953125
5743		-1.953125
5744		1.953125
5745		-1.953125
5746		1.953125
5747		-1.953125
5748		1.953125
5749		-3.906250
5750		1.953125
5751		-1.953125
5752		1.953125
5753		-1.953125
5754		1.953125
5755		-1.953125
5756		1.953125
5757		-1.953125
5758		1.953125
5759		-1.953125
5760		1.953125
5761		-1.953125
5762		1.953125
5763		-1.953125
5764		1.953125
5765		-1.953125
5766		1.953125
5767		0.000000
5768		1.953125
5769		0.000000
5770		1.953125
5771		0.000000
5772		3.906250
5773		-1.953125
5774		3.906250
5775		0.000000
5776		3.906250
5777		0.000000
5778		3.906250
5779		0.000000
5780		3.906250
5781		0.000000
5782		3.906250
5783		1.953125
5784		3.906250
5785		1.953125
5786		3.906250
5787		0.000000
5788		5.859375
5789		0.000000
5790		5.859375
5791		0.000000
5792		5.859375
5793		1.953125
5794		5.859375
5795		1.953125
5796		5.859375
5797		1.953125
5798		5.859375
5799		1.953125
5800		7.812500
5801		3.906250
5802		5.859375
5803		3.906250
5804		7.812500
5805		1.953125
5806		7.812500
5807		3.906250
5808		7.812500
5809		3.906250
5810		7.812500
5811		3.906250
5812		7.812500
5813		3.906250
5814		7.812500
5815		3.906250
5816		7.812500
5817		5.859375
5818		7.812500
5819		5.859375
5820		7.812500
5821		5.859375
5822		9.765625
5823		5.859375
5824		9.765625
5825		5.859375
5826		9.765625
5827		5.859375
5828		9.765625
5829		5.859375
5830		11.718750
5831		5.859375
5832		11.718750
5833		5.859375
5834		9.765625
5835		7.812500
5836		9.765625
5837		7.812500
5838		11.718750
5839		7.812500
5840		11.718750
5841		9.765625
5842		11.718750
5843		9.765625
5844		11.718750
5845		9.765625
5846		11.718750
5847		9.765625
5848		11.718750
5849		9.765625
5850		13.671875
5851		9.765625
5852		13.671875
5853		11.718750
5854		13.671875
5855		9.765625
5856		15.625000
5857		11.718750
5858		13.671875
5859		11.718750
5860		13.671875
5861		11.718750
5862		13.671875
5863		11.718750
5864		15.625000
5865		13.671875
5866		15.625000
5867		11.718750
5868		15.625000
5869		13.671875
5870		15.625000
5871		13.671875
5872		15.625000
5873		13.671875
5874		15.625000
5875		13.671875
5876		15.625000
5877		15.625000
5878		17.578125
5879		15.625000
5880		17.578125
5881		15.625000
5882		17.578125
5883		15.625000
5884		17.578125
5885		15.625000
5886		19.531250
5887		15.625000
5888		17.578125
5889		15.625000
5890		19.531250
5891		17.578125
5892		19.531250
5893		17.578125
5894		19.531250
5895		17.578125
5896		19.531250
5897		17.578125
5898		19.531250
5899		17.578125
5900		19.531250
5901		17.578125
5902		19.531250
5903		17.578125
5904		21.484375
5905		19.531250
5906		21.484375
5907		19.531250
5908		21.484375
5909		17.578125
5910		21.484375
5911		19.531250
5912		21.484375
5913		19.531250
5914		21.484375
5915		19.531250
5916		21.484375
5917		19.531250
5918		21.484375
5919		19.531250
5920		23.437500
5921		19.531250
5922		23.437500
5923		21.484375
5924		23.437500
5925		21.484375
5926		23.437500
5927		21.484375
5928		23.437500
5929		21.484375
5930		23.437500
5931		21.484375
5932		23.437500
5933		21.484375
5934		23.437500
5935		21.484375
5936		23.437500
5937		21.484375
5938		25.390625
5939		19.531250
5940		27.343750
5941		19.531250
5942		27.343750
5943		19.531250
5944		27.343750
5945		23.437500
5946		25.390625
5947		23.437500
5948		25.390625
5949		23.437500
5950		25.390625
5951		23.437500
5952		25.390625
5953		23.437500
5954		25.390625
5955		19.531250
5956		27.343750
5957		19.531250
5958		29.296875
5959		21.484375
5960		29.296875
5961		23.437500
5962		25.390625
5963		23.437500
5964		25.390625
5965		23.437500
5966		25.390625
5967		23.437500
5968		25.390625
5969		23.437500
5970		25.390625
5971		23.437500
5972		27.343750
5973		19.531250
5974		29.296875
5975		21.484375
5976		29.296875
5977		21.484375
5978		29.296875
5979		23.437500
5980		25.390625
5981		23.437500
5982		25.390625
5983		23.437500
5984		25.390625
5985		23.437500
5986		25.390625
5987		23.437500
5988		25.390625
5989		21.484375
5990		29.296875
5991		21.484375
5992		29.296875
5993		21.484375
5994		29.296875
5995		23.437500
5996		25.390625
5997		23.437500
5998		25.390625
5999		23.437500
6000		25.390625
6001		23.437500
6002		25.390625
6003		23.437500
6004		25.390625
6005		19.531250
6006		29.296875
6007		19.531250
6008		29.296875
6009		19.531250
6010		29.296875
6011		19.531250
6012		27.343750
6013		21.484375
6014		25.390625
6015		21.484375
6016		25.390625
6017		21.484375
6018		23.437500
6019		21.484375
6020		23.437500
6021		21.484375
6022		23.437500
6023		17.578125
6024		27.343750
6025		17.578125
6026		27.343750
6027		17.578125
6028		27.343750
6029		21.484375
6030		23.437500
6031		19.531250
6032		23.437500
6033		19.531250
6034		23.437500
6035		19.531250
6036		21.484375
6037		19.531250
6038		21.484375
6039		15.625000
6040		25.390625
6041		15.625000
6042		25.390625
6043		15.625000
6044		25.390625
6045		15.625000
6046		23.437500
6047		17.578125
6048		21.484375
6049		17.578125
6050		21.484375
6051		17.578125
6052		19.531250
6053		17.578125
6054		19.531250
6055		17.578125
6056		19.531250
6057		13.671875
6058		23.437500
6059		13.671875
6060		21.484375
6061		11.718750
6062		21.484375
6063		15.625000
6064		17.578125
6065		15.625000
6066		17.578125
6067		15.625000
6068		17.578125
6069		15.625000
6070		17.578125
6071		13.671875
6072		17.578125
6073		11.718750
6074		19.531250
6075		9.765625
6076		19.531250
6077		9.765625
6078		19.531250
6079		13.671875
6080		15.625000
6081		13.671875
6082		15.625000
6083		11.718750
6084		15.625000
6085		11.718750
6086		13.671875
6087		11.718750
6088		13.671875
6089		7.812500
6090		15.625000
6091		7.812500
6092		17.578125
6093		7.812500
6094		15.625000
6095		7.812500
6096		15.625000
6097		9.765625
6098		11.718750
6099		9.765625
6100		11.718750
6101		9.765625
6102		11.718750
6103		7.812500
6104		11.718750
6105		7.812500
6106		11.718750
6107		3.906250
6108		13.671875
6109		3.906250
6110		13.671875
6111		3.906250
6112		13.671875
6113		7.812500
6114		9.765625
6115		5.859375
6116		9.765625
6117		5.859375
6118		7.812500
6119		5.859375
6120		7.812500
6121		5.859375
6122		7.812500
6123		5.859375
6124		7.812500
6125		1.953125
6126		9.765625
6127		1.953125
6128		9.765625
6129		3.906250
6130		7.812500
6131		3.906250
6132		5.859375
6133		3.906250
6134		5.859375
6135		3.906250
6136		5.859375
6137		1.953125
6138		5.859375
6139		1.953125
6140		5.859375
6141		1.953125
6142		5.859375
6143		0.000000
6144		7.812500
6145		1.953125
6146		5.859375
6147		1.953125
6148		3.906250
6149		1.953125
6150		3.906250
6151		1.953125
6152		3.906250
6153		1.953125
6154		3.906250
6155		0.000000
6156		3.906250
6157		0.000000
6158		3.906250
6159		-1.953125
6160		5.859375
6161		-1.953125
6162		3.906250
6163		0.000000
6164		1.953125
6165		0.000000
6166		1.953125
6167		0.000000
6168		1.953125
6169		0.000000
6170		1.953125
6171		0.000000
6172		1.953125
6173		0.000000
6174		1.953125
6175		0.000000
6176		1.953125
6177		0.000000
6178		1.953125
6179		-1.953125
6180		1.953125
6181		-1.953125
6182		1.953125
6183		-1.953125
6184		1.953125
6185		-1.953125
6186		1.953125
6187		-1.953125
6188		0.000000
6189		-1.953125
6190		1.953125
6191		-1.953125
6192		1.953125
6193		-1.953125
6194		0.000000
6195		-1.953125
6196		0.000000
6197		-1.953125
6198		0.000000
6199		-1.953125
6200		0.000000
6201		-1.953125
6202		0.000000
6203		-1.953125
6204		0.000000
6205		-1.953125
6206		0.000000
6207		-1.953125
6208		0.000000
6209		-1.953125
6210		0.000000
6211		-1.953125
6212		0.000000
6213		-1.953125
6214		0.000000
6215		-1.953125
6216		0.000000
6217		-1.953125
6218		0.000000
6219		-1.953125
6220		1.953125
6221		-1.953125
6222		0.000000
6223		-1.953125
6224		1.953125
6225		-1.953125
6226		1.953125
6227		-1.953125
6228		1.953125
6229		0.000000
6230		1.953125
6231		-1.953125
6232		1.953125
6233		-1.953125
6234		1.953125
6235		0.000000
6236		1.953125
6237		0.000000
6238		1.953125
6239		0.000000
6240		1.953125
6241		0.000000
6242		3.906250
6243		0.000000
6244		3.906250
6245		0.000000
6246		1.953125
6247		0.000000
6248		3.906250
6249		0.000000
6250		3.906250
6251		1.953125
6252		3.906250
6253		1.953125
6254		3.906250
6255		1.953125
6256		3.906250
6257		1.953125
6258		3.906250
6259		1.953125
6260		5.859375
6261		1.953125
6262		3.906250
6263		1.953125
6264		3.906250
6265		1.953125
6266		5.859375
6267		1.953125
6268		5.859375
6269		1.953125
6270		5.859375
6271		3.906250
6272		5.859375
6273		3.906250
6274		5.859375
6275		1.953125
6276		7.812500
6277		3.906250
6278		7.812500
6279		3.906250
6280		7.812500
6281		3.906250
6282		7.812500
6283		3.906250
6284		7.812500
6285		5.859375
6286		7.812500
6287		5.859375
6288		7.812500
6289		5.859375
6290		7.812500
6291		3.906250
6292		9.765625
6293		5.859375
6294		9.765625
6295		5.859375
6296		9.765625
6297		5.859375
6298		9.765625
6299		5.859375
6300		9.765625
6301		7.812500
6302		9.765625
6303		7.812500
6304		9.765625
6305		7.812500
6306		9.765625
6307		7.812500
6308		11.718750
6309		7.812500
6310		11.718750
6311		7.812500
6312		11.718750
6313		9.765625
6314		11.718750
6315		7.812500
6316		13.671875
6317		9.765625
6318		13.671875
6319		9.765625
6320		13.671875
6321		9.765625
6322		13.671875
6323		11.718750
6324		13.671875
6325		9.765625
6326		15.625000
6327		11.718750
6328		13.671875
6329		11.718750
6330		13.671875
6331		11.718750
6332		15.625000
6333		11.718750
6334		15.625000
6335		13.671875
6336		15.625000
6337		13.671875
6338		15.625000
6339		13.671875
6340		15.625000
6341		11.718750
6342		17.578125
6343		13.671875
6344		17.578125
6345		13.671875
6346		17.578125
6347		13.671875
6348		17.578125
6349		13.671875
6350		17.578125
6351		15.625000
6352		17.578125
6353		15.625000
6354		17.578125
6355		15.625000
6356		17.578125
6357		15.625000
6358		19.531250
6359		13.671875
6360		19.531250
6361		15.625000
6362		19.531250
6363		17.578125
6364		19.531250
6365		17.578125
6366		19.531250
6367		17.578125
6368		21.484375
6369		17.578125
6370		19.531250
6371		17.578125
6372		21.484375
6373		17.578125
6374		21.484375
6375		17.578125
6376		21.484375
6377		17.578125
6378		21.484375
6379		19.531250
6380		21.484375
6381		19.531250
6382		21.484375
6383		19.531250
6384		23.437500
6385		19.531250
6386		23.437500
6387		19.531250
6388		23.437500
6389		19.531250
6390		23.437500
6391		19.531250
6392		23.437500
6393		19.531250
6394		23.437500
6395		21.484375
6396		23.437500
6397		21.484375
6398		23.437500
6399		21.484375
6400		25.390625
6401		21.484375
6402		25.390625
6403		21.484375
6404		23.437500
6405		21.484375
6406		25.390625
6407		21.484375
6408		25.390625
6409		21.484375
6410		25.390625
6411		21.484375
6412		25.390625
6413		23.437500
6414		25.390625
6415		23.437500
6416		25.390625
6417		23.437500
6418		25.390625
6419		23.437500
6420		25.390625
6421		23.437500
6422		25.390625
6423		23.437500
6424		25.390625
6425		23.437500
6426		27.343750
6427		23.437500
6428		25.390625
6429		23.437500
6430		25.390625
6431		23.437500
6432		25.390625
6433		23.437500
6434		25.390625
6435		23.437500
6436		27.343750
6437		23.437500
6438		27.343750
6439		23.437500
6440		27.343750
6441		23.437500
6442		25.390625
6443		23.437500
6444		27.343750
6445		23.437500
6446		27.343750
6447		23.437500
6448		27.343750
6449		23.437500
6450		27.343750
6451		23.437500
6452		27.343750
6453		23.437500
6454		27.343750
6455		23.437500
6456		25.390625
6457		23.437500
6458		27.343750
6459		23.437500
6460		25.390625
6461		23.437500
6462		25.390625
6463		23.437500
6464		25.390625
6465		23.437500
6466		25.390625
6467		23.437500
6468		25.390625
6469		23.437500
6470		25.390625
6471		23.437500
6472		25.390625
6473		23.437500
6474		25.390625
6475		23.437500
6476		25.390625
6477		23.437500
6478		25.390625
6479		23.437500
6480		25.390625
6481		23.437500
6482		25.390625
6483		21.484375
6484		25.390625
6485		21.484375
6486		25.390625
6487		21.484375
6488		25.390625
6489		21.484375
6490		25.390625
6491		21.484375
6492		23.437500
6493		21.484375
6494		23.437500
6495		21.484375
6496		23.437500
6497		21.484375
6498		23.437500
6499		21.484375
6500		23.437500
6501		21.484375
6502		23.437500
6503		19.531250
6504		23.437500
6505		19.531250
6506		23.437500
6507		19.531250
6508		23.437500
6509		19.531250
6510		21.484375
6511		19.531250
6512		21.484375
6513		19.531250
6514		23.437500
6515		19.531250
6516		21.484375
6517		17.578125
6518		21.484375
6519		17.578125
6520		21.484375
6521		17.578125
6522		19.531250
6523		17.578125
6524		19.531250
6525		17.578125
6526		19.531250
6527		17.578125
6528		19.531250
6529		17.578125
6530		19.531250
6531		17.578125
6532		19.531250
6533		15.625000
6534		19.531250
6535		15.625000
6536		17.578125
6537		15.625000
6538		17.578125
6539		15.625000
6540		17.578125
6541		15.625000
6542		17.578125
6543		13.671875
6544		17.578125
6545		13.671875
6546		15.625000
6547		13.671875
6548		15.625000
6549		13.671875
6550		15.625000
6551		13.671875
6552		15.625000
6553		11.718750
6554		15.625000
6555		11.718750
6556		15.625000
6557		11.718750
6558		15.625000
6559		11.718750
6560		13.671875
6561		9.765625
6562		15.625000
6563		9.765625
6564		13.671875
6565		9.765625
6566		13.671875
6567		9.765625
6568		11.718750
6569		9.765625
6570		11.718750
6571		9.765625
6572		11.718750
6573		9.765625
6574		11.718750
6575		9.765625
6576		11.718750
6577		5.859375
6578		13.671875
6579		7.812500
6580		11.718750
6581		7.812500
6582		9.765625
6583		7.812500
6584		9.765625
6585		7.812500
6586		9.765625
6587		5.859375
6588		9.765625
6589		5.859375
6590		9.765625
6591		5.859375
6592		9.765625
6593		3.906250
6594		9.765625
6595		3.906250
6596		9.765625
6597		3.906250
6598		9.765625
6599		5.859375
6600		7.812500
6601		3.906250
6602		7.812500
6603		3.906250
6604		7.812500
6605		3.906250
6606		5.859375
6607		3.906250
6608		5.859375
6609		3.906250
6610		5.859375
6611		1.953125
6612		7.812500
6613		1.953125
6614		7.812500
6615		1.953125
6616		3.906250
6617		1.953125
6618		3.906250
6619		1.953125
6620		3.906250
6621		1.953125
6622		3.906250
6623		1.953125
6624		3.906250
6625		0.000000
6626		3.906250
6627		0.000000
6628		5.859375
6629		-1.953125
6630		3.906250
6631		1.953125
6632		3.906250
6633		0.000000
6634		3.906250
6635		0.000000
6636		3.906250
6637		0.000000
6638		1.953125
6639		0.000000
6640		1.953125
6641		0.000000
6642		1.953125
6643		0.000000
6644		1.953125
6645		-1.953125
6646		3.906250
6647		-1.953125
6648		3.906250
6649		0.000000
6650		1.953125
6651		0.000000
6652		1.953125
6653		0.000000
6654		1.953125
6655		0.000000
6656		1.953125
6657		0.000000
6658		1.953125
6659		-1.953125
6660		1.953125
6661		-1.953125
6662		3.906250
6663		-1.953125
6664		1.953125
6665		-1.953125
6666		1.953125
6667		-1.953125
6668		1.953125
6669		-1.953125
6670		1.953125
6671		-1.953125
6672		1.953125
6673		-1.953125
6674		1.953125
6675		-1.953125
6676		1.953125
6677		-1.953125
6678		1.953125
6679		-1.953125
6680		1.953125
6681		-1.953125
6682		1.953125
6683		-1.953125
6684		1.953125
6685		-1.953125
6686		1.953125
6687		-1.953125
6688		1.953125
6689		-1.953125
6690		1.953125
6691		-1.953125
6692		1.953125
6693		0.000000
6694		1.953125
6695		-1.953125
6696		3.906250
6697		-1.953125
6698		1.953125
6699		0.000000
6700		1.953125
6701		0.000000
6702		1.953125
6703		0.000000
6704		1.953125
6705		0.000000
6706		1.953125
6707		0.000000
6708		1.953125
6709		0.000000
6710		1.953125
6711		-1.953125
6712		3.906250
6713		0.000000
6714		3.906250
6715		0.000000
6716		1.953125
6717		0.000000
6718		3.906250
6719		1.953125
6720		3.906250
6721		1.953125
6722		3.906250
6723		1.953125
6724		3.906250
6725		1.953125
6726		3.906250
6727		1.953125
6728		3.906250
6729		0.000000
6730		5.859375
6731		0.000000
6732		5.859375
6733		1.953125
6734		3.906250
6735		1.953125
6736		5.859375
6737		1.953125
6738		5.859375
6739		3.906250
6740		5.859375
6741		3.906250
6742		5.859375
6743		3.906250
6744		5.859375
6745		3.906250
6746		5.859375
6747		3.906250
6748		5.859375
6749		3.906250
6750		5.859375
6751		3.906250
6752		7.812500
6753		3.906250
6754		7.812500
6755		5.859375
6756		7.812500
6757		5.859375
6758		7.812500
6759		5.859375
6760		7.812500
6761		5.859375
6762		7.812500
6763		5.859375
6764		9.765625
6765		5.859375
6766		7.812500
6767		7.812500
6768		9.765625
6769		5.859375
6770		9.765625
6771		7.812500
6772		9.765625
6773		7.812500
6774		9.765625
6775		7.812500
6776		9.765625
6777		7.812500
6778		9.765625
6779		7.812500
6780		11.718750
6781		7.812500
6782		11.718750
6783		9.765625
6784		11.718750
6785		9.765625
6786		11.718750
6787		9.765625
6788		11.718750
6789		9.765625
6790		11.718750
6791		9.765625
6792		13.671875
6793		9.765625
6794		13.671875
6795		11.718750
6796		13.671875
6797		11.718750
6798		13.671875
6799		11.718750
6800		13.671875
6801		11.718750
6802		13.671875
6803		11.718750
6804		15.625000
6805		13.671875
6806		15.625000
6807		13.671875
6808		15.625000
6809		13.671875
6810		15.625000
6811		13.671875
6812		15.625000
6813		13.671875
6814		17.578125
6815		13.671875
6816		17.578125
6817		13.671875
6818		17.578125
6819		15.625000
6820		17.578125
6821		15.625000
6822		17.578125
6823		15.625000
6824		17.578125
6825		15.625000
6826		19.531250
6827		15.625000
6828		19.531250
6829		17.578125
6830		19.531250
6831		17.578125
6832		19.531250
6833		17.578125
6834		19.531250
6835		17.578125
6836		19.531250
6837		17.578125
6838		19.531250
6839		17.578125
6840		19.531250
6841		17.578125
6842		19.531250
6843		17.578125
6844		21.484375
6845		19.531250
6846		21.484375
6847		19.531250
6848		21.484375
6849		19.531250
6850		21.484375
6851		19.531250
6852		21.484375
6853		19.531250
6854		21.484375
6855		19.531250
6856		23.437500
6857		19.531250
6858		23.437500
6859		19.531250
6860		23.437500
6861		21.484375
6862		23.437500
6863		21.484375
6864		23.437500
6865		21.484375
6866		23.437500
6867		21.484375
6868		23.437500
6869		21.484375
6870		23.437500
6871		21.484375
6872		23.437500
6873		21.484375
6874		23.437500
6875		21.484375
6876		25.390625
6877		21.484375
6878		25.390625
6879		21.484375
6880		25.390625
6881		23.437500
6882		25.390625
6883		23.437500
6884		25.390625
6885		23.437500
6886		25.390625
6887		23.437500
6888		25.390625
6889		23.437500
6890		25.390625
6891		23.437500
6892		25.390625
6893		23.437500
6894		25.390625
6895		23.437500
6896		25.390625
6897		23.437500
6898		25.390625
6899		23.437500
6900		25.390625
6901		23.437500
6902		27.343750
6903		23.437500
6904		27.343750
6905		23.437500
6906		25.390625
6907		23.437500
6908		27.343750
6909		23.437500
6910		27.343750
6911		23.437500
6912		25.390625
6913		23.437500
6914		27.343750
6915		23.437500
6916		27.343750
6917		23.437500
6918		27.343750
6919		23.437500
6920		27.343750
6921		23.437500
6922		25.390625
6923		23.437500
6924		27.343750
6925		23.437500
6926		27.343750
6927		23.437500
6928		27.343750
6929		23.437500
6930		25.390625
6931		23.437500
6932		27.343750
6933		23.437500
6934		27.343750
6935		23.437500
6936		27.343750
6937		23.437500
6938		25.390625
6939		23.437500
6940		25.390625
6941		23.437500
6942		25.390625
6943		23.437500
6944		25.390625
6945		23.437500
6946		25.390625
6947		23.437500
6948		25.390625
6949		23.437500
6950		25.390625
6951		23.437500
6952		25.390625
6953		23.437500
6954		25.390625
6955		23.437500
6956		25.390625
6957		21.484375
6958		25.390625
6959		23.437500
6960		25.390625
6961		21.484375
6962		23.437500
6963		21.484375
6964		25.390625
6965		21.484375
6966		23.437500
6967		21.484375
6968		23.437500
6969		21.484375
6970		23.437500
6971		21.484375
6972		23.437500
6973		21.484375
6974		23.437500
6975		21.484375
6976		23.437500
6977		19.531250
6978		23.437500
6979		19.531250
6980		23.437500
6981		19.531250
6982		21.484375
6983		19.531250
6984		21.484375
6985		19.531250
6986		21.484375
6987		19.531250
6988		21.484375
6989		17.578125
6990		21.484375
6991		17.578125
6992		21.484375
6993		17.578125
6994		19.531250
6995		17.578125
6996		19.531250
6997		17.578125
6998		19.531250
6999		17.578125
7000		19.531250
7001		17.578125
7002		19.531250
7003		15.625000
7004		19.531250
7005		15.625000
7006		17.578125
7007		15.625000
7008		17.578125
7009		15.625000
7010		17.578125
7011		15.625000
7012		17.578125
7013		13.671875
7014		17.578125
7015		13.671875
7016		17.578125
7017		13.671875
7018		15.625000
7019		13.671875
7020		15.625000
7021		13.671875
7022		15.625000
7023		13.671875
7024		15.625000
7025		13.671875
7026		15.625000
7027		11.718750
7028		15.625000
7029		11.718750
7030		13.671875
7031		11.718750
7032		13.671875
7033		11.718750
7034		13.671875
7035		11.718750
7036		13.671875
7037		9.765625
7038		13.671875
7039		9.765625
7040		11.718750
7041		9.765625
7042		11.718750
7043		9.765625
7044		11.718750
7045		9.765625
7046		11.718750
7047		9.765625
7048		11.718750
7049		7.812500
7050		11.718750
7051		7.812500
7052		9.765625
7053		7.812500
7054		9.765625
7055		7.812500
7056		9.765625
7057		7.812500
7058		9.765625
7059		7.812500
7060		9.765625
7061		5.859375
7062		9.765625
7063		5.859375
7064		7.812500
7065		5.859375
7066		7.812500
7067		5.859375
7068		7.812500
7069		5.859375
7070		7.812500
7071		5.859375
7072		7.812500
7073		3.906250
7074		7.812500
7075		3.906250
7076		5.859375
7077		3.906250
7078		5.859375
7079		3.906250
7080		5.859375
7081		3.906250
7082		5.859375
7083		3.906250
7084		5.859375
7085		1.953125
7086		5.859375
7087		1.953125
7088		5.859375
7089		1.953125
7090		3.906250
7091		1.953125
7092		3.906250
7093		1.953125
7094		3.906250
7095		1.953125
7096		3.906250
7097		1.953125
7098		3.906250
7099		1.953125
7100		3.906250
7101		1.953125
7102		3.906250
7103		0.000000
7104		3.906250
7105		1.953125
7106		3.906250
7107		0.000000
7108		1.953125
7109		0.000000
7110		3.906250
7111		0.000000
7112		1.953125
7113		0.000000
7114		1.953125
7115		0.000000
7116		1.953125
7117		0.000000
7118		1.953125
7119		0.000000
7120		1.953125
7121		0.000000
7122		1.953125
7123		0.000000
7124		1.953125
7125		0.000000
7126		1.953125
7127		0.000000
7128		1.953125
7129		0.000000
7130		1.953125
7131		-1.953125
7132		1.953125
7133		0.000000
7134		1.953125
7135		0.000000
7136		1.953125
7137		0.000000
7138		1.953125
7139		0.000000
7140		1.953125
7141		-1.953125
7142		1.953125
7143		-1.953125
7144		1.953125
7145		0.000000
7146		1.953125
7147		-1.953125
7148		1.953125
7149		-1.953125
7150		1.953125
7151		-1.953125
7152		1.953125
7153		0.000000
7154		1.953125
7155		0.000000
7156		1.953125
7157		-1.953125
7158		1.953125
7159		0.000000
7160		1.953125
7161		0.000000
7162		1.953125
7163		-1.953125
7164		1.953125
7165		0.000000
7166		1.953125
7167		0.000000
7168		1.953125
7169		0.000000
7170		1.953125
7171		0.000000
7172		1.953125
7173		0.000000
7174		1.953125
7175		0.000000
7176		1.953125
7177		0.000000
7178		1.953125
7179		0.000000
7180		1.953125
7181		0.000000
7182		1.953125
7183		0.000000
7184		1.953125
7185		0.000000
7186		1.953125
7187		0.000000
7188		3.906250
7189		0.000000
7190		3.906250
7191		1.953125
7192		3.906250
7193		1.953125
7194		3.906250
7195		1.953125
7196		3.906250
7197		1.953125
7198		3.906250
7199		1.953125
7200		3.906250
7201		1.953125
7202		3.906250
7203		1.953125
7204		3.906250
7205		1.953125
7206		3.906250
7207		1.953125
7208		5.859375
7209		1.953125
7210		5.859375
7211		3.906250
7212		5.859375
7213		3.906250
7214		5.859375
7215		3.906250
7216		5.859375
7217		3.906250
7218		5.859375
7219		3.906250
7220		7.812500
7221		3.906250
7222		5.859375
7223		5.859375
7224		7.812500
7225		5.859375
7226		7.812500
7227		3.906250
7228		7.812500
7229		5.859375
7230		7.812500
7231		5.859375
7232		7.812500
7233		5.859375
7234		7.812500
7235		5.859375
7236		9.765625
7237		5.859375
7238		9.765625
7239		5.859375
7240		9.765625
7241		7.812500
7242		9.765625
7243		7.812500
7244		9.765625
7245		7.812500
7246		9.765625
7247		7.812500
7248		9.765625
7249		7.812500
7250		11.718750
7251		7.812500
7252		11.718750
7253		9.765625
7254		11.718750
7255		9.765625
7256		11.718750
7257		9.765625
7258		11.718750
7259		9.765625
7260		13.671875
7261		9.765625
7262		13.671875
7263		9.765625
7264		13.671875
7265		11.718750
7266		13.671875
7267		11.718750
7268		13.671875
7269		11.718750
7270		13.671875
7271		11.718750
7272		15.625000
7273		11.718750
7274		15.625000
7275		11.718750
7276		15.625000
7277		13.671875
7278		15.625000
7279		13.671875
7280		15.625000
7281		13.671875
7282		15.625000
7283		13.671875
7284		17.578125
7285		13.671875
7286		17.578125
7287		15.625000
7288		17.578125
7289		15.625000
7290		17.578125
7291		15.625000
7292		17.578125
7293		15.625000
7294		17.578125
7295		15.625000
7296		19.531250
7297		15.625000
7298		19.531250
7299		15.625000
7300		19.531250
7301		17.578125
7302		19.531250
7303		17.578125
7304		19.531250
7305		17.578125
7306		19.531250
7307		17.578125
7308		19.531250
7309		17.578125
7310		19.531250
7311		17.578125
7312		21.484375
7313		17.578125
7314		21.484375
7315		19.531250
7316		21.484375
7317		19.531250
7318		21.484375
7319		19.531250
7320		21.484375
7321		19.531250
7322		21.484375
7323		19.531250
7324		23.437500
7325		19.531250
7326		23.437500
7327		19.531250
7328		23.437500
7329		21.484375
7330		23.437500
7331		21.484375
7332		23.437500
7333		21.484375
7334		23.437500
7335		21.484375
7336		23.437500
7337		21.484375
7338		23.437500
7339		21.484375
7340		23.437500
7341		21.484375
7342		25.390625
7343		21.484375
7344		25.390625
7345		23.437500
7346		25.390625
7347		23.437500
7348		25.390625
7349		23.437500
7350		25.390625
7351		23.437500
7352		25.390625
7353		23.437500
7354		25.390625
7355		23.437500
7356		25.390625
7357		23.437500
7358		25.390625
7359		23.437500
7360		25.390625
7361		23.437500
7362		25.390625
7363		23.437500
7364		25.390625
7365		23.437500
7366		27.343750
7367		23.437500
7368		27.343750
7369		23.437500
7370		27.343750
7371		25.390625
7372		27.343750
7373		25.390625
7374		27.343750
7375		25.390625
7376		27.343750
7377		25.390625
7378		27.343750
7379		25.390625
7380		27.343750
7381		25.390625
7382		27.343750
7383		25.390625
7384		27.343750
7385		25.390625
7386		27.343750
7387		25.390625
7388		27.343750
7389		25.390625
7390		27.343750
7391		25.390625
7392		27.343750
7393		25.390625
7394		27.343750
7395		25.390625
7396		27.343750
7397		25.390625
7398		27.343750
7399		25.390625
7400		27.343750
7401		25.390625
7402		27.343750
7403		25.390625
7404		27.343750
7405		25.390625
7406		27.343750
7407		25.390625
7408		27.343750
7409		23.437500
7410		27.343750
7411		23.437500
7412		27.343750
7413		23.437500
7414		27.343750
7415		23.437500
7416		27.343750
7417		23.437500
7418		27.343750
7419		23.437500
7420		25.390625
7421		23.437500
7422		25.390625
7423		23.437500
7424		25.390625
7425		23.437500
7426		25.390625
7427		23.437500
7428		25.390625
7429		23.437500
7430		25.390625
7431		21.484375
7432		25.390625
7433		23.437500
7434		25.390625
7435		21.484375
7436		25.390625
7437		21.484375
7438		25.390625
7439		21.484375
7440		23.437500
7441		21.484375
7442		23.437500
7443		21.484375
7444		25.390625
7445		21.484375
7446		23.437500
7447		21.484375
7448		23.437500
7449		21.484375
7450		23.437500
7451		19.531250
7452		23.437500
7453		19.531250
7454		23.437500
7455		19.531250
7456		21.484375
7457		19.531250
7458		21.484375
7459		19.531250
7460		21.484375
7461		19.531250
7462		21.484375
7463		17.578125
7464		21.484375
7465		17.578125
7466		21.484375
7467		17.578125
7468		19.531250
7469		17.578125
7470		19.531250
7471		17.578125
7472		19.531250
7473		17.578125
7474		19.531250
7475		17.578125
7476		19.531250
7477		17.578125
7478		19.531250
7479		15.625000
7480		17.578125
7481		15.625000
7482		17.578125
7483		15.625000
7484		17.578125
7485		15.625000
7486		17.578125
7487		15.625000
7488		17.578125
7489		13.671875
7490		17.578125
7491		13.671875
7492		15.625000
7493		13.671875
7494		15.625000
7495		13.671875
7496		15.625000
7497		13.671875
7498		15.625000
7499		11.718750
7500		15.625000
7501		11.718750
7502		13.671875
7503		11.718750
7504		13.671875
7505		11.718750
7506		13.671875
7507		11.718750
7508		13.671875
7509		11.718750
7510		13.671875
7511		9.765625
7512		11.718750
7513		9.765625
7514		11.718750
7515		9.765625
7516		11.718750
7517		9.765625
7518		11.718750
7519		9.765625
7520		11.718750
7521		9.765625
7522		11.718750
7523		7.812500
7524		11.718750
7525		7.812500
7526		9.765625
7527		7.812500
7528		9.765625
7529		7.812500
7530		9.765625
7531		7.812500
7532		9.765625
7533		5.859375
7534		9.765625
7535		5.859375
7536		7.812500
7537		5.859375
7538		9.765625
7539		5.859375
7540		7.812500
7541		5.859375
7542		7.812500
7543		5.859375
7544		7.812500
7545		5.859375
7546		7.812500
7547		3.906250
7548		7.812500
7549		3.906250
7550		5.859375
7551		3.906250
7552		5.859375
7553		3.906250
7554		5.859375
7555		3.906250
7556		5.859375
7557		3.906250
7558		5.859375
7559		3.906250
7560		5.859375
7561		3.906250
7562		5.859375
7563		1.953125
7564		5.859375
7565		1.953125
7566		3.906250
7567		1.953125
7568		3.906250
7569		1.953125
7570		3.906250
7571		1.953125
7572		3.906250
7573		1.953125
7574		3.906250
7575		1.953125
7576		3.906250
7577		1.953125
7578		3.906250
7579		0.000000
7580		3.906250
7581		1.953125
7582		3.906250
7583		0.000000
7584		3.906250
7585		0.000000
7586		3.906250
7587		0.000000
7588		1.953125
7589		-1.953125
7590		3.906250
7591		0.000000
7592		3.906250
7593		0.000000
7594		3.906250
7595		-1.953125
7596		3.906250
7597		0.000000
7598		1.953125
7599		0.000000
7600		1.953125
7601		0.000000
7602		1.953125
7603		0.000000
7604		1.953125
7605		0.000000
7606		1.953125
7607		-1.953125
7608		3.906250
7609		0.000000
7610		1.953125
7611		-1.953125
7612		3.906250
7613		0.000000
7614		1.953125
7615		-3.906250
7616		3.906250
7617		0.000000
7618		1.953125
7619		0.000000
7620		1.953125
7621		-1.953125
7622		1.953125
7623		-1.953125
7624		3.906250
7625		0.000000
7626		1.953125
7627		-1.953125
7628		3.906250
7629		0.000000
7630		1.953125
7631		-1.953125
7632		3.906250
7633		0.000000
7634		1.953125
7635		0.000000
7636		1.953125
7637		-1.953125
7638		3.906250
7639		0.000000
7640		3.906250
7641		0.000000
7642		3.906250
7643		0.000000
7644		3.906250
7645		0.000000
7646		3.906250
7647		0.000000
7648		3.906250
7649		0.000000
7650		1.953125
7651		0.000000
7652		3.906250
7653		0.000000
7654		3.906250
7655		-1.953125
7656		5.859375
7657		0.000000
7658		5.859375
7659		0.000000
7660		5.859375
7661		0.000000
7662		5.859375
7663		1.953125
7664		3.906250
7665		0.000000
7666		7.812500
7667		1.953125
7668		3.906250
7669		1.953125
7670		5.859375
7671		1.953125
7672		7.812500
7673		1.953125
7674		7.812500
7675		1.953125
7676		5.859375
7677		1.953125
7678		5.859375
7679		1.953125
7680		7.812500
7681		0.000000
7682		7.812500
7683		3.906250
7684		5.859375
7685		3.906250
7686		5.859375
7687		3.906250
7688		7.812500
7689		3.906250
7690		9.765625
7691		1.953125
7692		9.765625
7693		3.906250
7694		7.812500
7695		3.906250
7696		11.718750
7697		5.859375
7698		7.812500
7699		3.906250
7700		9.765625
7701		5.859375
7702		7.812500
7703		5.859375
7704		9.765625
7705		3.906250
7706		13.671875
7707		5.859375
7708		11.718750
7709		7.812500
7710		9.765625
7711		5.859375
7712		11.718750
7713		5.859375
7714		13.671875
7715		5.859375
7716		13.671875
7717		7.812500
7718		11.718750
7719		9.765625
7720		11.718750
7721		7.812500
7722		13.671875
7723		5.859375
7724		15.625000
7725		9.765625
7726		13.671875
7727		9.765625
7728		11.718750
7729		7.812500
7730		17.578125
7731		9.765625
7732		17.578125
7733		7.812500
7734		15.625000
7735		11.718750
7736		13.671875
7737		11.718750
7738		15.625000
7739		9.765625
7740		17.578125
7741		9.765625
7742		15.625000
7743		13.671875
7744		15.625000
7745		11.718750
7746		19.531250
7747		9.765625
7748		19.531250
7749		11.718750
7750		19.531250
7751		13.671875
7752		15.625000
7753		13.671875
7754		17.578125
7755		13.671875
7756		19.531250
7757		11.718750
7758		19.531250
7759		15.625000
7760		17.578125
7761		15.625000
7762		19.531250
7763		11.718750
7764		21.484375
7765		11.718750
7766		21.484375
7767		17.578125
7768		19.531250
7769		17.578125
7770		19.531250
7771		15.625000
7772		19.531250
7773		13.671875
7774		23.437500
7775		17.578125
7776		23.437500
7777		17.578125
7778		19.531250
7779		15.625000
7780		23.437500
7781		15.625000
7782		23.437500
7783		15.625000
7784		23.437500
7785		19.531250
7786		21.484375
7787		19.531250
7788		23.437500
7789		17.578125
7790		25.390625
7791		17.578125
7792		23.437500
7793		19.531250
7794		23.437500
7795		19.531250
7796		23.437500
7797		17.578125
7798		25.390625
7799		19.531250
7800		25.390625
7801		21.484375
7802		23.437500
7803		21.484375
7804		23.437500
7805		21.484375
7806		25.390625
7807		19.531250
7808		27.343750
7809		19.531250
7810		25.390625
7811		21.484375
7812		25.390625
7813		19.531250
7814		29.296875
7815		21.484375
7816		25.390625
7817		19.531250
7818		27.343750
7819		23.437500
7820		25.390625
7821		23.437500
7822		27.343750
7823		21.484375
7824		29.296875
7825		21.484375
7826		29.296875
7827		23.437500
7828		27.343750
7829		21.484375
7830		29.296875
7831		21.484375
7832		31.250000
7833		21.484375
7834		29.296875
7835		23.437500
7836		27.343750
7837		23.437500
7838		27.343750
7839		23.437500
7840		29.296875
7841		23.437500
7842		29.296875
7843		23.437500
7844		27.343750
7845		25.390625
7846		27.343750
7847		23.437500
7848		29.296875
7849		23.437500
7850		29.296875
7851		25.390625
7852		27.343750
7853		25.390625
7854		27.343750
7855		23.437500
7856		27.343750
7857		23.437500
7858		29.296875
7859		25.390625
7860		29.296875
7861		25.390625
7862		27.343750
7863		23.437500
7864		29.296875
7865		25.390625
7866		27.343750
7867		23.437500
7868		29.296875
7869		25.390625
7870		27.343750
7871		25.390625
7872		27.343750
7873		21.484375
7874		29.296875
7875		23.437500
7876		29.296875
7877		25.390625
7878		27.343750
7879		23.437500
7880		29.296875
7881		25.390625
7882		27.343750
7883		25.390625
7884		27.343750
7885		25.390625
7886		27.343750
7887		25.390625
7888		27.343750
7889		23.437500
7890		27.343750
7891		23.437500
7892		27.343750
7893		23.437500
7894		29.296875
7895		23.437500
7896		25.390625
7897		23.437500
7898		27.343750
7899		23.437500
7900		25.390625
7901		23.437500
7902		25.390625
7903		23.437500
7904		25.390625
7905		23.437500
7906		25.390625
7907		23.437500
7908		25.390625
7909		23.437500
7910		25.390625
7911		21.484375
7912		25.390625
7913		21.484375
7914		25.390625
7915		21.484375
7916		23.437500
7917		21.484375
7918		23.437500
7919		21.484375
7920		23.437500
7921		21.484375
7922		23.437500
7923		21.484375
7924		23.437500
7925		19.531250
7926		23.437500
7927		19.531250
7928		23.437500
7929		19.531250
7930		23.437500
7931		19.531250
7932		21.484375
7933		19.531250
7934		21.484375
7935		17.578125
7936		21.484375
7937		19.531250
7938		21.484375
7939		17.578125
7940		21.484375
7941		17.578125
7942		21.484375
7943		17.578125
7944		21.484375
7945		15.625000
7946		21.484375
7947		15.625000
7948		21.484375
7949		15.625000
7950		19.531250
7951		15.625000
7952		19.531250
7953		15.625000
7954		19.531250
7955		15.625000
7956		19.531250
7957		13.671875
7958		19.531250
7959		13.671875
7960		19.531250
7961		13.671875
7962		19.531250
7963		13.671875
7964		17.578125
7965		13.671875
7966		17.578125
7967		11.718750
7968		17.578125
7969		13.671875
7970		17.578125
7971		13.671875
7972		15.625000
7973		11.718750
7974		15.625000
7975		11.718750
7976		15.625000
7977		11.718750
7978		15.625000
7979		9.765625
7980		15.625000
7981		9.765625
7982		15.625000
7983		9.765625
7984		15.625000
7985		9.765625
7986		15.625000
7987		9.765625
7988		11.718750
7989		7.812500
7990		13.671875
7991		7.812500
7992		13.671875
7993		7.812500
7994		13.671875
7995		7.812500
7996		13.671875
7997		7.812500
7998		11.718750
7999		7.812500
8000		11.718750
8001		7.812500
8002		11.718750
8003		7.812500
8004		9.765625
8005		7.812500
8006		9.765625
8007		5.859375
8008		9.765625
8009		5.859375
8010		9.765625
8011		5.859375
8012		9.765625
8013		3.906250
8014		11.718750
8015		5.859375
8016		7.812500
8017		5.859375
8018		9.765625
8019		5.859375
8020		7.812500
8021		5.859375
8022		7.812500
8023		3.906250
8024		7.812500
8025		3.906250
8026		7.812500
8027		3.906250
8028		7.812500
8029		1.953125
8030		7.812500
8031		3.906250
8032		7.812500
8033		1.953125
8034		5.859375
8035		1.953125
8036		5.859375
8037		3.906250
8038		5.859375
8039		1.953125
8040		5.859375
8041		1.953125
8042		5.859375
8043		1.953125
8044		5.859375
8045		0.000000
8046		5.859375
8047		1.953125
8048		5.859375
8049		1.953125
8050		5.859375
8051		1.953125
8052		5.859375
8053		1.953125
8054		3.906250
8055		1.953125
8056		3.906250
8057		0.000000
8058		5.859375
8059		0.000000
8060		3.906250
8061		0.000000
8062		3.906250
8063		-1.953125
8064		5.859375
8065		0.000000
8066		3.906250
8067		0.000000
8068		3.906250
8069		0.000000
8070		3.906250
8071		0.000000
8072		1.953125
8073		0.000000
8074		3.906250
8075		0.000000
8076		3.906250
8077		0.000000
8078		1.953125
8079		-1.953125
8080		5.859375
8081		0.000000
8082		3.906250
8083		0.000000
8084		3.906250
8085		0.000000
8086		3.906250
8087		0.000000
8088		1.953125
8089		0.000000
8090		1.953125
8091		0.000000
8092		3.906250
8093		0.000000
8094		1.953125
8095		0.000000
8096		3.906250
8097		-1.953125
8098		3.906250
8099		0.000000
8100		1.953125
8101		0.000000
8102		3.906250
8103		-1.953125
8104		3.906250
8105		0.000000
8106		1.953125
8107		0.000000
8108		3.906250
8109		0.000000
8110		3.906250
8111		0.000000
8112		3.906250
8113		-1.953125
8114		5.859375
8115		0.000000
8116		3.906250
8117		0.000000
8118		3.906250
8119		0.000000
8120		3.906250
8121		1.953125
8122		3.906250
8123		1.953125
8124		5.859375
8125		1.953125
8126		3.906250
8127		1.953125
8128		3.906250
8129		0.000000
8130		5.859375
8131		1.953125
8132		5.859375
8133		1.953125
8134		3.906250
8135		1.953125
8136		5.859375
8137		1.953125
8138		5.859375
8139		1.953125
8140		5.859375
8141		1.953125
8142		5.859375
8143		3.906250
8144		5.859375
8145		1.953125
8146		5.859375
8147		1.953125
8148		7.812500
8149		3.906250
8150		7.812500
8151		3.906250
8152		7.812500
8153		3.906250
8154		7.812500
8155		3.906250
8156		7.812500
8157		3.906250
8158		9.765625
8159		3.906250
8160		7.812500
8161		5.859375
8162		7.812500
8163		5.859375
8164		9.765625
8165		5.859375
8166		9.765625
8167		5.859375
8168		7.812500
8169		5.859375
8170		9.765625
8171		5.859375
8172		9.765625
8173		7.812500
8174		9.765625
8175		5.859375
8176		9.765625
8177		7.812500
8178		9.765625
8179		7.812500
8180		9.765625
8181		5.859375
8182		11.718750
8183		7.812500
8184		11.718750
8185		7.812500
8186		11.718750
8187		7.812500
8188		11.718750
8189		9.765625
8190		11.718750
8191		9.765625
8192		11.718750
8193		9.765625
8194		13.671875
8195		9.765625
8196		13.671875
8197		9.765625
8198		13.671875
8199		9.765625
8200		13.671875
8201		9.765625
8202		13.671875
8203		11.718750
8204		13.671875
8205		11.718750
8206		13.671875
8207		11.718750
8208		15.625000
8209		11.718750
8210		15.625000
8211		11.718750
8212		15.625000
8213		13.671875
8214		15.625000
8215		13.671875
8216		15.625000
8217		13.671875
8218		17.578125
8219		13.671875
8220		17.578125
8221		13.671875
8222		17.578125
8223		13.671875
8224		17.578125
8225		13.671875
8226		17.578125
8227		15.625000
8228		17.578125
8229		15.625000
8230		17.578125
8231		15.625000
8232		17.578125
8233		15.625000
8234		19.531250
8235		15.625000
8236		19.531250
8237		15.625000
8238		19.531250
8239		17.578125
8240		19.531250
8241		17.578125
8242		21.484375
8243		17.578125
8244		21.484375
8245		17.578125
8246		21.484375
8247		17.578125
8248		21.484375
8249		17.578125
8250		21.484375
8251		19.531250
8252		21.484375
8253		17.578125
8254		23.437500
8255		19.531250
8256		21.484375
8257		19.531250
8258		21.484375
8259		19.531250
8260		23.437500
8261		19.531250
8262		23.437500
8263		19.531250
8264		23.437500
8265		19.531250
8266		23.437500
8267		21.484375
8268		23.437500
8269		21.484375
8270		23.437500
8271		21.484375
8272		25.390625
8273		21.484375
8274		23.437500
8275		21.484375
8276		25.390625
8277		21.484375
8278		25.390625
8279		21.484375
8280		25.390625
8281		21.484375
8282		25.390625
8283		23.437500
8284		25.390625
8285		23.437500
8286		25.390625
8287		23.437500
8288		25.390625
8289		23.437500
8290		25.390625
8291		23.437500
8292		27.343750
8293		23.437500
8294		27.343750
8295		23.437500
8296		27.343750
8297		23.437500
8298		27.343750
8299		25.390625
8300		27.343750
8301		23.437500
8302		27.343750
8303		23.437500
8304		27.343750
8305		25.390625
8306		27.343750
8307		25.390625
8308		27.343750
8309		25.390625
8310		27.343750
8311		25.390625
8312		27.343750
8313		25.390625
8314		27.343750
8315		25.390625
8316		27.343750
8317		25.390625
8318		27.343750
8319		25.390625
8320		29.296875
8321		23.437500
8322		29.296875
8323		25.390625
8324		27.343750
8325		25.390625
8326		29.296875
8327		25.390625
8328		29.296875
8329		25.390625
8330		27.343750
8331		25.390625
8332		29.296875
8333		25.390625
8334		29.296875
8335		25.390625
8336		29.296875
8337		25.390625
8338		29.296875
8339		25.390625
8340		27.343750
8341		25.390625
8342		27.343750
8343		25.390625
8344		29.296875
8345		25.390625
8346		29.296875
8347		25.390625
8348		29.296875
8349		25.390625
8350		27.343750
8351		25.390625
8352		27.343750
8353		25.390625
8354		27.343750
8355		25.390625
8356		29.296875
8357		25.390625
8358		27.343750
8359		23.437500
8360		27.343750
8361		25.390625
8362		27.343750
8363		23.437500
8364		27.343750
8365		23.437500
8366		27.343750
8367		23.437500
8368		27.343750
8369		23.437500
8370		27.343750
8371		23.437500
8372		27.343750
8373		23.437500
8374		25.390625
8375		23.437500
8376		27.343750
8377		23.437500
8378		27.343750
8379		23.437500
8380		25.390625
8381		23.437500
8382		25.390625
8383		23.437500
8384		25.390625
8385		21.484375
8386		25.390625
8387		21.484375
8388		25.390625
8389		21.484375
8390		25.390625
8391		21.484375
8392		23.437500
8393		21.484375
8394		25.390625
8395		19.531250
8396		23.437500
8397		21.484375
8398		23.437500
8399		19.531250
8400		23.437500
8401		19.531250
8402		23.437500
8403		19.531250
8404		23.437500
8405		19.531250
8406		23.437500
8407		19.531250
8408		21.484375
8409		17.578125
8410		21.484375
8411		17.578125
8412		21.484375
8413		17.578125
8414		21.484375
8415		17.578125
8416		21.484375
8417		17.578125
8418		21.484375
8419		17.578125
8420		19.531250
8421		17.578125
8422		19.531250
8423		17.578125
8424		19.531250
8425		15.625000
8426		19.531250
8427		15.625000
8428		19.531250
8429		15.625000
8430		17.578125
8431		15.625000
8432		19.531250
8433		13.671875
8434		17.578125
8435		13.671875
8436		17.578125
8437		13.671875
8438		17.578125
8439		13.671875
8440		17.578125
8441		13.671875
8442		15.625000
8443		13.671875
8444		15.625000
8445		11.718750
8446		15.625000
8447		11.718750
8448		15.625000
8449		11.718750
8450		15.625000
8451		11.718750
8452		15.625000
8453		11.718750
8454		13.671875
8455		9.765625
8456		13.671875
8457		11.718750
8458		13.671875
8459		9.765625
8460		13.671875
8461		9.765625
8462		13.671875
8463		9.765625
8464		13.671875
8465		9.765625
8466		11.718750
8467		7.812500
8468		11.718750
8469		7.812500
8470		11.718750
8471		7.812500
8472		11.718750
8473		7.812500
8474		9.765625
8475		7.812500
8476		9.765625
8477		5.859375
8478		9.765625
8479		5.859375
8480		9.765625
8481		5.859375
8482		9.765625
8483		5.859375
8484		9.765625
8485		5.859375
8486		9.765625
8487		5.859375
8488		7.812500
8489		5.859375
8490		7.812500
8491		5.859375
8492		7.812500
8493		3.906250
8494		7.812500
8495		3.906250
8496		7.812500
8497		3.906250
8498		7.812500
8499		3.906250
8500		7.812500
8501		3.906250
8502		5.859375
8503		3.906250
8504		5.859375
8505		1.953125
8506		5.859375
8507		3.906250
8508		5.859375
8509		1.953125
8510		5.859375
8511		1.953125
8512		5.859375
8513		1.953125
8514		5.859375
8515		1.953125
8516		5.859375
8517		1.953125
8518		5.859375
8519		1.953125
8520		5.859375
8521		1.953125
8522		3.906250
8523		0.000000
8524		5.859375
8525		1.953125
8526		3.906250
8527		1.953125
8528		3.906250
8529		0.000000
8530		3.906250
8531		0.000000
8532		3.906250
8533		1.953125
8534		3.906250
8535		0.000000
8536		3.906250
8537		0.000000
8538		3.906250
8539		0.000000
8540		3.906250
8541		0.000000
8542		1.953125
8543		0.000000
8544		1.953125
8545		0.000000
8546		3.906250
8547		0.000000
8548		3.906250
8549		0.000000
8550		1.953125
8551		0.000000
8552		3.906250
8553		0.000000
8554		1.953125
8555		0.000000
8556		3.906250
8557		0.000000
8558		1.953125
8559		0.000000
8560		1.953125
8561		-1.953125
8562		3.906250
8563		0.000000
8564		3.906250
8565		0.000000
8566		3.906250
8567		0.000000
8568		3.906250
8569		0.000000
8570		3.906250
8571		0.000000
8572		3.906250
8573		0.000000
8574		3.906250
8575		0.000000
8576		1.953125
8577		0.000000
8578		3.906250
8579		0.000000
8580		3.906250
8581		0.000000
8582		3.906250
8583		0.000000
8584		3.906250
8585		1.953125
8586		3.906250
8587		0.000000
8588		3.906250
8589		0.000000
8590		3.906250
8591		1.953125
8592		3.906250
8593		1.953125
8594		3.906250
8595		1.953125
8596		3.906250
8597		1.953125
8598		5.859375
8599		1.953125
8600		3.906250
8601		1.953125
8602		3.906250
8603		1.953125
8604		5.859375
8605		1.953125
8606		5.859375
8607		1.953125
8608		5.859375
8609		3.906250
8610		5.859375
8611		1.953125
8612		5.859375
8613		1.953125
8614		5.859375
8615		1.953125
8616		5.859375
8617		3.906250
8618		5.859375
8619		3.906250
8620		7.812500
8621		3.906250
8622		7.812500
8623		3.906250
8624		7.812500
8625		3.906250
8626		7.812500
8627		5.859375
8628		7.812500
8629		3.906250
8630		7.812500
8631		5.859375
8632		7.812500
8633		5.859375
8634		7.812500
8635		5.859375
8636		7.812500
8637		5.859375
8638		7.812500
8639		5.859375
8640		9.765625
8641		5.859375
8642		9.765625
8643		7.812500
8644		9.765625
8645		7.812500
8646		9.765625
8647		7.812500
8648		9.765625
8649		7.812500
8650		9.765625
8651		7.812500
8652		9.765625
8653		7.812500
8654		9.765625
8655		7.812500
8656		11.718750
8657		7.812500
8658		11.718750
8659		7.812500
8660		11.718750
8661		9.765625
8662		11.718750
8663		9.765625
8664		11.718750
8665		9.765625
8666		11.718750
8667		9.765625
8668		11.718750
8669		9.765625
8670		13.671875
8671		9.765625
8672		13.671875
8673		9.765625
8674		13.671875
8675		11.718750
8676		13.671875
8677		11.718750
8678		13.671875
8679		11.718750
8680		15.625000
8681		11.718750
8682		15.625000
8683		11.718750
8684		15.625000
8685		13.671875
8686		15.625000
8687		11.718750
8688		15.625000
8689		13.671875
8690		15.625000
8691		13.671875
8692		17.578125
8693		13.671875
8694		17.578125
8695		13.671875
8696		17.578125
8697		15.625000
8698		17.578125
8699		15.625000
8700		17.578125
8701		15.625000
8702		17.578125
8703		15.625000
8704		19.531250
8705		15.625000
8706		19.531250
8707		15.625000
8708		19.531250
8709		17.578125
8710		19.531250
8711		17.578125
8712		19.531250
8713		17.578125
8714		21.484375
8715		17.578125
8716		19.531250
8717		17.578125
8718		21.484375
8719		17.578125
8720		21.484375
8721		17.578125
8722		21.484375
8723		19.531250
8724		21.484375
8725		17.578125
8726		21.484375
8727		19.531250
8728		21.484375
8729		19.531250
8730		23.437500
8731		19.531250
8732		23.437500
8733		19.531250
8734		23.437500
8735		19.531250
8736		23.437500
8737		21.484375
8738		23.437500
8739		19.531250
8740		23.437500
8741		19.531250
8742		23.437500
8743		21.484375
8744		23.437500
8745		21.484375
8746		23.437500
8747		21.484375
8748		25.390625
8749		21.484375
8750		25.390625
8751		21.484375
8752		25.390625
8753		21.484375
8754		25.390625
8755		21.484375
8756		25.390625
8757		21.484375
8758		27.343750
8759		23.437500
8760		25.390625
8761		23.437500
8762		25.390625
8763		21.484375
8764		25.390625
8765		23.437500
8766		27.343750
8767		23.437500
8768		27.343750
8769		23.437500
8770		27.343750
8771		23.437500
8772		27.343750
8773		23.437500
8774		27.343750
8775		25.390625
8776		27.343750
8777		25.390625
8778		27.343750
8779		23.437500
8780		27.343750
8781		25.390625
8782		27.343750
8783		25.390625
8784		27.343750
8785		25.390625
8786		27.343750
8787		25.390625
8788		27.343750
8789		25.390625
8790		27.343750
8791		25.390625
8792		27.343750
8793		25.390625
8794		27.343750
8795		25.390625
8796		27.343750
8797		25.390625
8798		29.296875
8799		23.437500
8800		29.296875
8801		25.390625
8802		27.343750
8803		25.390625
8804		27.343750
8805		25.390625
8806		27.343750
8807		25.390625
8808		29.296875
8809		23.437500
8810		29.296875
8811		25.390625
8812		27.343750
8813		23.437500
8814		27.343750
8815		25.390625
8816		29.296875
8817		25.390625
8818		27.343750
8819		25.390625
8820		27.343750
8821		25.390625
8822		27.343750
8823		23.437500
8824		27.343750
8825		25.390625
8826		27.343750
8827		25.390625
8828		27.343750
8829		23.437500
8830		27.343750
8831		23.437500
8832		27.343750
8833		23.437500
8834		27.343750
8835		23.437500
8836		27.343750
8837		23.437500
8838		27.343750
8839		23.437500
8840		27.343750
8841		23.437500
8842		27.343750
8843		23.437500
8844		25.390625
8845		23.437500
8846		25.390625
8847		23.437500
8848		27.343750
8849		23.437500
8850		25.390625
8851		21.484375
8852		25.390625
8853		21.484375
8854		25.390625
8855		21.484375
8856		25.390625
8857		21.484375
8858		25.390625
8859		21.484375
8860		25.390625
8861		21.484375
8862		23.437500
8863		21.484375
8864		25.390625
8865		21.484375
8866		23.437500
8867		21.484375
8868		23.437500
8869		21.484375
8870		23.437500
8871		19.531250
8872		23.437500
8873		19.531250
8874		23.437500
8875		19.531250
8876		23.437500
8877		19.531250
8878		21.484375
8879		19.531250
8880		21.484375
8881		17.578125
8882		21.484375
8883		17.578125
8884		21.484375
8885		17.578125
8886		21.484375
8887		17.578125
8888		19.531250
8889		17.578125
8890		19.531250
8891		17.578125
8892		19.531250
8893		15.625000
8894		21.484375
8895		15.625000
8896		19.531250
8897		13.671875
8898		19.531250
8899		15.625000
8900		19.531250
8901		15.625000
8902		19.531250
8903		15.625000
8904		17.578125
8905		13.671875
8906		17.578125
8907		13.671875
8908		17.578125
8909		13.671875
8910		17.578125
8911		13.671875
8912		15.625000
8913		11.718750
8914		15.625000
8915		11.718750
8916		15.625000
8917		11.718750
8918		15.625000
8919		11.718750
8920		15.625000
8921		11.718750
8922		13.671875
8923		11.718750
8924		13.671875
8925		9.765625
8926		13.671875
8927		11.718750
8928		13.671875
8929		9.765625
8930		13.671875
8931		9.765625
8932		13.671875
8933		9.765625
8934		13.671875
8935		9.765625
8936		11.718750
8937		7.812500
8938		11.718750
8939		7.812500
8940		11.718750
8941		7.812500
8942		11.718750
8943		7.812500
8944		11.718750
8945		7.812500
8946		9.765625
8947		5.859375
8948		9.765625
8949		5.859375
8950		9.765625
8951		5.859375
8952		9.765625
8953		5.859375
8954		9.765625
8955		5.859375
8956		9.765625
8957		5.859375
8958		9.765625
8959		3.906250
8960		7.812500
8961		5.859375
8962		7.812500
8963		5.859375
8964		7.812500
8965		3.906250
8966		7.812500
8967		3.906250
8968		7.812500
8969		3.906250
8970		7.812500
8971		3.906250
8972		5.859375
8973		3.906250
8974		5.859375
8975		3.906250
8976		5.859375
8977		3.906250
8978		5.859375
8979		1.953125
8980		5.859375
8981		1.953125
8982		5.859375
8983		1.953125
8984		5.859375
8985		1.953125
8986		5.859375
8987		1.953125
8988		5.859375
8989		1.953125
8990		3.906250
8991		1.953125
8992		3.906250
8993		0.000000
8994		3.906250
8995		1.953125
8996		3.906250
8997		0.000000
8998		3.906250
8999		0.000000
9000		3.906250
9001		0.000000
9002		3.906250
9003		0.000000
9004		3.906250
9005		0.000000
9006		3.906250
9007		0.000000
9008		3.906250
9009		0.000000
9010		3.906250
9011		0.000000
9012		3.906250
9013		0.000000
9014		1.953125
9015		0.000000
9016		3.906250
9017		0.000000
9018		3.906250
9019		0.000000
9020		3.906250
9021		0.000000
9022		1.953125
9023		0.000000
9024		3.906250
9025		0.000000
9026		3.906250
9027		0.000000
9028		3.906250
9029		0.000000
9030		1.953125
9031		0.000000
9032		3.906250
9033		0.000000
9034		3.906250
9035		0.000000
9036		3.906250
9037		0.000000
9038		3.906250
9039		0.000000
9040		1.953125
9041		0.000000
9042		1.953125
9043		0.000000
9044		3.906250
9045		0.000000
9046		3.906250
9047		0.000000
9048		1.953125
9049		0.000000
9050		3.906250
9051		0.000000
9052		3.906250
9053		0.000000
9054		3.906250
9055		0.000000
9056		3.906250
9057		0.000000
9058		3.906250
9059		0.000000
9060		3.906250
9061		0.000000
9062		3.906250
9063		0.000000
9064		3.906250
9065		0.000000
9066		3.906250
9067		1.953125
9068		3.906250
9069		1.953125
9070		3.906250
9071		1.953125
9072		3.906250
9073		1.953125
9074		3.906250
9075		1.953125
9076		5.859375
9077		1.953125
9078		5.859375
9079		1.953125
9080		5.859375
9081		1.953125
9082		5.859375
9083		1.953125
9084		5.859375
9085		3.906250
9086		5.859375
9087		3.906250
9088		5.859375
9089		3.906250
9090		5.859375
9091		3.906250
9092		5.859375
9093		3.906250
9094		7.812500
9095		3.906250
9096		7.812500
9097		3.906250
9098		7.812500
9099		3.906250
9100		7.812500
9101		5.859375
9102		7.812500
9103		5.859375
9104		7.812500
9105		3.906250
9106		7.812500
9107		5.859375
9108		7.812500
9109		5.859375
9110		9.765625
9111		5.859375
9112		9.765625
9113		5.859375
9114		9.765625
9115		5.859375
9116		9.765625
9117		5.859375
9118		9.765625
9119		7.812500
9120		9.765625
9121		5.859375
9122		11.718750
9123		7.812500
9124		11.718750
9125		7.812500
9126		11.718750
9127		7.812500
9128		11.718750
9129		9.765625
9130		11.718750
9131		9.765625
9132		11.718750
9133		9.765625
9134		11.718750
9135		9.765625
9136		13.671875
9137		9.765625
9138		11.718750
9139		9.765625
9140		13.671875
9141		9.765625
9142		13.671875
9143		9.765625
9144		13.671875
9145		9.765625
9146		13.671875
9147		11.718750
9148		13.671875
9149		11.718750
9150		15.625000
9151		11.718750
9152		15.625000
9153		11.718750
9154		15.625000
9155		13.671875
9156		15.625000
9157		11.718750
9158		15.625000
9159		13.671875
9160		15.625000
9161		11.718750
9162		17.578125
9163		13.671875
9164		17.578125
9165		13.671875
9166		17.578125
9167		13.671875
9168		17.578125
9169		15.625000
9170		17.578125
9171		15.625000
9172		17.578125
9173		15.625000
9174		17.578125
9175		15.625000
9176		19.531250
9177		15.625000
9178		19.531250
9179		15.625000
9180		19.531250
9181		17.578125
9182		19.531250
9183		15.625000
9184		21.484375
9185		17.578125
9186		19.531250
9187		17.578125
9188		19.531250
9189		17.578125
9190		21.484375
9191		17.578125
9192		21.484375
9193		19.531250
9194		21.484375
9195		19.531250
9196		21.484375
9197		19.531250
9198		21.484375
9199		19.531250
9200		23.437500
9201		19.531250
9202		21.484375
9203		19.531250
9204		23.437500
9205		19.531250
9206		23.437500
9207		19.531250
9208		23.437500
9209		21.484375
9210		23.437500
9211		19.531250
9212		23.437500
9213		21.484375
9214		23.437500
9215		21.484375
9216		23.437500
9217		21.484375
9218		25.390625
9219		21.484375
9220		25.390625
9221		21.484375
9222		25.390625
9223		21.484375
9224		25.390625
9225		21.484375
9226		25.390625
9227		21.484375
9228		27.343750
9229		21.484375
9230		27.343750
9231		23.437500
9232		25.390625
9233		23.437500
9234		25.390625
9235		23.437500
9236		27.343750
9237		23.437500
9238		27.343750
9239		23.437500
9240		27.343750
9241		23.437500
9242		27.343750
9243		23.437500
9244		27.343750
9245		23.437500
9246		27.343750
9247		25.390625
9248		27.343750
9249		25.390625
9250		27.343750
9251		23.437500
9252		27.343750
9253		25.390625
9254		27.343750
9255		25.390625
9256		27.343750
9257		25.390625
9258		27.343750
9259		23.437500
9260		29.296875
9261		25.390625
9262		27.343750
9263		25.390625
9264		27.343750
9265		25.390625
9266		27.343750
9267		25.390625
9268		29.296875
9269		25.390625
9270		29.296875
9271		25.390625
9272		29.296875
9273		25.390625
9274		29.296875
9275		25.390625
9276		27.343750
9277		25.390625
9278		29.296875
9279		25.390625
9280		29.296875
9281		25.390625
9282		27.343750
9283		25.390625
9284		29.296875
9285		25.390625
9286		29.296875
9287		25.390625
9288		27.343750
9289		25.390625
9290		29.296875
9291		25.390625
9292		29.296875
9293		25.390625
9294		27.343750
9295		23.437500
9296		27.343750
9297		25.390625
9298		27.343750
9299		25.390625
9300		27.343750
9301		25.390625
9302		27.343750
9303		23.437500
9304		27.343750
9305		23.437500
9306		27.343750
9307		23.437500
9308		27.343750
9309		23.437500
9310		27.343750
9311		23.437500
9312		27.343750
9313		23.437500
9314		27.343750
9315		23.437500
9316		25.390625
9317		21.484375
9318		27.343750
9319		23.437500
9320		25.390625
9321		23.437500
9322		25.390625
9323		23.437500
9324		25.390625
9325		23.437500
9326		25.390625
9327		23.437500
9328		25.390625
9329		21.484375
9330		25.390625
9331		21.484375
9332		25.390625
9333		21.484375
9334		23.437500
9335		21.484375
9336		25.390625
9337		21.484375
9338		23.437500
9339		21.484375
9340		23.437500
9341		21.484375
9342		23.437500
9343		19.531250
9344		23.437500
9345		19.531250
9346		23.437500
9347		19.531250
9348		23.437500
9349		19.531250
9350		21.484375
9351		19.531250
9352		21.484375
9353		17.578125
9354		21.484375
9355		17.578125
9356		21.484375
9357		17.578125
9358		21.484375
9359		17.578125
9360		21.484375
9361		17.578125
9362		21.484375
9363		17.578125
9364		21.484375
9365		17.578125
9366		19.531250
9367		15.625000
9368		19.531250
9369		15.625000
9370		19.531250
9371		15.625000
9372		19.531250
9373		15.625000
9374		19.531250
9375		15.625000
9376		17.578125
9377		13.671875
9378		17.578125
9379		13.671875
9380		17.578125
9381		13.671875
9382		15.625000
9383		13.671875
9384		15.625000
9385		11.718750
9386		17.578125
9387		11.718750
9388		15.625000
9389		11.718750
9390		15.625000
9391		11.718750
9392		15.625000
9393		11.718750
9394		15.625000
9395		11.718750
9396		15.625000
9397		11.718750
9398		13.671875
9399		11.718750
9400		13.671875
9401		9.765625
9402		13.671875
9403		9.765625
9404		13.671875
9405		9.765625
9406		13.671875
9407		9.765625
9408		11.718750
9409		7.812500
9410		13.671875
9411		7.812500
9412		11.718750
9413		7.812500
9414		11.718750
9415		7.812500
9416		11.718750
9417		7.812500
9418		9.765625
9419		7.812500
9420		9.765625
9421		7.812500
9422		9.765625
9423		5.859375
9424		9.765625
9425		5.859375
9426		9.765625
9427		5.859375
9428		9.765625
9429		5.859375
9430		7.812500
9431		3.906250
9432		9.765625
9433		5.859375
9434		7.812500
9435		3.906250
9436		7.812500
9437		3.906250
9438		7.812500
9439		3.906250
9440		7.812500
9441		3.906250
9442		7.812500
9443		3.906250
9444		5.859375
9445		3.906250
9446		5.859375
9447		1.953125
9448		5.859375
9449		3.906250
9450		5.859375
9451		1.953125
9452		5.859375
9453		1.953125
9454		5.859375
9455		1.953125
9456		5.859375
9457		1.953125
9458		5.859375
9459		1.953125
9460		3.906250
9461		1.953125
9462		3.906250
9463		1.953125
9464		3.906250
9465		1.953125
9466		3.906250
9467		1.953125
9468		3.906250
9469		0.000000
9470		3.906250
9471		0.000000
9472		3.906250
9473		0.000000
9474		3.906250
9475		0.000000
9476		3.906250
9477		0.000000
9478		3.906250
9479		0.000000
9480		3.906250
9481		0.000000
9482		3.906250
9483		0.000000
9484		3.906250
9485		0.000000
9486		3.906250
9487		0.000000
9488		3.906250
9489		0.000000
9490		3.906250
9491		0.000000
9492		1.953125
9493		0.000000
9494		3.906250
9495		0.000000
9496		3.906250
9497		0.000000
9498		3.906250
9499		0.000000
9500		1.953125
9501		0.000000
9502		1.953125
9503		0.000000
9504		3.906250
9505		0.000000
9506		3.906250
9507		0.000000
9508		3.906250
9509		0.000000
9510		3.906250
9511		0.000000
9512		3.906250
9513		0.000000
9514		3.906250
9515		0.000000
9516		3.906250
9517		0.000000
9518		1.953125
9519		0.000000
9520		3.906250
9521		0.000000
9522		3.906250
9523		0.000000
9524		3.906250
9525		0.000000
9526		3.906250
9527		0.000000
9528		3.906250
9529		0.000000
9530		3.906250
9531		0.000000
9532		3.906250
9533		1.953125
9534		3.906250
9535		0.000000
9536		3.906250
9537		0.000000
9538		3.906250
9539		0.000000
9540		3.906250
9541		1.953125
9542		3.906250
9543		1.953125
9544		3.906250
9545		1.953125
9546		5.859375
9547		1.953125
9548		5.859375
9549		1.953125
9550		5.859375
9551		1.953125
9552		5.859375
9553		1.953125
9554		5.859375
9555		1.953125
9556		5.859375
9557		1.953125
9558		5.859375
9559		1.953125
9560		5.859375
9561		3.906250
9562		5.859375
9563		3.906250
9564		7.812500
9565		3.906250
9566		7.812500
9567		3.906250
9568		7.812500
9569		3.906250
9570		7.812500
9571		3.906250
9572		7.812500
9573		5.859375
9574		7.812500
9575		3.906250
9576		7.812500
9577		5.859375
9578		7.812500
9579		5.859375
9580		9.765625
9581		5.859375
9582		9.765625
9583		7.812500
9584		9.765625
9585		7.812500
9586		9.765625
9587		5.859375
9588		9.765625
9589		7.812500
9590		9.765625
9591		7.812500
9592		9.765625
9593		7.812500
9594		11.718750
9595		7.812500
9596		11.718750
9597		7.812500
9598		11.718750
9599		7.812500
9600		11.718750
9601		7.812500
9602		11.718750
9603		7.812500
9604		13.671875
9605		9.765625
9606		11.718750
9607		9.765625
9608		13.671875
9609		9.765625
9610		13.671875
9611		11.718750
9612		13.671875
9613		9.765625
9614		13.671875
9615		9.765625
9616		13.671875
9617		11.718750
9618		13.671875
9619		11.718750
9620		15.625000
9621		11.718750
9622		15.625000
9623		13.671875
9624		15.625000
9625		13.671875
9626		15.625000
9627		13.671875
9628		15.625000
9629		13.671875
9630		15.625000
9631		13.671875
9632		17.578125
9633		13.671875
9634		17.578125
9635		13.671875
9636		17.578125
9637		15.625000
9638		17.578125
9639		15.625000
9640		17.578125
9641		15.625000
9642		17.578125
9643		15.625000
9644		19.531250
9645		15.625000
9646		19.531250
9647		15.625000
9648		19.531250
9649		15.625000
9650		19.531250
9651		17.578125
9652		19.531250
9653		15.625000
9654		21.484375
9655		17.578125
9656		21.484375
9657		17.578125
9658		21.484375
9659		17.578125
9660		21.484375
9661		17.578125
9662		21.484375
9663		19.531250
9664		21.484375
9665		19.531250
9666		21.484375
9667		19.531250
9668		21.484375
9669		19.531250
9670		21.484375
9671		17.578125
9672		23.437500
9673		19.531250
9674		23.437500
9675		19.531250
9676		23.437500
9677		21.484375
9678		23.437500
9679		21.484375
9680		23.437500
9681		21.484375
9682		23.437500
9683		21.484375
9684		25.390625
9685		21.484375
9686		23.437500
9687		21.484375
9688		25.390625
9689		21.484375
9690		25.390625
9691		21.484375
9692		25.390625
9693		23.437500
9694		25.390625
9695		23.437500
9696		25.390625
9697		23.437500
9698		25.390625
9699		21.484375
9700		27.343750
9701		23.437500
9702		25.390625
9703		23.437500
9704		25.390625
9705		23.437500
9706		27.343750
9707		23.437500
9708		27.343750
9709		23.437500
9710		27.343750
9711		23.437500
9712		27.343750
9713		23.437500
9714		27.343750
9715		23.437500
9716		27.343750
9717		25.390625
9718		27.343750
9719		25.390625
9720		27.343750
9721		25.390625
9722		27.343750
9723		25.390625
9724		27.343750
9725		25.390625
9726		27.343750
9727		25.390625
9728		27.343750
9729		25.390625
9730		29.296875
9731		25.390625
9732		27.343750
9733		25.390625
9734		29.296875
9735		25.390625
9736		27.343750
9737		25.390625
9738		29.296875
9739		25.390625
9740		29.296875
9741		25.390625
9742		29.296875
9743		25.390625
9744		27.343750
9745		25.390625
9746		29.296875
9747		25.390625
9748		29.296875
9749		25.390625
9750		29.296875
9751		25.390625
9752		27.343750
9753		25.390625
9754		29.296875
9755		25.390625
9756		29.296875
9757		25.390625
9758		29.296875
9759		25.390625
9760		29.296875
9761		25.390625
9762		27.343750
9763		25.390625
9764		29.296875
9765		25.390625
9766		27.343750
9767		25.390625
9768		27.343750
9769		25.390625
9770		27.343750
9771		25.390625
9772		27.343750
9773		25.390625
9774		27.343750
9775		25.390625
9776		27.343750
9777		23.437500
9778		27.343750
9779		23.437500
9780		27.343750
9781		23.437500
9782		27.343750
9783		23.437500
9784		27.343750
9785		23.437500
9786		27.343750
9787		23.437500
9788		25.390625
9789		21.484375
9790		27.343750
9791		23.437500
9792		25.390625
9793		23.437500
9794		25.390625
9795		21.484375
9796		25.390625
9797		23.437500
9798		25.390625
9799		21.484375
9800		25.390625
9801		23.437500
9802		25.390625
9803		21.484375
9804		25.390625
9805		21.484375
9806		25.390625
9807		21.484375
9808		25.390625
9809		21.484375
9810		25.390625
9811		19.531250
9812		23.437500
9813		21.484375
9814		23.437500
9815		19.531250
9816		23.437500
9817		19.531250
9818		23.437500
9819		19.531250
9820		21.484375
9821		19.531250
9822		23.437500
9823		19.531250
9824		23.437500
9825		17.578125
9826		21.484375
9827		17.578125
9828		21.484375
9829		17.578125
9830		21.484375
9831		17.578125
9832		21.484375
9833		17.578125
9834		21.484375
9835		17.578125
9836		19.531250
9837		17.578125
9838		19.531250
9839		15.625000
9840		19.531250
9841		15.625000
9842		19.531250
9843		15.625000
9844		19.531250
9845		15.625000
9846		17.578125
9847		15.625000
9848		17.578125
9849		13.671875
9850		17.578125
9851		13.671875
9852		17.578125
9853		13.671875
9854		17.578125
9855		13.671875
9856		15.625000
9857		13.671875
9858		15.625000
9859		11.718750
9860		15.625000
9861		11.718750
9862		15.625000
9863		11.718750
9864		15.625000
9865		11.718750
9866		15.625000
9867		11.718750
9868		15.625000
9869		11.718750
9870		13.671875
9871		11.718750
9872		13.671875
9873		9.765625
9874		13.671875
9875		9.765625
9876		13.671875
9877		9.765625
9878		13.671875
9879		9.765625
9880		11.718750
9881		9.765625
9882		11.718750
9883		7.812500
9884		11.718750
9885		7.812500
9886		11.718750
9887		7.812500
9888		11.718750
9889		7.812500
9890		11.718750
9891		7.812500
9892		9.765625
9893		5.859375
9894		9.765625
9895		5.859375
9896		9.765625
9897		5.859375
9898		9.765625
9899		5.859375
9900		9.765625
9901		3.906250
9902		9.765625
9903		5.859375
9904		7.812500
9905		3.906250
9906		7.812500
9907		3.906250
9908		7.812500
9909		3.906250
9910		7.812500
9911		3.906250
9912		7.812500
9913		3.906250
9914		7.812500
9915		3.906250
9916		7.812500
9917		1.953125
9918		5.859375
9919		3.906250
9920		5.859375
9921		3.906250
9922		5.859375
9923		1.953125
9924		5.859375
9925		3.906250
9926		5.859375
9927		1.953125
9928		5.859375
9929		1.953125
9930		5.859375
9931		1.953125
9932		5.859375
9933		1.953125
9934		3.906250
9935		1.953125
9936		5.859375
9937		1.953125
9938		3.906250
9939		0.000000
9940		3.906250
9941		1.953125
9942		3.906250
9943		0.000000
9944		3.906250
9945		0.000000
9946		3.906250
9947		0.000000
9948		3.906250
9949		0.000000
9950		3.906250
9951		0.000000
9952		3.906250
9953		0.000000
9954		3.906250
9955		0.000000
9956		3.906250
9957		0.000000
9958		3.906250
9959		0.000000
9960		3.906250
9961		0.000000
9962		3.906250
9963		0.000000
9964		3.906250
9965		0.000000
9966		3.906250
9967		0.000000
9968		3.906250
9969		0.000000
9970		3.906250
9971		0.000000
9972		1.953125
9973		0.000000
9974		3.906250
9975		0.000000
9976		3.906250
9977		0.000000
9978		3.906250
9979		0.000000
9980		3.906250
9981		0.000000
9982		3.906250
9983		0.000000
9984		3.906250
9985		-1.953125
9986		3.906250
9987		0.000000
9988		3.906250
9989		0.000000
9990		3.906250
9991		0.000000
9992		3.906250
9993		0.000000
9994		3.906250
9995		0.000000
9996		3.906250
9997		0.000000
9998		3.906250
9999		0.000000
10000		3.906250
