Channel              :		CH1
Frequency            :		1.330kHz
Period               :		0.752ms
PK-PK                :		29.30mV
Probe attenuation    :		1X
Voltage per ADC value:		0.122070mV
Time interval        :		2.00000us

index		CH1_Voltage(mV)
1		19.531250
2		19.531250
3		15.625000
4		19.531250
5		17.578125
6		19.531250
7		17.578125
8		21.484375
9		17.578125
10		19.531250
11		17.578125
12		19.531250
13		17.578125
14		19.531250
15		15.625000
16		19.531250
17		17.578125
18		19.531250
19		15.625000
20		19.531250
21		15.625000
22		19.531250
23		15.625000
24		19.531250
25		15.625000
26		19.531250
27		15.625000
28		17.578125
29		15.625000
30		17.578125
31		13.671875
32		17.578125
33		13.671875
34		17.578125
35		13.671875
36		17.578125
37		13.671875
38		17.578125
39		13.671875
40		15.625000
41		11.718750
42		17.578125
43		11.718750
44		15.625000
45		11.718750
46		15.625000
47		11.718750
48		15.625000
49		11.718750
50		15.625000
51		11.718750
52		15.625000
53		9.765625
54		13.671875
55		9.765625
56		13.671875
57		9.765625
58		13.671875
59		9.765625
60		11.718750
61		7.812500
62		11.718750
63		7.812500
64		11.718750
65		7.812500
66		11.718750
67		7.812500
68		11.718750
69		5.859375
70		9.765625
71		7.812500
72		9.765625
73		5.859375
74		9.765625
75		5.859375
76		9.765625
77		3.906250
78		7.812500
79		3.906250
80		7.812500
81		3.906250
82		7.812500
83		3.906250
84		7.812500
85		3.906250
86		5.859375
87		1.953125
88		5.859375
89		3.906250
90		5.859375
91		1.953125
92		5.859375
93		1.953125
94		5.859375
95		1.953125
96		3.906250
97		0.000000
98		3.906250
99		0.000000
100		3.906250
101		0.000000
102		3.906250
103		0.000000
104		3.906250
105		0.000000
106		1.953125
107		-1.953125
108		3.906250
109		-1.953125
110		1.953125
111		-1.953125
112		1.953125
113		-1.953125
114		1.953125
115		-1.953125
116		1.953125
117		-1.953125
118		1.953125
119		-1.953125
120		1.953125
121		-1.953125
122		1.953125
123		-1.953125
124		0.000000
125		-1.953125
126		1.953125
127		-1.953125
128		1.953125
129		-1.953125
130		1.953125
131		-1.953125
132		1.953125
133		-1.953125
134		1.953125
135		-1.953125
136		1.953125
137		-1.953125
138		1.953125
139		0.000000
140		1.953125
141		-1.953125
142		1.953125
143		-1.953125
144		1.953125
145		0.000000
146		1.953125
147		0.000000
148		1.953125
149		0.000000
150		1.953125
151		0.000000
152		3.906250
153		0.000000
154		3.906250
155		0.000000
156		3.906250
157		0.000000
158		3.906250
159		1.953125
160		3.906250
161		1.953125
162		3.906250
163		1.953125
164		3.906250
165		1.953125
166		5.859375
167		1.953125
168		5.859375
169		1.953125
170		5.859375
171		1.953125
172		5.859375
173		3.906250
174		5.859375
175		3.906250
176		7.812500
177		3.906250
178		7.812500
179		3.906250
180		7.812500
181		5.859375
182		7.812500
183		5.859375
184		9.765625
185		5.859375
186		9.765625
187		7.812500
188		9.765625
189		7.812500
190		9.765625
191		7.812500
192		11.718750
193		7.812500
194		11.718750
195		7.812500
196		11.718750
197		9.765625
198		11.718750
199		9.765625
200		13.671875
201		9.765625
202		13.671875
203		9.765625
204		13.671875
205		11.718750
206		13.671875
207		11.718750
208		13.671875
209		11.718750
210		15.625000
211		11.718750
212		15.625000
213		11.718750
214		15.625000
215		13.671875
216		17.578125
217		13.671875
218		15.625000
219		13.671875
220		15.625000
221		13.671875
222		17.578125
223		15.625000
224		17.578125
225		15.625000
226		17.578125
227		15.625000
228		17.578125
229		15.625000
230		19.531250
231		15.625000
232		19.531250
233		15.625000
234		19.531250
235		15.625000
236		19.531250
237		15.625000
238		19.531250
239		17.578125
240		19.531250
241		17.578125
242		19.531250
243		15.625000
244		19.531250
245		17.578125
246		19.531250
247		17.578125
248		21.484375
249		17.578125
250		19.531250
251		17.578125
252		19.531250
253		17.578125
254		19.531250
255		17.578125
256		19.531250
257		17.578125
258		19.531250
259		15.625000
260		19.531250
261		17.578125
262		19.531250
263		15.625000
264		19.531250
265		17.578125
266		19.531250
267		15.625000
268		19.531250
269		15.625000
270		19.531250
271		15.625000
272		19.531250
273		15.625000
274		19.531250
275		15.625000
276		19.531250
277		15.625000
278		17.578125
279		15.625000
280		19.531250
281		13.671875
282		17.578125
283		13.671875
284		17.578125
285		13.671875
286		17.578125
287		13.671875
288		17.578125
289		13.671875
290		15.625000
291		13.671875
292		15.625000
293		11.718750
294		17.578125
295		13.671875
296		15.625000
297		11.718750
298		15.625000
299		11.718750
300		15.625000
301		11.718750
302		15.625000
303		11.718750
304		13.671875
305		9.765625
306		15.625000
307		9.765625
308		13.671875
309		7.812500
310		13.671875
311		9.765625
312		11.718750
313		7.812500
314		11.718750
315		7.812500
316		11.718750
317		7.812500
318		9.765625
319		7.812500
320		9.765625
321		7.812500
322		9.765625
323		5.859375
324		9.765625
325		5.859375
326		7.812500
327		3.906250
328		9.765625
329		3.906250
330		7.812500
331		3.906250
332		7.812500
333		3.906250
334		7.812500
335		3.906250
336		5.859375
337		1.953125
338		5.859375
339		1.953125
340		5.859375
341		3.906250
342		5.859375
343		0.000000
344		5.859375
345		1.953125
346		5.859375
347		1.953125
348		5.859375
349		1.953125
350		3.906250
351		0.000000
352		3.906250
353		0.000000
354		3.906250
355		0.000000
356		3.906250
357		0.000000
358		1.953125
359		-1.953125
360		3.906250
361		0.000000
362		1.953125
363		0.000000
364		1.953125
365		0.000000
366		1.953125
367		-1.953125
368		1.953125
369		-1.953125
370		1.953125
371		-1.953125
372		1.953125
373		-1.953125
374		1.953125
375		-1.953125
376		0.000000
377		-1.953125
378		1.953125
379		-1.953125
380		1.953125
381		-1.953125
382		1.953125
383		-1.953125
384		1.953125
385		-1.953125
386		1.953125
387		-1.953125
388		1.953125
389		-1.953125
390		1.953125
391		0.000000
392		1.953125
393		-1.953125
394		3.906250
395		-1.953125
396		1.953125
397		0.000000
398		1.953125
399		0.000000
400		3.906250
401		0.000000
402		3.906250
403		0.000000
404		3.906250
405		0.000000
406		3.906250
407		1.953125
408		3.906250
409		0.000000
410		3.906250
411		0.000000
412		5.859375
413		1.953125
414		5.859375
415		1.953125
416		5.859375
417		1.953125
418		5.859375
419		3.906250
420		5.859375
421		3.906250
422		5.859375
423		1.953125
424		5.859375
425		3.906250
426		5.859375
427		3.906250
428		7.812500
429		5.859375
430		7.812500
431		5.859375
432		7.812500
433		5.859375
434		9.765625
435		5.859375
436		9.765625
437		5.859375
438		9.765625
439		5.859375
440		11.718750
441		7.812500
442		9.765625
443		5.859375
444		11.718750
445		7.812500
446		11.718750
447		7.812500
448		13.671875
449		9.765625
450		13.671875
451		9.765625
452		13.671875
453		9.765625
454		13.671875
455		9.765625
456		15.625000
457		11.718750
458		13.671875
459		11.718750
460		13.671875
461		11.718750
462		15.625000
463		11.718750
464		15.625000
465		13.671875
466		15.625000
467		11.718750
468		17.578125
469		13.671875
470		17.578125
471		13.671875
472		17.578125
473		13.671875
474		17.578125
475		15.625000
476		17.578125
477		13.671875
478		19.531250
479		15.625000
480		19.531250
481		15.625000
482		19.531250
483		15.625000
484		19.531250
485		15.625000
486		19.531250
487		15.625000
488		19.531250
489		15.625000
490		19.531250
491		15.625000
492		19.531250
493		17.578125
494		19.531250
495		17.578125
496		19.531250
497		17.578125
498		19.531250
499		17.578125
500		19.531250
501		17.578125
502		19.531250
503		17.578125
504		19.531250
505		17.578125
506		19.531250
507		17.578125
508		19.531250
509		17.578125
510		19.531250
511		15.625000
512		19.531250
513		15.625000
514		21.484375
515		15.625000
516		19.531250
517		15.625000
518		19.531250
519		15.625000
520		19.531250
521		15.625000
522		19.531250
523		15.625000
524		19.531250
525		15.625000
526		19.531250
527		15.625000
528		19.531250
529		15.625000
530		19.531250
531		15.625000
532		17.578125
533		15.625000
534		17.578125
535		15.625000
536		17.578125
537		13.671875
538		17.578125
539		13.671875
540		17.578125
541		13.671875
542		15.625000
543		13.671875
544		15.625000
545		11.718750
546		15.625000
547		11.718750
548		15.625000
549		11.718750
550		15.625000
551		11.718750
552		15.625000
553		9.765625
554		15.625000
555		9.765625
556		13.671875
557		9.765625
558		13.671875
559		9.765625
560		11.718750
561		9.765625
562		11.718750
563		7.812500
564		11.718750
565		7.812500
566		11.718750
567		7.812500
568		11.718750
569		7.812500
570		9.765625
571		5.859375
572		9.765625
573		5.859375
574		9.765625
575		5.859375
576		7.812500
577		5.859375
578		7.812500
579		5.859375
580		7.812500
581		5.859375
582		7.812500
583		3.906250
584		7.812500
585		3.906250
586		7.812500
587		3.906250
588		5.859375
589		1.953125
590		5.859375
591		1.953125
592		5.859375
593		1.953125
594		5.859375
595		1.953125
596		5.859375
597		1.953125
598		3.906250
599		1.953125
600		3.906250
601		0.000000
602		3.906250
603		0.000000
604		3.906250
605		0.000000
606		3.906250
607		0.000000
608		3.906250
609		0.000000
610		1.953125
611		0.000000
612		1.953125
613		-1.953125
614		3.906250
615		-1.953125
616		1.953125
617		0.000000
618		1.953125
619		-1.953125
620		1.953125
621		-1.953125
622		1.953125
623		-1.953125
624		1.953125
625		-1.953125
626		1.953125
627		-1.953125
628		1.953125
629		-1.953125
630		1.953125
631		-1.953125
632		1.953125
633		-1.953125
634		1.953125
635		-1.953125
636		1.953125
637		0.000000
638		1.953125
639		0.000000
640		1.953125
641		-1.953125
642		1.953125
643		0.000000
644		1.953125
645		0.000000
646		1.953125
647		0.000000
648		1.953125
649		0.000000
650		1.953125
651		0.000000
652		1.953125
653		0.000000
654		1.953125
655		0.000000
656		3.906250
657		0.000000
658		3.906250
659		1.953125
660		3.906250
661		1.953125
662		3.906250
663		0.000000
664		3.906250
665		1.953125
666		5.859375
667		1.953125
668		5.859375
669		1.953125
670		5.859375
671		1.953125
672		5.859375
673		3.906250
674		5.859375
675		3.906250
676		7.812500
677		3.906250
678		7.812500
679		3.906250
680		7.812500
681		5.859375
682		7.812500
683		5.859375
684		7.812500
685		5.859375
686		9.765625
687		5.859375
688		9.765625
689		7.812500
690		9.765625
691		7.812500
692		9.765625
693		7.812500
694		11.718750
695		7.812500
696		11.718750
697		7.812500
698		11.718750
699		9.765625
700		13.671875
701		9.765625
702		11.718750
703		9.765625
704		13.671875
705		9.765625
706		13.671875
707		9.765625
708		13.671875
709		9.765625
710		15.625000
711		11.718750
712		15.625000
713		11.718750
714		15.625000
715		11.718750
716		15.625000
717		13.671875
718		15.625000
719		13.671875
720		17.578125
721		13.671875
722		17.578125
723		13.671875
724		17.578125
725		13.671875
726		17.578125
727		15.625000
728		17.578125
729		13.671875
730		19.531250
731		15.625000
732		17.578125
733		15.625000
734		17.578125
735		15.625000
736		19.531250
737		15.625000
738		19.531250
739		15.625000
740		19.531250
741		15.625000
742		19.531250
743		17.578125
744		19.531250
745		17.578125
746		19.531250
747		15.625000
748		19.531250
749		17.578125
750		19.531250
751		17.578125
752		19.531250
753		15.625000
754		19.531250
755		17.578125
756		19.531250
757		17.578125
758		19.531250
759		15.625000
760		19.531250
761		17.578125
762		19.531250
763		17.578125
764		19.531250
765		15.625000
766		19.531250
767		15.625000
768		19.531250
769		17.578125
770		19.531250
771		15.625000
772		19.531250
773		15.625000
774		19.531250
775		15.625000
776		19.531250
777		15.625000
778		19.531250
779		15.625000
780		17.578125
781		15.625000
782		19.531250
783		15.625000
784		19.531250
785		15.625000
786		17.578125
787		13.671875
788		17.578125
789		13.671875
790		17.578125
791		13.671875
792		17.578125
793		13.671875
794		15.625000
795		13.671875
796		15.625000
797		11.718750
798		15.625000
799		11.718750
800		15.625000
801		11.718750
802		15.625000
803		11.718750
804		15.625000
805		9.765625
806		13.671875
807		9.765625
808		13.671875
809		9.765625
810		13.671875
811		9.765625
812		11.718750
813		7.812500
814		13.671875
815		7.812500
816		11.718750
817		7.812500
818		11.718750
819		7.812500
820		11.718750
821		7.812500
822		9.765625
823		5.859375
824		9.765625
825		5.859375
826		9.765625
827		5.859375
828		7.812500
829		5.859375
830		7.812500
831		3.906250
832		7.812500
833		3.906250
834		7.812500
835		3.906250
836		7.812500
837		3.906250
838		5.859375
839		1.953125
840		5.859375
841		1.953125
842		5.859375
843		1.953125
844		5.859375
845		1.953125
846		5.859375
847		1.953125
848		5.859375
849		1.953125
850		3.906250
851		1.953125
852		3.906250
853		1.953125
854		3.906250
855		0.000000
856		3.906250
857		0.000000
858		3.906250
859		-1.953125
860		3.906250
861		0.000000
862		1.953125
863		0.000000
864		1.953125
865		-1.953125
866		1.953125
867		-1.953125
868		1.953125
869		-1.953125
870		1.953125
871		-1.953125
872		1.953125
873		-1.953125
874		1.953125
875		-1.953125
876		1.953125
877		-1.953125
878		1.953125
879		0.000000
880		0.000000
881		-1.953125
882		1.953125
883		-1.953125
884		1.953125
885		-1.953125
886		1.953125
887		-1.953125
888		1.953125
889		-1.953125
890		1.953125
891		-1.953125
892		1.953125
893		-1.953125
894		3.906250
895		0.000000
896		1.953125
897		0.000000
898		3.906250
899		0.000000
900		1.953125
901		0.000000
902		1.953125
903		0.000000
904		1.953125
905		0.000000
906		3.906250
907		0.000000
908		3.906250
909		0.000000
910		5.859375
911		1.953125
912		3.906250
913		1.953125
914		3.906250
915		1.953125
916		5.859375
917		1.953125
918		5.859375
919		1.953125
920		5.859375
921		3.906250
922		5.859375
923		3.906250
924		5.859375
925		3.906250
926		5.859375
927		3.906250
928		7.812500
929		3.906250
930		7.812500
931		3.906250
932		7.812500
933		5.859375
934		9.765625
935		5.859375
936		9.765625
937		5.859375
938		9.765625
939		5.859375
940		9.765625
941		7.812500
942		9.765625
943		7.812500
944		11.718750
945		7.812500
946		11.718750
947		9.765625
948		11.718750
949		7.812500
950		11.718750
951		9.765625
952		13.671875
953		9.765625
954		13.671875
955		11.718750
956		13.671875
957		11.718750
958		13.671875
959		11.718750
960		13.671875
961		11.718750
962		15.625000
963		11.718750
964		15.625000
965		11.718750
966		15.625000
967		13.671875
968		15.625000
969		13.671875
970		17.578125
971		13.671875
972		17.578125
973		13.671875
974		17.578125
975		13.671875
976		17.578125
977		13.671875
978		19.531250
979		15.625000
980		17.578125
981		15.625000
982		19.531250
983		15.625000
984		19.531250
985		15.625000
986		19.531250
987		15.625000
988		19.531250
989		15.625000
990		19.531250
991		15.625000
992		19.531250
993		15.625000
994		19.531250
995		17.578125
996		19.531250
997		17.578125
998		19.531250
999		15.625000
1000		19.531250
1001		15.625000
1002		19.531250
1003		17.578125
1004		19.531250
1005		17.578125
1006		19.531250
1007		17.578125
1008		19.531250
1009		17.578125
1010		19.531250
1011		17.578125
1012		21.484375
1013		17.578125
1014		19.531250
1015		15.625000
1016		21.484375
1017		17.578125
1018		19.531250
1019		15.625000
1020		19.531250
1021		17.578125
1022		19.531250
1023		15.625000
1024		19.531250
1025		15.625000
1026		19.531250
1027		15.625000
1028		19.531250
1029		15.625000
1030		17.578125
1031		15.625000
1032		19.531250
1033		13.671875
1034		19.531250
1035		13.671875
1036		17.578125
1037		13.671875
1038		17.578125
1039		13.671875
1040		17.578125
1041		13.671875
1042		17.578125
1043		13.671875
1044		15.625000
1045		11.718750
1046		17.578125
1047		13.671875
1048		15.625000
1049		11.718750
1050		15.625000
1051		11.718750
1052		15.625000
1053		11.718750
1054		13.671875
1055		9.765625
1056		13.671875
1057		11.718750
1058		13.671875
1059		9.765625
1060		13.671875
1061		9.765625
1062		13.671875
1063		9.765625
1064		11.718750
1065		9.765625
1066		11.718750
1067		7.812500
1068		11.718750
1069		7.812500
1070		11.718750
1071		7.812500
1072		11.718750
1073		7.812500
1074		9.765625
1075		5.859375
1076		9.765625
1077		5.859375
1078		9.765625
1079		5.859375
1080		7.812500
1081		5.859375
1082		7.812500
1083		3.906250
1084		7.812500
1085		3.906250
1086		7.812500
1087		3.906250
1088		7.812500
1089		3.906250
1090		5.859375
1091		3.906250
1092		5.859375
1093		1.953125
1094		5.859375
1095		1.953125
1096		5.859375
1097		1.953125
1098		3.906250
1099		0.000000
1100		3.906250
1101		1.953125
1102		3.906250
1103		0.000000
1104		3.906250
1105		0.000000
1106		3.906250
1107		0.000000
1108		3.906250
1109		0.000000
1110		3.906250
1111		-1.953125
1112		3.906250
1113		0.000000
1114		1.953125
1115		0.000000
1116		1.953125
1117		-1.953125
1118		1.953125
1119		0.000000
1120		1.953125
1121		-1.953125
1122		1.953125
1123		-1.953125
1124		1.953125
1125		-1.953125
1126		1.953125
1127		-1.953125
1128		1.953125
1129		-1.953125
1130		1.953125
1131		-1.953125
1132		0.000000
1133		-1.953125
1134		1.953125
1135		-1.953125
1136		1.953125
1137		-1.953125
1138		1.953125
1139		-1.953125
1140		1.953125
1141		-1.953125
1142		1.953125
1143		-1.953125
1144		1.953125
1145		-1.953125
1146		1.953125
1147		0.000000
1148		1.953125
1149		0.000000
1150		1.953125
1151		-1.953125
1152		3.906250
1153		0.000000
1154		1.953125
1155		0.000000
1156		3.906250
1157		0.000000
1158		3.906250
1159		0.000000
1160		3.906250
1161		0.000000
1162		3.906250
1163		1.953125
1164		3.906250
1165		1.953125
1166		3.906250
1167		1.953125
1168		5.859375
1169		1.953125
1170		5.859375
1171		1.953125
1172		5.859375
1173		3.906250
1174		5.859375
1175		3.906250
1176		7.812500
1177		3.906250
1178		7.812500
1179		3.906250
1180		7.812500
1181		5.859375
1182		7.812500
1183		5.859375
1184		7.812500
1185		5.859375
1186		9.765625
1187		5.859375
1188		9.765625
1189		5.859375
1190		9.765625
1191		5.859375
1192		9.765625
1193		7.812500
1194		9.765625
1195		7.812500
1196		11.718750
1197		9.765625
1198		11.718750
1199		9.765625
1200		11.718750
1201		9.765625
1202		13.671875
1203		9.765625
1204		13.671875
1205		9.765625
1206		13.671875
1207		11.718750
1208		13.671875
1209		11.718750
1210		13.671875
1211		11.718750
1212		15.625000
1213		11.718750
1214		15.625000
1215		13.671875
1216		15.625000
1217		11.718750
1218		17.578125
1219		13.671875
1220		17.578125
1221		13.671875
1222		17.578125
1223		13.671875
1224		17.578125
1225		13.671875
1226		17.578125
1227		15.625000
1228		17.578125
1229		15.625000
1230		17.578125
1231		15.625000
1232		17.578125
1233		15.625000
1234		17.578125
1235		15.625000
1236		19.531250
1237		15.625000
1238		19.531250
1239		15.625000
1240		19.531250
1241		17.578125
1242		19.531250
1243		15.625000
1244		19.531250
1245		15.625000
1246		19.531250
1247		15.625000
1248		19.531250
1249		17.578125
1250		19.531250
1251		17.578125
1252		19.531250
1253		17.578125
1254		19.531250
1255		17.578125
1256		19.531250
1257		17.578125
1258		19.531250
1259		17.578125
1260		19.531250
1261		15.625000
1262		19.531250
1263		15.625000
1264		19.531250
1265		17.578125
1266		19.531250
1267		17.578125
1268		19.531250
1269		15.625000
1270		19.531250
1271		15.625000
1272		19.531250
1273		15.625000
1274		19.531250
1275		15.625000
1276		19.531250
1277		15.625000
1278		19.531250
1279		13.671875
1280		19.531250
1281		15.625000
1282		19.531250
1283		15.625000
1284		17.578125
1285		13.671875
1286		17.578125
1287		13.671875
1288		17.578125
1289		13.671875
1290		17.578125
1291		13.671875
1292		17.578125
1293		13.671875
1294		17.578125
1295		13.671875
1296		15.625000
1297		13.671875
1298		15.625000
1299		13.671875
1300		15.625000
1301		11.718750
1302		15.625000
1303		11.718750
1304		15.625000
1305		11.718750
1306		15.625000
1307		9.765625
1308		13.671875
1309		9.765625
1310		13.671875
1311		9.765625
1312		13.671875
1313		9.765625
1314		13.671875
1315		9.765625
1316		11.718750
1317		9.765625
1318		11.718750
1319		7.812500
1320		11.718750
1321		7.812500
1322		11.718750
1323		7.812500
1324		9.765625
1325		5.859375
1326		9.765625
1327		5.859375
1328		9.765625
1329		5.859375
1330		9.765625
1331		3.906250
1332		9.765625
1333		5.859375
1334		7.812500
1335		3.906250
1336		7.812500
1337		3.906250
1338		7.812500
1339		3.906250
1340		7.812500
1341		1.953125
1342		5.859375
1343		1.953125
1344		5.859375
1345		1.953125
1346		5.859375
1347		1.953125
1348		5.859375
1349		1.953125
1350		3.906250
1351		0.000000
1352		3.906250
1353		0.000000
1354		3.906250
1355		0.000000
1356		3.906250
1357		0.000000
1358		3.906250
1359		0.000000
1360		3.906250
1361		0.000000
1362		1.953125
1363		-1.953125
1364		1.953125
1365		0.000000
1366		1.953125
1367		0.000000
1368		1.953125
1369		-1.953125
1370		1.953125
1371		-1.953125
1372		1.953125
1373		-1.953125
1374		1.953125
1375		-1.953125
1376		1.953125
1377		-1.953125
1378		1.953125
1379		-1.953125
1380		1.953125
1381		-1.953125
1382		1.953125
1383		-1.953125
1384		1.953125
1385		-1.953125
1386		1.953125
1387		-1.953125
1388		1.953125
1389		-1.953125
1390		1.953125
1391		-1.953125
1392		1.953125
1393		-1.953125
1394		1.953125
1395		-1.953125
1396		1.953125
1397		-1.953125
1398		3.906250
1399		0.000000
1400		1.953125
1401		0.000000
1402		1.953125
1403		0.000000
1404		3.906250
1405		0.000000
1406		3.906250
1407		0.000000
1408		1.953125
1409		0.000000
1410		3.906250
1411		1.953125
1412		3.906250
1413		0.000000
1414		3.906250
1415		1.953125
1416		5.859375
1417		1.953125
1418		3.906250
1419		0.000000
1420		5.859375
1421		1.953125
1422		5.859375
1423		3.906250
1424		5.859375
1425		3.906250
1426		5.859375
1427		3.906250
1428		7.812500
1429		3.906250
1430		7.812500
1431		3.906250
1432		7.812500
1433		5.859375
1434		7.812500
1435		5.859375
1436		9.765625
1437		5.859375
1438		9.765625
1439		5.859375
1440		9.765625
1441		5.859375
1442		9.765625
1443		7.812500
1444		9.765625
1445		7.812500
1446		11.718750
1447		7.812500
1448		11.718750
1449		9.765625
1450		11.718750
1451		9.765625
1452		11.718750
1453		7.812500
1454		13.671875
1455		9.765625
1456		13.671875
1457		9.765625
1458		13.671875
1459		11.718750
1460		13.671875
1461		11.718750
1462		15.625000
1463		11.718750
1464		15.625000
1465		11.718750
1466		15.625000
1467		13.671875
1468		15.625000
1469		13.671875
1470		17.578125
1471		13.671875
1472		15.625000
1473		13.671875
1474		17.578125
1475		13.671875
1476		17.578125
1477		15.625000
1478		17.578125
1479		15.625000
1480		17.578125
1481		13.671875
1482		19.531250
1483		15.625000
1484		17.578125
1485		15.625000
1486		17.578125
1487		15.625000
1488		19.531250
1489		15.625000
1490		19.531250
1491		15.625000
1492		19.531250
1493		15.625000
1494		19.531250
1495		17.578125
1496		19.531250
1497		15.625000
1498		19.531250
1499		17.578125
1500		21.484375
1501		17.578125
1502		19.531250
1503		15.625000
1504		21.484375
1505		17.578125
1506		19.531250
1507		15.625000
1508		19.531250
1509		17.578125
1510		19.531250
1511		17.578125
1512		19.531250
1513		17.578125
1514		19.531250
1515		15.625000
1516		19.531250
1517		17.578125
1518		19.531250
1519		15.625000
1520		19.531250
1521		15.625000
1522		19.531250
1523		15.625000
1524		19.531250
1525		15.625000
1526		19.531250
1527		15.625000
1528		19.531250
1529		15.625000
1530		19.531250
1531		13.671875
1532		19.531250
1533		15.625000
1534		17.578125
1535		15.625000
1536		17.578125
1537		13.671875
1538		17.578125
1539		13.671875
1540		17.578125
1541		13.671875
1542		17.578125
1543		13.671875
1544		17.578125
1545		13.671875
1546		17.578125
1547		13.671875
1548		15.625000
1549		11.718750
1550		17.578125
1551		11.718750
1552		15.625000
1553		11.718750
1554		15.625000
1555		11.718750
1556		15.625000
1557		9.765625
1558		13.671875
1559		9.765625
1560		13.671875
1561		9.765625
1562		13.671875
1563		9.765625
1564		13.671875
1565		9.765625
1566		13.671875
1567		9.765625
1568		11.718750
1569		7.812500
1570		11.718750
1571		7.812500
1572		11.718750
1573		5.859375
1574		9.765625
1575		5.859375
1576		9.765625
1577		5.859375
1578		9.765625
1579		5.859375
1580		9.765625
1581		5.859375
1582		9.765625
1583		3.906250
1584		7.812500
1585		5.859375
1586		7.812500
1587		3.906250
1588		7.812500
1589		3.906250
1590		7.812500
1591		3.906250
1592		7.812500
1593		1.953125
1594		5.859375
1595		1.953125
1596		5.859375
1597		1.953125
1598		5.859375
1599		0.000000
1600		5.859375
1601		1.953125
1602		3.906250
1603		1.953125
1604		3.906250
1605		0.000000
1606		3.906250
1607		0.000000
1608		3.906250
1609		0.000000
1610		3.906250
1611		0.000000
1612		3.906250
1613		0.000000
1614		3.906250
1615		-1.953125
1616		1.953125
1617		0.000000
1618		1.953125
1619		0.000000
1620		1.953125
1621		-1.953125
1622		1.953125
1623		-1.953125
1624		1.953125
1625		-1.953125
1626		1.953125
1627		-1.953125
1628		1.953125
1629		-1.953125
1630		1.953125
1631		-1.953125
1632		1.953125
1633		-1.953125
1634		1.953125
1635		-1.953125
1636		1.953125
1637		-1.953125
1638		1.953125
1639		-1.953125
1640		1.953125
1641		-1.953125
1642		1.953125
1643		-1.953125
1644		1.953125
1645		-1.953125
1646		1.953125
1647		0.000000
1648		1.953125
1649		0.000000
1650		1.953125
1651		0.000000
1652		1.953125
1653		0.000000
1654		1.953125
1655		-1.953125
1656		3.906250
1657		0.000000
1658		3.906250
1659		0.000000
1660		3.906250
1661		0.000000
1662		3.906250
1663		0.000000
1664		3.906250
1665		1.953125
1666		3.906250
1667		1.953125
1668		3.906250
1669		1.953125
1670		3.906250
1671		1.953125
1672		5.859375
1673		1.953125
1674		5.859375
1675		3.906250
1676		5.859375
1677		3.906250
1678		7.812500
1679		3.906250
1680		7.812500
1681		3.906250
1682		7.812500
1683		3.906250
1684		9.765625
1685		5.859375
1686		7.812500
1687		5.859375
1688		7.812500
1689		5.859375
1690		9.765625
1691		5.859375
1692		9.765625
1693		7.812500
1694		9.765625
1695		7.812500
1696		11.718750
1697		7.812500
1698		11.718750
1699		7.812500
1700		11.718750
1701		9.765625
1702		11.718750
1703		9.765625
1704		11.718750
1705		9.765625
1706		13.671875
1707		9.765625
1708		13.671875
1709		9.765625
1710		13.671875
1711		11.718750
1712		13.671875
1713		11.718750
1714		15.625000
1715		11.718750
1716		15.625000
1717		11.718750
1718		15.625000
1719		13.671875
1720		15.625000
1721		13.671875
1722		17.578125
1723		13.671875
1724		15.625000
1725		13.671875
1726		17.578125
1727		13.671875
1728		17.578125
1729		13.671875
1730		17.578125
1731		15.625000
1732		17.578125
1733		13.671875
1734		19.531250
1735		15.625000
1736		17.578125
1737		15.625000
1738		17.578125
1739		15.625000
1740		19.531250
1741		15.625000
1742		19.531250
1743		15.625000
1744		19.531250
1745		17.578125
1746		19.531250
1747		15.625000
1748		19.531250
1749		17.578125
1750		19.531250
1751		15.625000
1752		19.531250
1753		17.578125
1754		19.531250
1755		15.625000
1756		19.531250
1757		17.578125
1758		19.531250
1759		17.578125
1760		19.531250
1761		17.578125
1762		19.531250
1763		17.578125
1764		19.531250
1765		17.578125
1766		19.531250
1767		17.578125
1768		21.484375
1769		17.578125
1770		19.531250
1771		17.578125
1772		19.531250
1773		15.625000
1774		19.531250
1775		15.625000
1776		19.531250
1777		15.625000
1778		19.531250
1779		15.625000
1780		19.531250
1781		15.625000
1782		19.531250
1783		15.625000
1784		17.578125
1785		15.625000
1786		17.578125
1787		15.625000
1788		17.578125
1789		13.671875
1790		17.578125
1791		13.671875
1792		17.578125
1793		13.671875
1794		17.578125
1795		13.671875
1796		17.578125
1797		13.671875
1798		15.625000
1799		11.718750
1800		15.625000
1801		11.718750
1802		15.625000
1803		11.718750
1804		15.625000
1805		11.718750
1806		15.625000
1807		11.718750
1808		13.671875
1809		11.718750
1810		13.671875
1811		9.765625
1812		13.671875
1813		9.765625
1814		13.671875
1815		9.765625
1816		13.671875
1817		7.812500
1818		11.718750
1819		9.765625
1820		11.718750
1821		7.812500
1822		9.765625
1823		7.812500
1824		9.765625
1825		7.812500
1826		9.765625
1827		5.859375
1828		9.765625
1829		5.859375
1830		9.765625
1831		5.859375
1832		9.765625
1833		5.859375
1834		7.812500
1835		3.906250
1836		7.812500
1837		3.906250
1838		7.812500
1839		3.906250
1840		7.812500
1841		3.906250
1842		5.859375
1843		3.906250
1844		5.859375
1845		3.906250
1846		5.859375
1847		1.953125
1848		5.859375
1849		1.953125
1850		5.859375
1851		1.953125
1852		5.859375
1853		1.953125
1854		3.906250
1855		1.953125
1856		3.906250
1857		0.000000
1858		3.906250
1859		0.000000
1860		3.906250
1861		0.000000
1862		3.906250
1863		0.000000
1864		1.953125
1865		0.000000
1866		3.906250
1867		-1.953125
1868		1.953125
1869		-1.953125
1870		3.906250
1871		-1.953125
1872		1.953125
1873		-1.953125
1874		1.953125
1875		-1.953125
1876		1.953125
1877		-1.953125
1878		1.953125
1879		-1.953125
1880		1.953125
1881		-1.953125
1882		1.953125
1883		-1.953125
1884		1.953125
1885		-1.953125
1886		1.953125
1887		-1.953125
1888		1.953125
1889		-1.953125
1890		1.953125
1891		-1.953125
1892		1.953125
1893		-1.953125
1894		1.953125
1895		-1.953125
1896		1.953125
1897		-1.953125
1898		1.953125
1899		-1.953125
1900		1.953125
1901		0.000000
1902		3.906250
1903		0.000000
1904		1.953125
1905		0.000000
1906		1.953125
1907		0.000000
1908		3.906250
1909		0.000000
1910		3.906250
1911		0.000000
1912		3.906250
1913		1.953125
1914		3.906250
1915		1.953125
1916		3.906250
1917		1.953125
1918		5.859375
1919		1.953125
1920		5.859375
1921		1.953125
1922		5.859375
1923		1.953125
1924		5.859375
1925		1.953125
1926		7.812500
1927		3.906250
1928		5.859375
1929		3.906250
1930		7.812500
1931		3.906250
1932		7.812500
1933		3.906250
1934		7.812500
1935		5.859375
1936		7.812500
1937		5.859375
1938		7.812500
1939		5.859375
1940		9.765625
1941		5.859375
1942		9.765625
1943		7.812500
1944		11.718750
1945		7.812500
1946		9.765625
1947		7.812500
1948		11.718750
1949		7.812500
1950		11.718750
1951		9.765625
1952		11.718750
1953		7.812500
1954		13.671875
1955		9.765625
1956		13.671875
1957		9.765625
1958		13.671875
1959		11.718750
1960		13.671875
1961		11.718750
1962		13.671875
1963		11.718750
1964		15.625000
1965		11.718750
1966		15.625000
1967		11.718750
1968		15.625000
1969		11.718750
1970		15.625000
1971		13.671875
1972		15.625000
1973		13.671875
1974		17.578125
1975		13.671875
1976		17.578125
1977		13.671875
1978		17.578125
1979		15.625000
1980		17.578125
1981		15.625000
1982		17.578125
1983		15.625000
1984		19.531250
1985		15.625000
1986		19.531250
1987		15.625000
1988		17.578125
1989		15.625000
1990		19.531250
1991		15.625000
1992		19.531250
1993		15.625000
1994		19.531250
1995		15.625000
1996		19.531250
1997		17.578125
1998		19.531250
1999		17.578125
2000		19.531250
2001		17.578125
2002		19.531250
2003		17.578125
2004		21.484375
2005		17.578125
2006		19.531250
2007		17.578125
2008		21.484375
2009		17.578125
2010		21.484375
2011		17.578125
2012		19.531250
2013		17.578125
2014		19.531250
2015		17.578125
2016		19.531250
2017		17.578125
2018		19.531250
2019		15.625000
2020		19.531250
2021		17.578125
2022		19.531250
2023		17.578125
2024		19.531250
2025		17.578125
2026		19.531250
2027		15.625000
2028		19.531250
2029		15.625000
2030		19.531250
2031		15.625000
2032		19.531250
2033		15.625000
2034		19.531250
2035		15.625000
2036		19.531250
2037		13.671875
2038		19.531250
2039		15.625000
2040		17.578125
2041		13.671875
2042		17.578125
2043		13.671875
2044		17.578125
2045		13.671875
2046		17.578125
2047		13.671875
2048		17.578125
2049		13.671875
2050		15.625000
2051		11.718750
2052		15.625000
2053		11.718750
2054		15.625000
2055		11.718750
2056		13.671875
2057		11.718750
2058		13.671875
2059		11.718750
2060		13.671875
2061		9.765625
2062		13.671875
2063		9.765625
2064		13.671875
2065		9.765625
2066		11.718750
2067		9.765625
2068		11.718750
2069		7.812500
2070		11.718750
2071		7.812500
2072		11.718750
2073		7.812500
2074		9.765625
2075		5.859375
2076		11.718750
2077		7.812500
2078		9.765625
2079		5.859375
2080		9.765625
2081		5.859375
2082		9.765625
2083		5.859375
2084		7.812500
2085		5.859375
2086		7.812500
2087		3.906250
2088		7.812500
2089		3.906250
2090		7.812500
2091		3.906250
2092		7.812500
2093		3.906250
2094		5.859375
2095		1.953125
2096		5.859375
2097		1.953125
2098		5.859375
2099		1.953125
2100		5.859375
2101		1.953125
2102		5.859375
2103		0.000000
2104		5.859375
2105		1.953125
2106		3.906250
2107		1.953125
2108		3.906250
2109		0.000000
2110		3.906250
2111		0.000000
2112		3.906250
2113		0.000000
2114		3.906250
2115		-1.953125
2116		1.953125
2117		0.000000
2118		1.953125
2119		0.000000
2120		1.953125
2121		0.000000
2122		3.906250
2123		-1.953125
2124		1.953125
2125		-1.953125
2126		1.953125
2127		-1.953125
2128		1.953125
2129		-1.953125
2130		1.953125
2131		-1.953125
2132		1.953125
2133		-1.953125
2134		1.953125
2135		-1.953125
2136		1.953125
2137		-1.953125
2138		1.953125
2139		0.000000
2140		1.953125
2141		-1.953125
2142		1.953125
2143		-1.953125
2144		1.953125
2145		-1.953125
2146		1.953125
2147		-1.953125
2148		1.953125
2149		0.000000
2150		1.953125
2151		0.000000
2152		1.953125
2153		-1.953125
2154		3.906250
2155		0.000000
2156		1.953125
2157		0.000000
2158		1.953125
2159		0.000000
2160		3.906250
2161		0.000000
2162		3.906250
2163		0.000000
2164		3.906250
2165		0.000000
2166		3.906250
2167		1.953125
2168		3.906250
2169		1.953125
2170		5.859375
2171		1.953125
2172		5.859375
2173		3.906250
2174		5.859375
2175		3.906250
2176		5.859375
2177		3.906250
2178		7.812500
2179		3.906250
2180		7.812500
2181		3.906250
2182		7.812500
2183		3.906250
2184		7.812500
2185		5.859375
2186		7.812500
2187		5.859375
2188		9.765625
2189		5.859375
2190		9.765625
2191		5.859375
2192		9.765625
2193		5.859375
2194		11.718750
2195		7.812500
2196		11.718750
2197		7.812500
2198		11.718750
2199		7.812500
2200		11.718750
2201		7.812500
2202		11.718750
2203		9.765625
2204		11.718750
2205		9.765625
2206		11.718750
2207		9.765625
2208		13.671875
2209		9.765625
2210		13.671875
2211		11.718750
2212		13.671875
2213		11.718750
2214		15.625000
2215		11.718750
2216		15.625000
2217		11.718750
2218		15.625000
2219		13.671875
2220		15.625000
2221		13.671875
2222		17.578125
2223		13.671875
2224		15.625000
2225		13.671875
2226		17.578125
2227		13.671875
2228		17.578125
2229		13.671875
2230		17.578125
2231		15.625000
2232		17.578125
2233		15.625000
2234		19.531250
2235		15.625000
2236		19.531250
2237		15.625000
2238		19.531250
2239		15.625000
2240		19.531250
2241		15.625000
2242		19.531250
2243		15.625000
2244		19.531250
2245		15.625000
2246		19.531250
2247		17.578125
2248		19.531250
2249		17.578125
2250		19.531250
2251		17.578125
2252		19.531250
2253		17.578125
2254		19.531250
2255		17.578125
2256		21.484375
2257		17.578125
2258		19.531250
2259		15.625000
2260		21.484375
2261		17.578125
2262		21.484375
2263		17.578125
2264		19.531250
2265		17.578125
2266		19.531250
2267		17.578125
2268		19.531250
2269		17.578125
2270		19.531250
2271		15.625000
2272		19.531250
2273		17.578125
2274		19.531250
2275		17.578125
2276		19.531250
2277		15.625000
2278		19.531250
2279		15.625000
2280		19.531250
2281		15.625000
2282		19.531250
2283		15.625000
2284		19.531250
2285		15.625000
2286		19.531250
2287		15.625000
2288		17.578125
2289		13.671875
2290		19.531250
2291		15.625000
2292		17.578125
2293		13.671875
2294		17.578125
2295		13.671875
2296		17.578125
2297		13.671875
2298		17.578125
2299		13.671875
2300		15.625000
2301		13.671875
2302		15.625000
2303		13.671875
2304		15.625000
2305		11.718750
2306		15.625000
2307		11.718750
2308		13.671875
2309		11.718750
2310		13.671875
2311		11.718750
2312		13.671875
2313		11.718750
2314		13.671875
2315		9.765625
2316		13.671875
2317		9.765625
2318		11.718750
2319		9.765625
2320		11.718750
2321		7.812500
2322		11.718750
2323		7.812500
2324		11.718750
2325		7.812500
2326		9.765625
2327		5.859375
2328		9.765625
2329		7.812500
2330		9.765625
2331		5.859375
2332		9.765625
2333		5.859375
2334		9.765625
2335		5.859375
2336		7.812500
2337		3.906250
2338		7.812500
2339		3.906250
2340		7.812500
2341		3.906250
2342		5.859375
2343		1.953125
2344		7.812500
2345		3.906250
2346		5.859375
2347		1.953125
2348		5.859375
2349		1.953125
2350		5.859375
2351		1.953125
2352		5.859375
2353		1.953125
2354		3.906250
2355		0.000000
2356		3.906250
2357		1.953125
2358		3.906250
2359		1.953125
2360		3.906250
2361		0.000000
2362		3.906250
2363		0.000000
2364		3.906250
2365		0.000000
2366		3.906250
2367		0.000000
2368		1.953125
2369		0.000000
2370		3.906250
2371		0.000000
2372		1.953125
2373		-1.953125
2374		1.953125
2375		-1.953125
2376		1.953125
2377		0.000000
2378		1.953125
2379		0.000000
2380		1.953125
2381		-1.953125
2382		1.953125
2383		-1.953125
2384		1.953125
2385		-1.953125
2386		1.953125
2387		-1.953125
2388		1.953125
2389		-1.953125
2390		1.953125
2391		0.000000
2392		1.953125
2393		0.000000
2394		1.953125
2395		-1.953125
2396		1.953125
2397		-1.953125
2398		1.953125
2399		0.000000
2400		1.953125
2401		0.000000
2402		1.953125
2403		0.000000
2404		1.953125
2405		0.000000
2406		3.906250
2407		0.000000
2408		3.906250
2409		0.000000
2410		3.906250
2411		0.000000
2412		3.906250
2413		0.000000
2414		3.906250
2415		0.000000
2416		3.906250
2417		1.953125
2418		3.906250
2419		1.953125
2420		5.859375
2421		1.953125
2422		5.859375
2423		1.953125
2424		5.859375
2425		3.906250
2426		5.859375
2427		1.953125
2428		7.812500
2429		3.906250
2430		7.812500
2431		3.906250
2432		7.812500
2433		3.906250
2434		7.812500
2435		5.859375
2436		7.812500
2437		5.859375
2438		7.812500
2439		5.859375
2440		9.765625
2441		7.812500
2442		9.765625
2443		7.812500
2444		9.765625
2445		7.812500
2446		9.765625
2447		7.812500
2448		11.718750
2449		7.812500
2450		11.718750
2451		9.765625
2452		11.718750
2453		9.765625
2454		13.671875
2455		9.765625
2456		13.671875
2457		9.765625
2458		13.671875
2459		9.765625
2460		13.671875
2461		9.765625
2462		15.625000
2463		11.718750
2464		15.625000
2465		11.718750
2466		15.625000
2467		11.718750
2468		15.625000
2469		13.671875
2470		17.578125
2471		13.671875
2472		15.625000
2473		13.671875
2474		17.578125
2475		13.671875
2476		17.578125
2477		15.625000
2478		17.578125
2479		13.671875
2480		17.578125
2481		15.625000
2482		17.578125
2483		15.625000
2484		17.578125
2485		13.671875
2486		19.531250
2487		15.625000
2488		19.531250
2489		15.625000
2490		19.531250
2491		15.625000
2492		19.531250
2493		17.578125
2494		19.531250
2495		15.625000
2496		19.531250
2497		17.578125
2498		19.531250
2499		17.578125
2500		19.531250
2501		17.578125
2502		21.484375
2503		17.578125
2504		21.484375
2505		17.578125
2506		21.484375
2507		15.625000
2508		21.484375
2509		17.578125
2510		19.531250
2511		17.578125
2512		21.484375
2513		17.578125
2514		19.531250
2515		17.578125
2516		19.531250
2517		17.578125
2518		19.531250
2519		17.578125
2520		19.531250
2521		17.578125
2522		19.531250
2523		17.578125
2524		21.484375
2525		17.578125
2526		19.531250
2527		17.578125
2528		19.531250
2529		15.625000
2530		19.531250
2531		15.625000
2532		19.531250
2533		15.625000
2534		19.531250
2535		15.625000
2536		19.531250
2537		15.625000
2538		19.531250
2539		15.625000
2540		17.578125
2541		15.625000
2542		19.531250
2543		15.625000
2544		17.578125
2545		13.671875
2546		17.578125
2547		13.671875
2548		17.578125
2549		13.671875
2550		17.578125
2551		13.671875
2552		15.625000
2553		11.718750
2554		15.625000
2555		11.718750
2556		15.625000
2557		11.718750
2558		15.625000
2559		11.718750
2560		13.671875
2561		11.718750
2562		13.671875
2563		9.765625
2564		15.625000
2565		9.765625
2566		13.671875
2567		9.765625
2568		13.671875
2569		9.765625
2570		11.718750
2571		9.765625
2572		11.718750
2573		7.812500
2574		11.718750
2575		7.812500
2576		11.718750
2577		7.812500
2578		9.765625
2579		7.812500
2580		9.765625
2581		5.859375
2582		9.765625
2583		5.859375
2584		9.765625
2585		5.859375
2586		9.765625
2587		5.859375
2588		7.812500
2589		5.859375
2590		7.812500
2591		3.906250
2592		7.812500
2593		3.906250
2594		5.859375
2595		3.906250
2596		5.859375
2597		3.906250
2598		5.859375
2599		3.906250
2600		5.859375
2601		1.953125
2602		5.859375
2603		1.953125
2604		5.859375
2605		1.953125
2606		5.859375
2607		1.953125
2608		3.906250
2609		1.953125
2610		3.906250
2611		0.000000
2612		3.906250
2613		0.000000
2614		3.906250
2615		0.000000
2616		3.906250
2617		0.000000
2618		1.953125
2619		0.000000
2620		1.953125
2621		0.000000
2622		1.953125
2623		-1.953125
2624		3.906250
2625		0.000000
2626		1.953125
2627		0.000000
2628		1.953125
2629		-1.953125
2630		1.953125
2631		0.000000
2632		1.953125
2633		0.000000
2634		1.953125
2635		-1.953125
2636		1.953125
2637		-1.953125
2638		1.953125
2639		0.000000
2640		1.953125
2641		-1.953125
2642		3.906250
2643		0.000000
2644		1.953125
2645		0.000000
2646		1.953125
2647		-1.953125
2648		1.953125
2649		0.000000
2650		1.953125
2651		0.000000
2652		1.953125
2653		0.000000
2654		3.906250
2655		0.000000
2656		3.906250
2657		0.000000
2658		3.906250
2659		0.000000
2660		3.906250
2661		1.953125
2662		3.906250
2663		0.000000
2664		5.859375
2665		1.953125
2666		3.906250
2667		1.953125
2668		3.906250
2669		1.953125
2670		5.859375
2671		1.953125
2672		5.859375
2673		1.953125
2674		5.859375
2675		1.953125
2676		5.859375
2677		3.906250
2678		5.859375
2679		3.906250
2680		7.812500
2681		3.906250
2682		7.812500
2683		3.906250
2684		7.812500
2685		5.859375
2686		7.812500
2687		5.859375
2688		9.765625
2689		5.859375
2690		9.765625
2691		5.859375
2692		9.765625
2693		7.812500
2694		9.765625
2695		7.812500
2696		9.765625
2697		5.859375
2698		11.718750
2699		7.812500
2700		11.718750
2701		7.812500
2702		11.718750
2703		9.765625
2704		11.718750
2705		9.765625
2706		13.671875
2707		9.765625
2708		13.671875
2709		9.765625
2710		13.671875
2711		11.718750
2712		13.671875
2713		11.718750
2714		15.625000
2715		11.718750
2716		15.625000
2717		11.718750
2718		15.625000
2719		13.671875
2720		15.625000
2721		13.671875
2722		15.625000
2723		13.671875
2724		17.578125
2725		13.671875
2726		17.578125
2727		13.671875
2728		17.578125
2729		15.625000
2730		17.578125
2731		15.625000
2732		17.578125
2733		15.625000
2734		19.531250
2735		15.625000
2736		19.531250
2737		15.625000
2738		19.531250
2739		15.625000
2740		19.531250
2741		15.625000
2742		19.531250
2743		17.578125
2744		19.531250
2745		17.578125
2746		19.531250
2747		15.625000
2748		21.484375
2749		17.578125
2750		19.531250
2751		17.578125
2752		19.531250
2753		17.578125
2754		21.484375
2755		17.578125
2756		21.484375
2757		17.578125
2758		21.484375
2759		17.578125
2760		21.484375
2761		17.578125
2762		19.531250
2763		17.578125
2764		21.484375
2765		17.578125
2766		21.484375
2767		17.578125
2768		21.484375
2769		17.578125
2770		19.531250
2771		17.578125
2772		21.484375
2773		17.578125
2774		19.531250
2775		15.625000
2776		21.484375
2777		17.578125
2778		19.531250
2779		17.578125
2780		19.531250
2781		15.625000
2782		21.484375
2783		15.625000
2784		19.531250
2785		15.625000
2786		19.531250
2787		15.625000
2788		19.531250
2789		15.625000
2790		19.531250
2791		15.625000
2792		19.531250
2793		13.671875
2794		19.531250
2795		15.625000
2796		17.578125
2797		13.671875
2798		17.578125
2799		13.671875
2800		17.578125
2801		13.671875
2802		17.578125
2803		13.671875
2804		15.625000
2805		13.671875
2806		15.625000
2807		11.718750
2808		15.625000
2809		11.718750
2810		15.625000
2811		11.718750
2812		13.671875
2813		11.718750
2814		13.671875
2815		9.765625
2816		13.671875
2817		9.765625
2818		13.671875
2819		9.765625
2820		13.671875
2821		9.765625
2822		13.671875
2823		9.765625
2824		11.718750
2825		7.812500
2826		11.718750
2827		7.812500
2828		11.718750
2829		7.812500
2830		9.765625
2831		5.859375
2832		11.718750
2833		5.859375
2834		9.765625
2835		5.859375
2836		9.765625
2837		5.859375
2838		9.765625
2839		3.906250
2840		7.812500
2841		3.906250
2842		7.812500
2843		3.906250
2844		7.812500
2845		3.906250
2846		5.859375
2847		3.906250
2848		7.812500
2849		1.953125
2850		5.859375
2851		1.953125
2852		5.859375
2853		1.953125
2854		5.859375
2855		1.953125
2856		5.859375
2857		1.953125
2858		3.906250
2859		0.000000
2860		5.859375
2861		1.953125
2862		3.906250
2863		1.953125
2864		3.906250
2865		0.000000
2866		3.906250
2867		0.000000
2868		3.906250
2869		0.000000
2870		3.906250
2871		0.000000
2872		3.906250
2873		0.000000
2874		3.906250
2875		0.000000
2876		1.953125
2877		0.000000
2878		3.906250
2879		0.000000
2880		1.953125
2881		-1.953125
2882		3.906250
2883		-1.953125
2884		1.953125
2885		0.000000
2886		1.953125
2887		0.000000
2888		1.953125
2889		0.000000
2890		1.953125
2891		0.000000
2892		1.953125
2893		-1.953125
2894		1.953125
2895		0.000000
2896		1.953125
2897		0.000000
2898		1.953125
2899		-1.953125
2900		3.906250
2901		0.000000
2902		1.953125
2903		0.000000
2904		1.953125
2905		0.000000
2906		1.953125
2907		0.000000
2908		3.906250
2909		0.000000
2910		3.906250
2911		0.000000
2912		3.906250
2913		1.953125
2914		3.906250
2915		0.000000
2916		5.859375
2917		1.953125
2918		3.906250
2919		1.953125
2920		5.859375
2921		1.953125
2922		5.859375
2923		1.953125
2924		5.859375
2925		1.953125
2926		5.859375
2927		3.906250
2928		7.812500
2929		3.906250
2930		5.859375
2931		5.859375
2932		7.812500
2933		5.859375
2934		7.812500
2935		3.906250
2936		7.812500
2937		5.859375
2938		9.765625
2939		5.859375
2940		9.765625
2941		5.859375
2942		9.765625
2943		5.859375
2944		9.765625
2945		7.812500
2946		9.765625
2947		7.812500
2948		11.718750
2949		7.812500
2950		11.718750
2951		9.765625
2952		11.718750
2953		9.765625
2954		11.718750
2955		9.765625
2956		13.671875
2957		9.765625
2958		13.671875
2959		9.765625
2960		13.671875
2961		11.718750
2962		15.625000
2963		11.718750
2964		13.671875
2965		11.718750
2966		15.625000
2967		11.718750
2968		15.625000
2969		11.718750
2970		15.625000
2971		13.671875
2972		17.578125
2973		13.671875
2974		17.578125
2975		13.671875
2976		17.578125
2977		15.625000
2978		17.578125
2979		15.625000
2980		17.578125
2981		15.625000
2982		17.578125
2983		15.625000
2984		19.531250
2985		15.625000
2986		19.531250
2987		15.625000
2988		19.531250
2989		15.625000
2990		21.484375
2991		17.578125
2992		19.531250
2993		17.578125
2994		19.531250
2995		15.625000
2996		21.484375
2997		17.578125
2998		19.531250
2999		17.578125
3000		21.484375
3001		17.578125
3002		21.484375
3003		17.578125
3004		21.484375
3005		17.578125
3006		21.484375
3007		17.578125
3008		21.484375
3009		17.578125
3010		21.484375
3011		17.578125
3012		21.484375
3013		17.578125
3014		19.531250
3015		17.578125
3016		21.484375
3017		17.578125
3018		21.484375
3019		17.578125
3020		21.484375
3021		17.578125
3022		21.484375
3023		17.578125
3024		21.484375
3025		17.578125
3026		21.484375
3027		17.578125
3028		21.484375
3029		17.578125
3030		19.531250
3031		17.578125
3032		19.531250
3033		15.625000
3034		21.484375
3035		15.625000
3036		19.531250
3037		15.625000
3038		19.531250
3039		15.625000
3040		19.531250
3041		15.625000
3042		19.531250
3043		15.625000
3044		19.531250
3045		13.671875
3046		19.531250
3047		15.625000
3048		17.578125
3049		13.671875
3050		17.578125
3051		13.671875
3052		17.578125
3053		13.671875
3054		17.578125
3055		13.671875
3056		17.578125
3057		13.671875
3058		17.578125
3059		11.718750
3060		15.625000
3061		11.718750
3062		15.625000
3063		11.718750
3064		13.671875
3065		11.718750
3066		13.671875
3067		9.765625
3068		13.671875
3069		9.765625
3070		13.671875
3071		7.812500
3072		13.671875
3073		9.765625
3074		13.671875
3075		7.812500
3076		11.718750
3077		7.812500
3078		11.718750
3079		7.812500
3080		11.718750
3081		7.812500
3082		9.765625
3083		5.859375
3084		9.765625
3085		5.859375
3086		9.765625
3087		5.859375
3088		9.765625
3089		3.906250
3090		9.765625
3091		3.906250
3092		9.765625
3093		3.906250
3094		9.765625
3095		3.906250
3096		7.812500
3097		3.906250
3098		5.859375
3099		3.906250
3100		5.859375
3101		1.953125
3102		7.812500
3103		1.953125
3104		7.812500
3105		1.953125
3106		5.859375
3107		1.953125
3108		5.859375
3109		0.000000
3110		5.859375
3111		0.000000
3112		5.859375
3113		1.953125
3114		3.906250
3115		1.953125
3116		3.906250
3117		0.000000
3118		3.906250
3119		0.000000
3120		3.906250
3121		0.000000
3122		3.906250
3123		-1.953125
3124		3.906250
3125		-1.953125
3126		3.906250
3127		0.000000
3128		3.906250
3129		-1.953125
3130		3.906250
3131		0.000000
3132		1.953125
3133		0.000000
3134		1.953125
3135		-1.953125
3136		3.906250
3137		-1.953125
3138		3.906250
3139		-1.953125
3140		3.906250
3141		-1.953125
3142		3.906250
3143		-1.953125
3144		3.906250
3145		-1.953125
3146		3.906250
3147		0.000000
3148		1.953125
3149		0.000000
3150		1.953125
3151		0.000000
3152		1.953125
3153		0.000000
3154		1.953125
3155		0.000000
3156		1.953125
3157		0.000000
3158		3.906250
3159		0.000000
3160		3.906250
3161		1.953125
3162		3.906250
3163		0.000000
3164		3.906250
3165		1.953125
3166		3.906250
3167		1.953125
3168		3.906250
3169		1.953125
3170		3.906250
3171		1.953125
3172		5.859375
3173		3.906250
3174		5.859375
3175		3.906250
3176		5.859375
3177		3.906250
3178		5.859375
3179		3.906250
3180		7.812500
3181		5.859375
3182		7.812500
3183		5.859375
3184		7.812500
3185		5.859375
3186		7.812500
3187		5.859375
3188		7.812500
3189		5.859375
3190		7.812500
3191		7.812500
3192		9.765625
3193		7.812500
3194		9.765625
3195		7.812500
3196		9.765625
3197		7.812500
3198		11.718750
3199		9.765625
3200		11.718750
3201		9.765625
3202		11.718750
3203		9.765625
3204		11.718750
3205		9.765625
3206		11.718750
3207		9.765625
3208		13.671875
3209		11.718750
3210		13.671875
3211		11.718750
3212		13.671875
3213		11.718750
3214		15.625000
3215		11.718750
3216		15.625000
3217		13.671875
3218		15.625000
3219		13.671875
3220		15.625000
3221		13.671875
3222		15.625000
3223		13.671875
3224		15.625000
3225		13.671875
3226		17.578125
3227		15.625000
3228		17.578125
3229		15.625000
3230		17.578125
3231		15.625000
3232		17.578125
3233		15.625000
3234		17.578125
3235		15.625000
3236		19.531250
3237		15.625000
3238		19.531250
3239		17.578125
3240		19.531250
3241		17.578125
3242		19.531250
3243		17.578125
3244		19.531250
3245		17.578125
3246		19.531250
3247		17.578125
3248		19.531250
3249		17.578125
3250		19.531250
3251		15.625000
3252		23.437500
3253		15.625000
3254		23.437500
3255		15.625000
3256		23.437500
3257		15.625000
3258		23.437500
3259		17.578125
3260		21.484375
3261		17.578125
3262		21.484375
3263		17.578125
3264		21.484375
3265		17.578125
3266		21.484375
3267		17.578125
3268		21.484375
3269		15.625000
3270		23.437500
3271		15.625000
3272		23.437500
3273		15.625000
3274		23.437500
3275		17.578125
3276		19.531250
3277		17.578125
3278		19.531250
3279		17.578125
3280		19.531250
3281		17.578125
3282		19.531250
3283		17.578125
3284		19.531250
3285		13.671875
3286		21.484375
3287		13.671875
3288		23.437500
3289		11.718750
3290		23.437500
3291		15.625000
3292		19.531250
3293		15.625000
3294		17.578125
3295		15.625000
3296		17.578125
3297		15.625000
3298		17.578125
3299		15.625000
3300		17.578125
3301		11.718750
3302		19.531250
3303		11.718750
3304		21.484375
3305		9.765625
3306		19.531250
3307		9.765625
3308		19.531250
3309		13.671875
3310		15.625000
3311		13.671875
3312		15.625000
3313		11.718750
3314		13.671875
3315		11.718750
3316		13.671875
3317		11.718750
3318		13.671875
3319		7.812500
3320		17.578125
3321		7.812500
3322		15.625000
3323		5.859375
3324		15.625000
3325		9.765625
3326		11.718750
3327		9.765625
3328		11.718750
3329		7.812500
3330		11.718750
3331		7.812500
3332		9.765625
3333		7.812500
3334		9.765625
3335		3.906250
3336		11.718750
3337		3.906250
3338		13.671875
3339		1.953125
3340		11.718750
3341		1.953125
3342		11.718750
3343		5.859375
3344		7.812500
3345		5.859375
3346		7.812500
3347		3.906250
3348		7.812500
3349		3.906250
3350		5.859375
3351		3.906250
3352		5.859375
3353		0.000000
3354		11.718750
3355		0.000000
3356		9.765625
3357		0.000000
3358		9.765625
3359		1.953125
3360		3.906250
3361		1.953125
3362		3.906250
3363		1.953125
3364		3.906250
3365		1.953125
3366		3.906250
3367		1.953125
3368		3.906250
3369		-1.953125
3370		7.812500
3371		-1.953125
3372		5.859375
3373		-3.906250
3374		5.859375
3375		0.000000
3376		1.953125
3377		0.000000
3378		1.953125
3379		0.000000
3380		1.953125
3381		0.000000
3382		1.953125
3383		0.000000
3384		1.953125
3385		-3.906250
3386		5.859375
3387		-3.906250
3388		5.859375
3389		-1.953125
3390		5.859375
3391		-3.906250
3392		5.859375
3393		0.000000
3394		1.953125
3395		0.000000
3396		1.953125
3397		0.000000
3398		1.953125
3399		0.000000
3400		1.953125
3401		0.000000
3402		3.906250
3403		-3.906250
3404		7.812500
3405		-1.953125
3406		7.812500
3407		-1.953125
3408		7.812500
3409		1.953125
3410		3.906250
3411		1.953125
3412		3.906250
3413		1.953125
3414		3.906250
3415		1.953125
3416		3.906250
3417		1.953125
3418		3.906250
3419		0.000000
3420		7.812500
3421		-1.953125
3422		7.812500
3423		0.000000
3424		9.765625
3425		0.000000
3426		9.765625
3427		3.906250
3428		5.859375
3429		3.906250
3430		5.859375
3431		5.859375
3432		7.812500
3433		5.859375
3434		7.812500
3435		5.859375
3436		7.812500
3437		5.859375
3438		7.812500
3439		3.906250
3440		11.718750
3441		3.906250
3442		11.718750
3443		7.812500
3444		9.765625
3445		7.812500
3446		9.765625
3447		7.812500
3448		11.718750
3449		9.765625
3450		11.718750
3451		9.765625
3452		11.718750
3453		9.765625
3454		11.718750
3455		7.812500
3456		15.625000
3457		7.812500
3458		15.625000
3459		11.718750
3460		13.671875
3461		11.718750
3462		13.671875
3463		11.718750
3464		13.671875
3465		11.718750
3466		15.625000
3467		11.718750
3468		15.625000
3469		13.671875
3470		15.625000
3471		11.718750
3472		17.578125
3473		11.718750
3474		17.578125
3475		11.718750
3476		19.531250
3477		15.625000
3478		17.578125
3479		15.625000
3480		17.578125
3481		15.625000
3482		17.578125
3483		15.625000
3484		17.578125
3485		15.625000
3486		19.531250
3487		15.625000
3488		19.531250
3489		17.578125
3490		19.531250
3491		17.578125
3492		19.531250
3493		17.578125
3494		19.531250
3495		17.578125
3496		21.484375
3497		17.578125
3498		19.531250
3499		17.578125
3500		19.531250
3501		17.578125
3502		19.531250
3503		17.578125
3504		21.484375
3505		17.578125
3506		21.484375
3507		17.578125
3508		21.484375
3509		17.578125
3510		21.484375
3511		17.578125
3512		21.484375
3513		19.531250
3514		21.484375
3515		19.531250
3516		21.484375
3517		17.578125
3518		21.484375
3519		17.578125
3520		21.484375
3521		17.578125
3522		21.484375
3523		17.578125
3524		21.484375
3525		17.578125
3526		19.531250
3527		17.578125
3528		19.531250
3529		17.578125
3530		19.531250
3531		17.578125
3532		19.531250
3533		17.578125
3534		19.531250
3535		17.578125
3536		19.531250
3537		15.625000
3538		19.531250
3539		15.625000
3540		19.531250
3541		15.625000
3542		19.531250
3543		15.625000
3544		19.531250
3545		15.625000
3546		19.531250
3547		15.625000
3548		17.578125
3549		15.625000
3550		17.578125
3551		15.625000
3552		17.578125
3553		13.671875
3554		17.578125
3555		13.671875
3556		17.578125
3557		13.671875
3558		15.625000
3559		13.671875
3560		15.625000
3561		11.718750
3562		15.625000
3563		11.718750
3564		15.625000
3565		11.718750
3566		13.671875
3567		11.718750
3568		13.671875
3569		11.718750
3570		13.671875
3571		9.765625
3572		13.671875
3573		9.765625
3574		13.671875
3575		9.765625
3576		11.718750
3577		9.765625
3578		11.718750
3579		7.812500
3580		13.671875
3581		7.812500
3582		11.718750
3583		7.812500
3584		9.765625
3585		7.812500
3586		9.765625
3587		5.859375
3588		9.765625
3589		5.859375
3590		9.765625
3591		5.859375
3592		9.765625
3593		5.859375
3594		7.812500
3595		3.906250
3596		7.812500
3597		5.859375
3598		7.812500
3599		3.906250
3600		7.812500
3601		3.906250
3602		5.859375
3603		3.906250
3604		5.859375
3605		1.953125
3606		7.812500
3607		1.953125
3608		5.859375
3609		1.953125
3610		3.906250
3611		1.953125
3612		5.859375
3613		1.953125
3614		5.859375
3615		1.953125
3616		3.906250
3617		1.953125
3618		3.906250
3619		1.953125
3620		3.906250
3621		0.000000
3622		3.906250
3623		0.000000
3624		3.906250
3625		0.000000
3626		3.906250
3627		0.000000
3628		3.906250
3629		0.000000
3630		3.906250
3631		0.000000
3632		1.953125
3633		0.000000
3634		1.953125
3635		0.000000
3636		1.953125
3637		0.000000
3638		3.906250
3639		-1.953125
3640		3.906250
3641		0.000000
3642		1.953125
3643		0.000000
3644		1.953125
3645		0.000000
3646		3.906250
3647		0.000000
3648		1.953125
3649		0.000000
3650		3.906250
3651		0.000000
3652		1.953125
3653		0.000000
3654		1.953125
3655		0.000000
3656		3.906250
3657		0.000000
3658		3.906250
3659		0.000000
3660		3.906250
3661		1.953125
3662		3.906250
3663		0.000000
3664		3.906250
3665		1.953125
3666		3.906250
3667		1.953125
3668		3.906250
3669		1.953125
3670		3.906250
3671		0.000000
3672		7.812500
3673		1.953125
3674		5.859375
3675		1.953125
3676		5.859375
3677		3.906250
3678		5.859375
3679		3.906250
3680		7.812500
3681		3.906250
3682		7.812500
3683		3.906250
3684		7.812500
3685		5.859375
3686		7.812500
3687		5.859375
3688		7.812500
3689		3.906250
3690		9.765625
3691		5.859375
3692		9.765625
3693		7.812500
3694		9.765625
3695		7.812500
3696		11.718750
3697		7.812500
3698		11.718750
3699		9.765625
3700		11.718750
3701		9.765625
3702		11.718750
3703		9.765625
3704		11.718750
3705		9.765625
3706		13.671875
3707		9.765625
3708		13.671875
3709		11.718750
3710		13.671875
3711		11.718750
3712		13.671875
3713		11.718750
3714		15.625000
3715		11.718750
3716		13.671875
3717		11.718750
3718		15.625000
3719		13.671875
3720		15.625000
3721		13.671875
3722		15.625000
3723		13.671875
3724		15.625000
3725		13.671875
3726		17.578125
3727		15.625000
3728		17.578125
3729		13.671875
3730		17.578125
3731		15.625000
3732		17.578125
3733		15.625000
3734		17.578125
3735		15.625000
3736		19.531250
3737		17.578125
3738		19.531250
3739		17.578125
3740		19.531250
3741		17.578125
3742		19.531250
3743		17.578125
3744		19.531250
3745		17.578125
3746		19.531250
3747		17.578125
3748		19.531250
3749		17.578125
3750		19.531250
3751		17.578125
3752		19.531250
3753		17.578125
3754		21.484375
3755		17.578125
3756		21.484375
3757		19.531250
3758		21.484375
3759		19.531250
3760		21.484375
3761		19.531250
3762		21.484375
3763		17.578125
3764		21.484375
3765		19.531250
3766		21.484375
3767		19.531250
3768		21.484375
3769		17.578125
3770		21.484375
3771		19.531250
3772		21.484375
3773		17.578125
3774		21.484375
3775		17.578125
3776		21.484375
3777		17.578125
3778		19.531250
3779		17.578125
3780		19.531250
3781		17.578125
3782		19.531250
3783		17.578125
3784		19.531250
3785		17.578125
3786		19.531250
3787		17.578125
3788		19.531250
3789		17.578125
3790		19.531250
3791		17.578125
3792		19.531250
3793		17.578125
3794		19.531250
3795		15.625000
3796		17.578125
3797		15.625000
3798		17.578125
3799		15.625000
3800		19.531250
3801		15.625000
3802		17.578125
3803		15.625000
3804		17.578125
3805		13.671875
3806		17.578125
3807		13.671875
3808		15.625000
3809		13.671875
3810		15.625000
3811		13.671875
3812		15.625000
3813		13.671875
3814		15.625000
3815		11.718750
3816		15.625000
3817		11.718750
3818		13.671875
3819		11.718750
3820		13.671875
3821		9.765625
3822		13.671875
3823		9.765625
3824		13.671875
3825		9.765625
3826		11.718750
3827		9.765625
3828		11.718750
3829		9.765625
3830		11.718750
3831		7.812500
3832		11.718750
3833		7.812500
3834		11.718750
3835		7.812500
3836		9.765625
3837		7.812500
3838		9.765625
3839		5.859375
3840		9.765625
3841		5.859375
3842		9.765625
3843		5.859375
3844		7.812500
3845		5.859375
3846		7.812500
3847		5.859375
3848		7.812500
3849		5.859375
3850		7.812500
3851		3.906250
3852		5.859375
3853		3.906250
3854		5.859375
3855		3.906250
3856		5.859375
3857		1.953125
3858		7.812500
3859		3.906250
3860		5.859375
3861		1.953125
3862		3.906250
3863		1.953125
3864		3.906250
3865		1.953125
3866		3.906250
3867		0.000000
3868		3.906250
3869		1.953125
3870		3.906250
3871		1.953125
3872		3.906250
3873		0.000000
3874		5.859375
3875		0.000000
3876		3.906250
3877		0.000000
3878		3.906250
3879		0.000000
3880		3.906250
3881		0.000000
3882		1.953125
3883		0.000000
3884		1.953125
3885		0.000000
3886		1.953125
3887		0.000000
3888		1.953125
3889		-1.953125
3890		1.953125
3891		-1.953125
3892		3.906250
3893		-1.953125
3894		3.906250
3895		0.000000
3896		1.953125
3897		0.000000
3898		1.953125
3899		0.000000
3900		1.953125
3901		0.000000
3902		3.906250
3903		0.000000
3904		1.953125
3905		0.000000
3906		3.906250
3907		-1.953125
3908		5.859375
3909		0.000000
3910		3.906250
3911		0.000000
3912		3.906250
3913		1.953125
3914		3.906250
3915		1.953125
3916		3.906250
3917		1.953125
3918		3.906250
3919		1.953125
3920		5.859375
3921		3.906250
3922		5.859375
3923		1.953125
3924		7.812500
3925		1.953125
3926		7.812500
3927		3.906250
3928		7.812500
3929		3.906250
3930		5.859375
3931		3.906250
3932		7.812500
3933		5.859375
3934		7.812500
3935		5.859375
3936		7.812500
3937		5.859375
3938		7.812500
3939		5.859375
3940		7.812500
3941		3.906250
3942		11.718750
3943		5.859375
3944		11.718750
3945		7.812500
3946		9.765625
3947		7.812500
3948		9.765625
3949		9.765625
3950		11.718750
3951		9.765625
3952		11.718750
3953		9.765625
3954		11.718750
3955		9.765625
3956		11.718750
3957		7.812500
3958		13.671875
3959		9.765625
3960		15.625000
3961		11.718750
3962		13.671875
3963		11.718750
3964		13.671875
3965		11.718750
3966		15.625000
3967		13.671875
3968		15.625000
3969		11.718750
3970		15.625000
3971		13.671875
3972		15.625000
3973		13.671875
3974		15.625000
3975		11.718750
3976		17.578125
3977		13.671875
3978		19.531250
3979		15.625000
3980		17.578125
3981		15.625000
3982		17.578125
3983		15.625000
3984		17.578125
3985		15.625000
3986		19.531250
3987		17.578125
3988		19.531250
3989		17.578125
3990		19.531250
3991		15.625000
3992		21.484375
3993		15.625000
3994		21.484375
3995		17.578125
3996		19.531250
3997		17.578125
3998		19.531250
3999		17.578125
4000		19.531250
4001		17.578125
4002		21.484375
4003		17.578125
4004		21.484375
4005		17.578125
4006		21.484375
4007		17.578125
4008		23.437500
4009		17.578125
4010		23.437500
4011		17.578125
4012		21.484375
4013		17.578125
4014		21.484375
4015		19.531250
4016		21.484375
4017		19.531250
4018		21.484375
4019		19.531250
4020		21.484375
4021		19.531250
4022		21.484375
4023		19.531250
4024		21.484375
4025		17.578125
4026		23.437500
4027		17.578125
4028		23.437500
4029		17.578125
4030		21.484375
4031		17.578125
4032		21.484375
4033		17.578125
4034		19.531250
4035		17.578125
4036		19.531250
4037		17.578125
4038		19.531250
4039		17.578125
4040		19.531250
4041		15.625000
4042		21.484375
4043		15.625000
4044		21.484375
4045		15.625000
4046		19.531250
4047		15.625000
4048		19.531250
4049		15.625000
4050		17.578125
4051		15.625000
4052		17.578125
4053		15.625000
4054		17.578125
4055		15.625000
4056		17.578125
4057		13.671875
4058		17.578125
4059		13.671875
4060		17.578125
4061		13.671875
4062		15.625000
4063		13.671875
4064		15.625000
4065		13.671875
4066		15.625000
4067		11.718750
4068		15.625000
4069		11.718750
4070		13.671875
4071		11.718750
4072		13.671875
4073		11.718750
4074		13.671875
4075		9.765625
4076		13.671875
4077		9.765625
4078		11.718750
4079		9.765625
4080		11.718750
4081		7.812500
4082		11.718750
4083		9.765625
4084		11.718750
4085		7.812500
4086		9.765625
4087		7.812500
4088		9.765625
4089		7.812500
4090		9.765625
4091		5.859375
4092		9.765625
4093		5.859375
4094		7.812500
4095		5.859375
4096		7.812500
4097		5.859375
4098		7.812500
4099		5.859375
4100		7.812500
4101		3.906250
4102		7.812500
4103		3.906250
4104		5.859375
4105		3.906250
4106		5.859375
4107		3.906250
4108		5.859375
4109		3.906250
4110		5.859375
4111		1.953125
4112		5.859375
4113		1.953125
4114		5.859375
4115		1.953125
4116		3.906250
4117		1.953125
4118		3.906250
4119		1.953125
4120		3.906250
4121		1.953125
4122		3.906250
4123		1.953125
4124		3.906250
4125		1.953125
4126		3.906250
4127		0.000000
4128		3.906250
4129		0.000000
4130		3.906250
4131		0.000000
4132		1.953125
4133		0.000000
4134		1.953125
4135		0.000000
4136		1.953125
4137		0.000000
4138		1.953125
4139		0.000000
4140		1.953125
4141		0.000000
4142		1.953125
4143		0.000000
4144		1.953125
4145		0.000000
4146		1.953125
4147		0.000000
4148		3.906250
4149		0.000000
4150		1.953125
4151		0.000000
4152		1.953125
4153		0.000000
4154		3.906250
4155		1.953125
4156		3.906250
4157		1.953125
4158		3.906250
4159		0.000000
4160		3.906250
4161		1.953125
4162		3.906250
4163		1.953125
4164		3.906250
4165		1.953125
4166		3.906250
4167		1.953125
4168		3.906250
4169		1.953125
4170		5.859375
4171		3.906250
4172		5.859375
4173		3.906250
4174		5.859375
4175		3.906250
4176		5.859375
4177		3.906250
4178		5.859375
4179		3.906250
4180		5.859375
4181		3.906250
4182		7.812500
4183		5.859375
4184		7.812500
4185		5.859375
4186		7.812500
4187		5.859375
4188		7.812500
4189		5.859375
4190		7.812500
4191		5.859375
4192		9.765625
4193		7.812500
4194		9.765625
4195		7.812500
4196		9.765625
4197		7.812500
4198		9.765625
4199		7.812500
4200		11.718750
4201		9.765625
4202		11.718750
4203		9.765625
4204		11.718750
4205		9.765625
4206		11.718750
4207		9.765625
4208		13.671875
4209		9.765625
4210		13.671875
4211		11.718750
4212		13.671875
4213		11.718750
4214		13.671875
4215		11.718750
4216		15.625000
4217		13.671875
4218		15.625000
4219		13.671875
4220		15.625000
4221		13.671875
4222		15.625000
4223		13.671875
4224		15.625000
4225		13.671875
4226		17.578125
4227		15.625000
4228		17.578125
4229		15.625000
4230		17.578125
4231		15.625000
4232		17.578125
4233		15.625000
4234		17.578125
4235		15.625000
4236		19.531250
4237		15.625000
4238		19.531250
4239		17.578125
4240		19.531250
4241		17.578125
4242		19.531250
4243		17.578125
4244		19.531250
4245		17.578125
4246		19.531250
4247		17.578125
4248		21.484375
4249		17.578125
4250		19.531250
4251		17.578125
4252		19.531250
4253		17.578125
4254		21.484375
4255		17.578125
4256		21.484375
4257		17.578125
4258		21.484375
4259		19.531250
4260		21.484375
4261		19.531250
4262		21.484375
4263		19.531250
4264		21.484375
4265		19.531250
4266		21.484375
4267		19.531250
4268		21.484375
4269		19.531250
4270		23.437500
4271		19.531250
4272		21.484375
4273		19.531250
4274		21.484375
4275		19.531250
4276		21.484375
4277		19.531250
4278		21.484375
4279		17.578125
4280		21.484375
4281		17.578125
4282		21.484375
4283		17.578125
4284		19.531250
4285		17.578125
4286		19.531250
4287		17.578125
4288		19.531250
4289		17.578125
4290		19.531250
4291		17.578125
4292		19.531250
4293		17.578125
4294		19.531250
4295		17.578125
4296		19.531250
4297		15.625000
4298		19.531250
4299		15.625000
4300		19.531250
4301		15.625000
4302		17.578125
4303		15.625000
4304		17.578125
4305		15.625000
4306		17.578125
4307		15.625000
4308		17.578125
4309		13.671875
4310		17.578125
4311		13.671875
4312		15.625000
4313		13.671875
4314		15.625000
4315		13.671875
4316		15.625000
4317		13.671875
4318		15.625000
4319		11.718750
4320		13.671875
4321		11.718750
4322		13.671875
4323		11.718750
4324		13.671875
4325		11.718750
4326		13.671875
4327		9.765625
4328		11.718750
4329		9.765625
4330		11.718750
4331		9.765625
4332		11.718750
4333		9.765625
4334		11.718750
4335		7.812500
4336		11.718750
4337		7.812500
4338		9.765625
4339		7.812500
4340		9.765625
4341		7.812500
4342		9.765625
4343		5.859375
4344		9.765625
4345		5.859375
4346		7.812500
4347		5.859375
4348		7.812500
4349		5.859375
4350		7.812500
4351		5.859375
4352		7.812500
4353		3.906250
4354		7.812500
4355		3.906250
4356		5.859375
4357		3.906250
4358		5.859375
4359		3.906250
4360		5.859375
4361		3.906250
4362		5.859375
4363		3.906250
4364		5.859375
4365		1.953125
4366		3.906250
4367		1.953125
4368		3.906250
4369		1.953125
4370		5.859375
4371		1.953125
4372		3.906250
4373		1.953125
4374		3.906250
4375		1.953125
4376		3.906250
4377		1.953125
4378		3.906250
4379		0.000000
4380		3.906250
4381		0.000000
4382		3.906250
4383		0.000000
4384		1.953125
4385		0.000000
4386		3.906250
4387		0.000000
4388		1.953125
4389		0.000000
4390		3.906250
4391		0.000000
4392		1.953125
4393		0.000000
4394		1.953125
4395		0.000000
4396		1.953125
4397		0.000000
4398		1.953125
4399		0.000000
4400		1.953125
4401		0.000000
4402		3.906250
4403		0.000000
4404		3.906250
4405		1.953125
4406		3.906250
4407		1.953125
4408		3.906250
4409		1.953125
4410		3.906250
4411		1.953125
4412		3.906250
4413		1.953125
4414		3.906250
4415		1.953125
4416		3.906250
4417		1.953125
4418		3.906250
4419		1.953125
4420		5.859375
4421		3.906250
4422		5.859375
4423		3.906250
4424		5.859375
4425		3.906250
4426		5.859375
4427		3.906250
4428		5.859375
4429		3.906250
4430		5.859375
4431		5.859375
4432		7.812500
4433		5.859375
4434		7.812500
4435		5.859375
4436		7.812500
4437		5.859375
4438		7.812500
4439		5.859375
4440		9.765625
4441		5.859375
4442		9.765625
4443		7.812500
4444		9.765625
4445		7.812500
4446		9.765625
4447		7.812500
4448		11.718750
4449		9.765625
4450		11.718750
4451		9.765625
4452		11.718750
4453		9.765625
4454		11.718750
4455		9.765625
4456		11.718750
4457		9.765625
4458		13.671875
4459		9.765625
4460		13.671875
4461		11.718750
4462		13.671875
4463		11.718750
4464		13.671875
4465		11.718750
4466		13.671875
4467		11.718750
4468		15.625000
4469		13.671875
4470		15.625000
4471		13.671875
4472		15.625000
4473		13.671875
4474		15.625000
4475		13.671875
4476		17.578125
4477		15.625000
4478		17.578125
4479		15.625000
4480		17.578125
4481		15.625000
4482		17.578125
4483		15.625000
4484		17.578125
4485		15.625000
4486		19.531250
4487		15.625000
4488		19.531250
4489		17.578125
4490		19.531250
4491		17.578125
4492		19.531250
4493		17.578125
4494		19.531250
4495		17.578125
4496		19.531250
4497		17.578125
4498		19.531250
4499		17.578125
4500		21.484375
4501		17.578125
4502		21.484375
4503		19.531250
4504		21.484375
4505		19.531250
4506		21.484375
4507		19.531250
4508		21.484375
4509		19.531250
4510		21.484375
4511		19.531250
4512		21.484375
4513		19.531250
4514		21.484375
4515		19.531250
4516		21.484375
4517		19.531250
4518		21.484375
4519		19.531250
4520		21.484375
4521		19.531250
4522		21.484375
4523		19.531250
4524		21.484375
4525		19.531250
4526		21.484375
4527		19.531250
4528		21.484375
4529		19.531250
4530		21.484375
4531		19.531250
4532		21.484375
4533		17.578125
4534		21.484375
4535		17.578125
4536		21.484375
4537		17.578125
4538		19.531250
4539		17.578125
4540		19.531250
4541		17.578125
4542		19.531250
4543		17.578125
4544		19.531250
4545		17.578125
4546		19.531250
4547		17.578125
4548		19.531250
4549		15.625000
4550		19.531250
4551		15.625000
4552		17.578125
4553		15.625000
4554		17.578125
4555		15.625000
4556		17.578125
4557		15.625000
4558		17.578125
4559		15.625000
4560		17.578125
4561		13.671875
4562		17.578125
4563		13.671875
4564		15.625000
4565		13.671875
4566		15.625000
4567		13.671875
4568		15.625000
4569		11.718750
4570		15.625000
4571		11.718750
4572		13.671875
4573		11.718750
4574		13.671875
4575		11.718750
4576		13.671875
4577		11.718750
4578		13.671875
4579		9.765625
4580		13.671875
4581		9.765625
4582		11.718750
4583		9.765625
4584		11.718750
4585		9.765625
4586		11.718750
4587		7.812500
4588		11.718750
4589		7.812500
4590		11.718750
4591		7.812500
4592		9.765625
4593		7.812500
4594		9.765625
4595		5.859375
4596		9.765625
4597		5.859375
4598		7.812500
4599		5.859375
4600		7.812500
4601		5.859375
4602		7.812500
4603		5.859375
4604		7.812500
4605		3.906250
4606		5.859375
4607		3.906250
4608		5.859375
4609		3.906250
4610		7.812500
4611		3.906250
4612		5.859375
4613		3.906250
4614		5.859375
4615		3.906250
4616		5.859375
4617		1.953125
4618		5.859375
4619		1.953125
4620		3.906250
4621		1.953125
4622		3.906250
4623		1.953125
4624		3.906250
4625		1.953125
4626		3.906250
4627		1.953125
4628		3.906250
4629		1.953125
4630		3.906250
4631		1.953125
4632		3.906250
4633		1.953125
4634		3.906250
4635		1.953125
4636		3.906250
4637		0.000000
4638		3.906250
4639		0.000000
4640		3.906250
4641		0.000000
4642		3.906250
4643		0.000000
4644		3.906250
4645		0.000000
4646		1.953125
4647		1.953125
4648		3.906250
4649		1.953125
4650		3.906250
4651		0.000000
4652		3.906250
4653		0.000000
4654		3.906250
4655		1.953125
4656		3.906250
4657		1.953125
4658		3.906250
4659		1.953125
4660		3.906250
4661		1.953125
4662		3.906250
4663		1.953125
4664		3.906250
4665		1.953125
4666		3.906250
4667		1.953125
4668		3.906250
4669		1.953125
4670		5.859375
4671		3.906250
4672		5.859375
4673		3.906250
4674		5.859375
4675		3.906250
4676		5.859375
4677		3.906250
4678		5.859375
4679		3.906250
4680		7.812500
4681		5.859375
4682		7.812500
4683		5.859375
4684		7.812500
4685		5.859375
4686		7.812500
4687		5.859375
4688		7.812500
4689		5.859375
4690		7.812500
4691		7.812500
4692		9.765625
4693		7.812500
4694		9.765625
4695		7.812500
4696		9.765625
4697		7.812500
4698		11.718750
4699		9.765625
4700		11.718750
4701		9.765625
4702		11.718750
4703		9.765625
4704		11.718750
4705		9.765625
4706		11.718750
4707		9.765625
4708		13.671875
4709		11.718750
4710		13.671875
4711		11.718750
4712		13.671875
4713		11.718750
4714		13.671875
4715		11.718750
4716		15.625000
4717		13.671875
4718		15.625000
4719		11.718750
4720		15.625000
4721		13.671875
4722		15.625000
4723		13.671875
4724		15.625000
4725		13.671875
4726		17.578125
4727		15.625000
4728		17.578125
4729		15.625000
4730		17.578125
4731		15.625000
4732		17.578125
4733		15.625000
4734		17.578125
4735		17.578125
4736		19.531250
4737		17.578125
4738		19.531250
4739		17.578125
4740		19.531250
4741		17.578125
4742		19.531250
4743		17.578125
4744		19.531250
4745		17.578125
4746		19.531250
4747		17.578125
4748		21.484375
4749		17.578125
4750		21.484375
4751		19.531250
4752		21.484375
4753		19.531250
4754		21.484375
4755		19.531250
4756		21.484375
4757		19.531250
4758		21.484375
4759		19.531250
4760		21.484375
4761		19.531250
4762		21.484375
4763		19.531250
4764		21.484375
4765		19.531250
4766		21.484375
4767		19.531250
4768		21.484375
4769		19.531250
4770		21.484375
4771		19.531250
4772		21.484375
4773		19.531250
4774		21.484375
4775		19.531250
4776		21.484375
4777		19.531250
4778		21.484375
4779		19.531250
4780		21.484375
4781		19.531250
4782		21.484375
4783		17.578125
4784		21.484375
4785		19.531250
4786		21.484375
4787		19.531250
4788		21.484375
4789		17.578125
4790		21.484375
4791		17.578125
4792		19.531250
4793		17.578125
4794		19.531250
4795		17.578125
4796		19.531250
4797		17.578125
4798		19.531250
4799		17.578125
4800		19.531250
4801		17.578125
4802		19.531250
4803		15.625000
4804		19.531250
4805		15.625000
4806		19.531250
4807		15.625000
4808		17.578125
4809		15.625000
4810		17.578125
4811		15.625000
4812		17.578125
4813		13.671875
4814		17.578125
4815		13.671875
4816		17.578125
4817		13.671875
4818		15.625000
4819		13.671875
4820		15.625000
4821		11.718750
4822		15.625000
4823		11.718750
4824		13.671875
4825		11.718750
4826		13.671875
4827		11.718750
4828		13.671875
4829		11.718750
4830		13.671875
4831		9.765625
4832		11.718750
4833		9.765625
4834		11.718750
4835		9.765625
4836		11.718750
4837		9.765625
4838		11.718750
4839		7.812500
4840		11.718750
4841		7.812500
4842		9.765625
4843		7.812500
4844		9.765625
4845		7.812500
4846		9.765625
4847		5.859375
4848		9.765625
4849		5.859375
4850		9.765625
4851		5.859375
4852		7.812500
4853		5.859375
4854		7.812500
4855		5.859375
4856		7.812500
4857		3.906250
4858		7.812500
4859		3.906250
4860		5.859375
4861		3.906250
4862		5.859375
4863		3.906250
4864		5.859375
4865		3.906250
4866		5.859375
4867		1.953125
4868		5.859375
4869		1.953125
4870		5.859375
4871		1.953125
4872		5.859375
4873		1.953125
4874		3.906250
4875		1.953125
4876		3.906250
4877		1.953125
4878		3.906250
4879		1.953125
4880		3.906250
4881		1.953125
4882		3.906250
4883		0.000000
4884		3.906250
4885		1.953125
4886		3.906250
4887		1.953125
4888		3.906250
4889		1.953125
4890		3.906250
4891		1.953125
4892		3.906250
4893		1.953125
4894		3.906250
4895		1.953125
4896		3.906250
4897		0.000000
4898		3.906250
4899		0.000000
4900		3.906250
4901		0.000000
4902		3.906250
4903		0.000000
4904		5.859375
4905		1.953125
4906		3.906250
4907		0.000000
4908		5.859375
4909		1.953125
4910		3.906250
4911		1.953125
4912		3.906250
4913		1.953125
4914		3.906250
4915		1.953125
4916		3.906250
4917		1.953125
4918		5.859375
4919		1.953125
4920		7.812500
4921		1.953125
4922		5.859375
4923		1.953125
4924		7.812500
4925		1.953125
4926		7.812500
4927		1.953125
4928		9.765625
4929		3.906250
4930		7.812500
4931		5.859375
4932		7.812500
4933		5.859375
4934		7.812500
4935		5.859375
4936		7.812500
4937		3.906250
4938		9.765625
4939		5.859375
4940		9.765625
4941		3.906250
4942		11.718750
4943		7.812500
4944		9.765625
4945		5.859375
4946		13.671875
4947		7.812500
4948		11.718750
4949		7.812500
4950		11.718750
4951		7.812500
4952		11.718750
4953		7.812500
4954		13.671875
4955		9.765625
4956		13.671875
4957		9.765625
4958		15.625000
4959		11.718750
4960		13.671875
4961		9.765625
4962		17.578125
4963		11.718750
4964		13.671875
4965		11.718750
4966		15.625000
4967		11.718750
4968		17.578125
4969		9.765625
4970		17.578125
4971		13.671875
4972		17.578125
4973		13.671875
4974		17.578125
4975		13.671875
4976		17.578125
4977		13.671875
4978		19.531250
4979		15.625000
4980		17.578125
4981		15.625000
4982		17.578125
4983		15.625000
4984		19.531250
4985		13.671875
4986		21.484375
4987		13.671875
4988		21.484375
4989		15.625000
4990		19.531250
4991		13.671875
4992		23.437500
4993		15.625000
4994		23.437500
4995		13.671875
4996		23.437500
4997		17.578125
4998		21.484375
4999		17.578125
5000		21.484375
5001		17.578125
5002		23.437500
5003		17.578125
5004		23.437500
5005		17.578125
5006		21.484375
5007		17.578125
5008		21.484375
5009		17.578125
5010		25.390625
5011		17.578125
5012		25.390625
5013		19.531250
5014		21.484375
5015		19.531250
5016		21.484375
5017		17.578125
5018		23.437500
5019		15.625000
5020		25.390625
5021		17.578125
5022		23.437500
5023		19.531250
5024		21.484375
5025		17.578125
5026		25.390625
5027		19.531250
5028		21.484375
5029		15.625000
5030		25.390625
5031		19.531250
5032		21.484375
5033		17.578125
5034		21.484375
5035		15.625000
5036		25.390625
5037		17.578125
5038		23.437500
5039		17.578125
5040		21.484375
5041		15.625000
5042		23.437500
5043		13.671875
5044		25.390625
5045		15.625000
5046		23.437500
5047		17.578125
5048		19.531250
5049		15.625000
5050		19.531250
5051		15.625000
5052		21.484375
5053		13.671875
5054		21.484375
5055		15.625000
5056		17.578125
5057		15.625000
5058		17.578125
5059		11.718750
5060		21.484375
5061		11.718750
5062		19.531250
5063		13.671875
5064		17.578125
5065		13.671875
5066		17.578125
5067		13.671875
5068		17.578125
5069		9.765625
5070		19.531250
5071		9.765625
5072		17.578125
5073		11.718750
5074		15.625000
5075		9.765625
5076		17.578125
5077		7.812500
5078		19.531250
5079		5.859375
5080		17.578125
5081		9.765625
5082		13.671875
5083		9.765625
5084		13.671875
5085		7.812500
5086		15.625000
5087		5.859375
5088		15.625000
5089		7.812500
5090		11.718750
5091		7.812500
5092		11.718750
5093		3.906250
5094		13.671875
5095		3.906250
5096		11.718750
5097		7.812500
5098		9.765625
5099		5.859375
5100		9.765625
5101		5.859375
5102		9.765625
5103		3.906250
5104		11.718750
5105		3.906250
5106		9.765625
5107		5.859375
5108		7.812500
5109		1.953125
5110		9.765625
5111		1.953125
5112		9.765625
5113		1.953125
5114		7.812500
5115		3.906250
5116		5.859375
5117		1.953125
5118		5.859375
5119		0.000000
5120		7.812500
5121		0.000000
5122		5.859375
5123		1.953125
5124		3.906250
5125		0.000000
5126		7.812500
5127		-1.953125
5128		7.812500
5129		0.000000
5130		5.859375
5131		1.953125
5132		3.906250
5133		0.000000
5134		3.906250
5135		0.000000
5136		5.859375
5137		-1.953125
5138		7.812500
5139		0.000000
5140		3.906250
5141		0.000000
5142		3.906250
5143		-1.953125
5144		5.859375
5145		-1.953125
5146		7.812500
5147		0.000000
5148		3.906250
5149		1.953125
5150		3.906250
5151		0.000000
5152		3.906250
5153		-1.953125
5154		5.859375
5155		0.000000
5156		5.859375
5157		1.953125
5158		3.906250
5159		-1.953125
5160		7.812500
5161		-1.953125
5162		7.812500
5163		0.000000
5164		7.812500
5165		1.953125
5166		3.906250
5167		1.953125
5168		5.859375
5169		1.953125
5170		7.812500
5171		0.000000
5172		7.812500
5173		3.906250
5174		5.859375
5175		1.953125
5176		7.812500
5177		1.953125
5178		7.812500
5179		1.953125
5180		9.765625
5181		5.859375
5182		7.812500
5183		5.859375
5184		7.812500
5185		5.859375
5186		7.812500
5187		1.953125
5188		11.718750
5189		3.906250
5190		9.765625
5191		5.859375
5192		9.765625
5193		5.859375
5194		11.718750
5195		7.812500
5196		9.765625
5197		7.812500
5198		11.718750
5199		7.812500
5200		11.718750
5201		9.765625
5202		11.718750
5203		9.765625
5204		11.718750
5205		7.812500
5206		13.671875
5207		9.765625
5208		13.671875
5209		9.765625
5210		13.671875
5211		11.718750
5212		13.671875
5213		11.718750
5214		13.671875
5215		11.718750
5216		15.625000
5217		13.671875
5218		15.625000
5219		13.671875
5220		15.625000
5221		13.671875
5222		15.625000
5223		13.671875
5224		15.625000
5225		13.671875
5226		17.578125
5227		15.625000
5228		17.578125
5229		15.625000
5230		17.578125
5231		15.625000
5232		17.578125
5233		15.625000
5234		19.531250
5235		15.625000
5236		19.531250
5237		17.578125
5238		19.531250
5239		17.578125
5240		19.531250
5241		15.625000
5242		21.484375
5243		17.578125
5244		19.531250
5245		17.578125
5246		19.531250
5247		17.578125
5248		21.484375
5249		17.578125
5250		21.484375
5251		17.578125
5252		21.484375
5253		17.578125
5254		23.437500
5255		17.578125
5256		23.437500
5257		17.578125
5258		23.437500
5259		17.578125
5260		23.437500
5261		17.578125
5262		23.437500
5263		17.578125
5264		23.437500
5265		19.531250
5266		21.484375
5267		19.531250
5268		21.484375
5269		19.531250
5270		23.437500
5271		19.531250
5272		23.437500
5273		17.578125
5274		23.437500
5275		17.578125
5276		23.437500
5277		17.578125
5278		23.437500
5279		19.531250
5280		23.437500
5281		17.578125
5282		23.437500
5283		19.531250
5284		21.484375
5285		17.578125
5286		21.484375
5287		17.578125
5288		21.484375
5289		17.578125
5290		21.484375
5291		17.578125
5292		23.437500
5293		17.578125
5294		21.484375
5295		17.578125
5296		21.484375
5297		15.625000
5298		21.484375
5299		17.578125
5300		19.531250
5301		17.578125
5302		19.531250
5303		15.625000
5304		21.484375
5305		15.625000
5306		19.531250
5307		15.625000
5308		19.531250
5309		13.671875
5310		19.531250
5311		13.671875
5312		19.531250
5313		13.671875
5314		19.531250
5315		13.671875
5316		17.578125
5317		13.671875
5318		15.625000
5319		11.718750
5320		17.578125
5321		11.718750
5322		15.625000
5323		11.718750
5324		15.625000
5325		9.765625
5326		15.625000
5327		11.718750
5328		15.625000
5329		9.765625
5330		15.625000
5331		9.765625
5332		13.671875
5333		9.765625
5334		13.671875
5335		9.765625
5336		13.671875
5337		7.812500
5338		13.671875
5339		7.812500
5340		11.718750
5341		5.859375
5342		11.718750
5343		7.812500
5344		11.718750
5345		5.859375
5346		11.718750
5347		5.859375
5348		9.765625
5349		7.812500
5350		9.765625
5351		5.859375
5352		7.812500
5353		5.859375
5354		9.765625
5355		5.859375
5356		9.765625
5357		3.906250
5358		7.812500
5359		3.906250
5360		9.765625
5361		3.906250
5362		7.812500
5363		1.953125
5364		7.812500
5365		3.906250
5366		7.812500
5367		3.906250
5368		5.859375
5369		1.953125
5370		5.859375
5371		1.953125
5372		5.859375
5373		1.953125
5374		5.859375
5375		0.000000
5376		5.859375
5377		1.953125
5378		5.859375
5379		1.953125
5380		3.906250
5381		1.953125
5382		5.859375
5383		1.953125
5384		3.906250
5385		1.953125
5386		3.906250
5387		0.000000
5388		3.906250
5389		0.000000
5390		3.906250
5391		0.000000
5392		3.906250
5393		0.000000
5394		5.859375
5395		0.000000
5396		3.906250
5397		0.000000
5398		3.906250
5399		0.000000
5400		3.906250
5401		1.953125
5402		3.906250
5403		0.000000
5404		3.906250
5405		1.953125
5406		3.906250
5407		1.953125
5408		3.906250
5409		0.000000
5410		5.859375
5411		1.953125
5412		5.859375
5413		1.953125
5414		5.859375
5415		0.000000
5416		5.859375
5417		1.953125
5418		5.859375
5419		1.953125
5420		5.859375
5421		1.953125
5422		5.859375
5423		1.953125
5424		5.859375
5425		1.953125
5426		7.812500
5427		3.906250
5428		7.812500
5429		3.906250
5430		7.812500
5431		3.906250
5432		7.812500
5433		5.859375
5434		7.812500
5435		5.859375
5436		7.812500
5437		5.859375
5438		9.765625
5439		5.859375
5440		9.765625
5441		5.859375
5442		9.765625
5443		5.859375
5444		9.765625
5445		7.812500
5446		9.765625
5447		7.812500
5448		11.718750
5449		7.812500
5450		11.718750
5451		9.765625
5452		11.718750
5453		9.765625
5454		11.718750
5455		9.765625
5456		13.671875
5457		9.765625
5458		13.671875
5459		9.765625
5460		15.625000
5461		9.765625
5462		13.671875
5463		11.718750
5464		13.671875
5465		11.718750
5466		15.625000
5467		13.671875
5468		15.625000
5469		13.671875
5470		15.625000
5471		11.718750
5472		17.578125
5473		13.671875
5474		17.578125
5475		13.671875
5476		17.578125
5477		13.671875
5478		17.578125
5479		13.671875
5480		17.578125
5481		15.625000
5482		17.578125
5483		13.671875
5484		19.531250
5485		15.625000
5486		19.531250
5487		15.625000
5488		19.531250
5489		15.625000
5490		19.531250
5491		17.578125
5492		19.531250
5493		15.625000
5494		21.484375
5495		17.578125
5496		21.484375
5497		17.578125
5498		21.484375
5499		17.578125
5500		21.484375
5501		19.531250
5502		21.484375
5503		19.531250
5504		21.484375
5505		19.531250
5506		21.484375
5507		19.531250
5508		21.484375
5509		19.531250
5510		21.484375
5511		19.531250
5512		21.484375
5513		19.531250
5514		21.484375
5515		19.531250
5516		21.484375
5517		19.531250
5518		23.437500
5519		19.531250
5520		21.484375
5521		17.578125
5522		23.437500
5523		19.531250
5524		21.484375
5525		19.531250
5526		23.437500
5527		19.531250
5528		21.484375
5529		19.531250
5530		21.484375
5531		19.531250
5532		21.484375
5533		19.531250
5534		21.484375
5535		19.531250
5536		21.484375
5537		17.578125
5538		23.437500
5539		17.578125
5540		21.484375
5541		17.578125
5542		21.484375
5543		17.578125
5544		21.484375
5545		17.578125
5546		21.484375
5547		17.578125
5548		21.484375
5549		17.578125
5550		19.531250
5551		17.578125
5552		19.531250
5553		17.578125
5554		19.531250
5555		15.625000
5556		19.531250
5557		15.625000
5558		19.531250
5559		15.625000
5560		17.578125
5561		15.625000
5562		17.578125
5563		15.625000
5564		17.578125
5565		13.671875
5566		17.578125
5567		13.671875
5568		17.578125
5569		13.671875
5570		15.625000
5571		13.671875
5572		15.625000
5573		11.718750
5574		15.625000
5575		11.718750
5576		15.625000
5577		11.718750
5578		15.625000
5579		11.718750
5580		13.671875
5581		9.765625
5582		13.671875
5583		9.765625
5584		13.671875
5585		9.765625
5586		11.718750
5587		9.765625
5588		11.718750
5589		7.812500
5590		11.718750
5591		7.812500
5592		11.718750
5593		7.812500
5594		11.718750
5595		7.812500
5596		11.718750
5597		5.859375
5598		9.765625
5599		5.859375
5600		9.765625
5601		5.859375
5602		9.765625
5603		5.859375
5604		7.812500
5605		3.906250
5606		7.812500
5607		3.906250
5608		7.812500
5609		3.906250
5610		7.812500
5611		3.906250
5612		7.812500
5613		3.906250
5614		5.859375
5615		3.906250
5616		5.859375
5617		1.953125
5618		5.859375
5619		3.906250
5620		5.859375
5621		1.953125
5622		5.859375
5623		1.953125
5624		5.859375
5625		1.953125
5626		5.859375
5627		1.953125
5628		5.859375
5629		1.953125
5630		3.906250
5631		1.953125
5632		3.906250
5633		0.000000
5634		3.906250
5635		1.953125
5636		3.906250
5637		1.953125
5638		3.906250
5639		0.000000
5640		3.906250
5641		0.000000
5642		3.906250
5643		0.000000
5644		3.906250
5645		1.953125
5646		3.906250
5647		0.000000
5648		3.906250
5649		0.000000
5650		3.906250
5651		0.000000
5652		3.906250
5653		1.953125
5654		3.906250
5655		0.000000
5656		3.906250
5657		1.953125
5658		3.906250
5659		1.953125
5660		3.906250
5661		1.953125
5662		3.906250
5663		1.953125
5664		3.906250
5665		1.953125
5666		5.859375
5667		1.953125
5668		5.859375
5669		1.953125
5670		5.859375
5671		3.906250
5672		5.859375
5673		1.953125
5674		5.859375
5675		3.906250
5676		5.859375
5677		3.906250
5678		7.812500
5679		3.906250
5680		7.812500
5681		3.906250
5682		7.812500
5683		3.906250
5684		7.812500
5685		3.906250
5686		7.812500
5687		5.859375
5688		7.812500
5689		5.859375
5690		9.765625
5691		5.859375
5692		9.765625
5693		5.859375
5694		9.765625
5695		5.859375
5696		11.718750
5697		7.812500
5698		11.718750
5699		7.812500
5700		11.718750
5701		7.812500
5702		11.718750
5703		9.765625
5704		11.718750
5705		9.765625
5706		13.671875
5707		9.765625
5708		13.671875
5709		9.765625
5710		13.671875
5711		9.765625
5712		13.671875
5713		9.765625
5714		13.671875
5715		11.718750
5716		15.625000
5717		11.718750
5718		15.625000
5719		13.671875
5720		15.625000
5721		13.671875
5722		15.625000
5723		13.671875
5724		17.578125
5725		13.671875
5726		17.578125
5727		13.671875
5728		17.578125
5729		15.625000
5730		17.578125
5731		15.625000
5732		17.578125
5733		15.625000
5734		19.531250
5735		15.625000
5736		19.531250
5737		17.578125
5738		19.531250
5739		15.625000
5740		21.484375
5741		15.625000
5742		21.484375
5743		17.578125
5744		21.484375
5745		17.578125
5746		21.484375
5747		17.578125
5748		21.484375
5749		17.578125
5750		21.484375
5751		17.578125
5752		21.484375
5753		19.531250
5754		21.484375
5755		19.531250
5756		21.484375
5757		19.531250
5758		21.484375
5759		19.531250
5760		21.484375
5761		19.531250
5762		21.484375
5763		19.531250
5764		23.437500
5765		19.531250
5766		23.437500
5767		19.531250
5768		21.484375
5769		19.531250
5770		23.437500
5771		19.531250
5772		21.484375
5773		19.531250
5774		23.437500
5775		19.531250
5776		23.437500
5777		19.531250
5778		21.484375
5779		19.531250
5780		23.437500
5781		19.531250
5782		21.484375
5783		19.531250
5784		23.437500
5785		17.578125
5786		21.484375
5787		19.531250
5788		21.484375
5789		17.578125
5790		21.484375
5791		17.578125
5792		21.484375
5793		17.578125
5794		21.484375
5795		17.578125
5796		21.484375
5797		17.578125
5798		21.484375
5799		17.578125
5800		21.484375
5801		17.578125
5802		19.531250
5803		17.578125
5804		19.531250
5805		15.625000
5806		19.531250
5807		15.625000
5808		19.531250
5809		15.625000
5810		19.531250
5811		15.625000
5812		17.578125
5813		15.625000
5814		17.578125
5815		13.671875
5816		17.578125
5817		13.671875
5818		17.578125
5819		11.718750
5820		17.578125
5821		13.671875
5822		15.625000
5823		11.718750
5824		15.625000
5825		11.718750
5826		15.625000
5827		11.718750
5828		15.625000
5829		11.718750
5830		15.625000
5831		9.765625
5832		13.671875
5833		9.765625
5834		13.671875
5835		9.765625
5836		13.671875
5837		9.765625
5838		11.718750
5839		9.765625
5840		11.718750
5841		7.812500
5842		13.671875
5843		7.812500
5844		11.718750
5845		7.812500
5846		9.765625
5847		5.859375
5848		9.765625
5849		7.812500
5850		9.765625
5851		5.859375
5852		9.765625
5853		5.859375
5854		9.765625
5855		5.859375
5856		7.812500
5857		3.906250
5858		7.812500
5859		3.906250
5860		7.812500
5861		3.906250
5862		7.812500
5863		3.906250
5864		7.812500
5865		3.906250
5866		5.859375
5867		3.906250
5868		5.859375
5869		3.906250
5870		5.859375
5871		3.906250
5872		5.859375
5873		1.953125
5874		5.859375
5875		1.953125
5876		5.859375
5877		1.953125
5878		5.859375
5879		1.953125
5880		5.859375
5881		1.953125
5882		3.906250
5883		1.953125
5884		3.906250
5885		0.000000
5886		3.906250
5887		1.953125
5888		3.906250
5889		1.953125
5890		3.906250
5891		0.000000
5892		3.906250
5893		0.000000
5894		3.906250
5895		0.000000
5896		3.906250
5897		0.000000
5898		3.906250
5899		0.000000
5900		3.906250
5901		0.000000
5902		3.906250
5903		0.000000
5904		3.906250
5905		1.953125
5906		3.906250
5907		1.953125
5908		3.906250
5909		1.953125
5910		3.906250
5911		1.953125
5912		5.859375
5913		1.953125
5914		3.906250
5915		1.953125
5916		3.906250
5917		1.953125
5918		5.859375
5919		1.953125
5920		5.859375
5921		1.953125
5922		5.859375
5923		3.906250
5924		5.859375
5925		1.953125
5926		5.859375
5927		3.906250
5928		5.859375
5929		3.906250
5930		7.812500
5931		3.906250
5932		7.812500
5933		3.906250
5934		7.812500
5935		3.906250
5936		7.812500
5937		3.906250
5938		7.812500
5939		5.859375
5940		7.812500
5941		5.859375
5942		9.765625
5943		5.859375
5944		9.765625
5945		5.859375
5946		9.765625
5947		7.812500
5948		9.765625
5949		7.812500
5950		11.718750
5951		7.812500
5952		11.718750
5953		9.765625
5954		11.718750
5955		9.765625
5956		11.718750
5957		9.765625
5958		11.718750
5959		9.765625
5960		13.671875
5961		9.765625
5962		13.671875
5963		11.718750
5964		13.671875
5965		11.718750
5966		13.671875
5967		11.718750
5968		15.625000
5969		11.718750
5970		15.625000
5971		13.671875
5972		15.625000
5973		13.671875
5974		15.625000
5975		13.671875
5976		17.578125
5977		13.671875
5978		17.578125
5979		13.671875
5980		17.578125
5981		13.671875
5982		17.578125
5983		15.625000
5984		17.578125
5985		15.625000
5986		19.531250
5987		15.625000
5988		19.531250
5989		17.578125
5990		19.531250
5991		17.578125
5992		19.531250
5993		17.578125
5994		19.531250
5995		17.578125
5996		21.484375
5997		17.578125
5998		21.484375
5999		17.578125
6000		21.484375
6001		17.578125
6002		21.484375
6003		17.578125
6004		21.484375
6005		19.531250
6006		21.484375
6007		19.531250
6008		21.484375
6009		17.578125
6010		21.484375
6011		19.531250
6012		21.484375
6013		19.531250
6014		23.437500
6015		19.531250
6016		21.484375
6017		19.531250
6018		21.484375
6019		19.531250
6020		23.437500
6021		19.531250
6022		23.437500
6023		19.531250
6024		21.484375
6025		17.578125
6026		23.437500
6027		19.531250
6028		21.484375
6029		19.531250
6030		21.484375
6031		19.531250
6032		21.484375
6033		19.531250
6034		21.484375
6035		19.531250
6036		21.484375
6037		17.578125
6038		21.484375
6039		19.531250
6040		21.484375
6041		19.531250
6042		21.484375
6043		17.578125
6044		21.484375
6045		17.578125
6046		21.484375
6047		17.578125
6048		21.484375
6049		17.578125
6050		21.484375
6051		17.578125
6052		21.484375
6053		15.625000
6054		19.531250
6055		17.578125
6056		19.531250
6057		17.578125
6058		19.531250
6059		15.625000
6060		19.531250
6061		15.625000
6062		19.531250
6063		15.625000
6064		17.578125
6065		13.671875
6066		17.578125
6067		13.671875
6068		17.578125
6069		13.671875
6070		17.578125
6071		13.671875
6072		17.578125
6073		13.671875
6074		15.625000
6075		11.718750
6076		15.625000
6077		11.718750
6078		15.625000
6079		11.718750
6080		13.671875
6081		11.718750
6082		15.625000
6083		9.765625
6084		13.671875
6085		9.765625
6086		13.671875
6087		9.765625
6088		13.671875
6089		9.765625
6090		11.718750
6091		9.765625
6092		11.718750
6093		7.812500
6094		11.718750
6095		7.812500
6096		11.718750
6097		7.812500
6098		9.765625
6099		7.812500
6100		9.765625
6101		7.812500
6102		9.765625
6103		5.859375
6104		7.812500
6105		3.906250
6106		9.765625
6107		5.859375
6108		7.812500
6109		3.906250
6110		7.812500
6111		3.906250
6112		7.812500
6113		3.906250
6114		7.812500
6115		3.906250
6116		7.812500
6117		3.906250
6118		5.859375
6119		3.906250
6120		5.859375
6121		1.953125
6122		5.859375
6123		3.906250
6124		5.859375
6125		1.953125
6126		3.906250
6127		1.953125
6128		5.859375
6129		1.953125
6130		3.906250
6131		1.953125
6132		3.906250
6133		1.953125
6134		3.906250
6135		0.000000
6136		3.906250
6137		0.000000
6138		3.906250
6139		0.000000
6140		3.906250
6141		1.953125
6142		3.906250
6143		0.000000
6144		3.906250
6145		0.000000
6146		3.906250
6147		0.000000
6148		3.906250
6149		0.000000
6150		3.906250
6151		0.000000
6152		3.906250
6153		0.000000
6154		3.906250
6155		0.000000
6156		3.906250
6157		1.953125
6158		3.906250
6159		0.000000
6160		3.906250
6161		1.953125
6162		3.906250
6163		1.953125
6164		5.859375
6165		1.953125
6166		3.906250
6167		1.953125
6168		5.859375
6169		1.953125
6170		5.859375
6171		1.953125
6172		5.859375
6173		3.906250
6174		5.859375
6175		3.906250
6176		5.859375
6177		1.953125
6178		5.859375
6179		3.906250
6180		5.859375
6181		3.906250
6182		7.812500
6183		3.906250
6184		7.812500
6185		3.906250
6186		7.812500
6187		5.859375
6188		7.812500
6189		3.906250
6190		7.812500
6191		5.859375
6192		7.812500
6193		5.859375
6194		9.765625
6195		5.859375
6196		9.765625
6197		7.812500
6198		9.765625
6199		7.812500
6200		9.765625
6201		7.812500
6202		11.718750
6203		7.812500
6204		11.718750
6205		9.765625
6206		13.671875
6207		9.765625
6208		11.718750
6209		9.765625
6210		11.718750
6211		9.765625
6212		13.671875
6213		9.765625
6214		13.671875
6215		11.718750
6216		13.671875
6217		11.718750
6218		15.625000
6219		11.718750
6220		15.625000
6221		11.718750
6222		17.578125
6223		13.671875
6224		15.625000
6225		13.671875
6226		15.625000
6227		13.671875
6228		17.578125
6229		13.671875
6230		17.578125
6231		15.625000
6232		17.578125
6233		15.625000
6234		17.578125
6235		15.625000
6236		17.578125
6237		15.625000
6238		19.531250
6239		15.625000
6240		19.531250
6241		17.578125
6242		19.531250
6243		15.625000
6244		21.484375
6245		17.578125
6246		21.484375
6247		17.578125
6248		21.484375
6249		17.578125
6250		21.484375
6251		17.578125
6252		21.484375
6253		17.578125
6254		21.484375
6255		17.578125
6256		21.484375
6257		19.531250
6258		21.484375
6259		19.531250
6260		21.484375
6261		17.578125
6262		21.484375
6263		19.531250
6264		23.437500
6265		19.531250
6266		23.437500
6267		19.531250
6268		23.437500
6269		19.531250
6270		23.437500
6271		19.531250
6272		21.484375
6273		19.531250
6274		23.437500
6275		19.531250
6276		21.484375
6277		19.531250
6278		23.437500
6279		19.531250
6280		23.437500
6281		19.531250
6282		23.437500
6283		19.531250
6284		21.484375
6285		19.531250
6286		21.484375
6287		19.531250
6288		21.484375
6289		17.578125
6290		21.484375
6291		19.531250
6292		21.484375
6293		19.531250
6294		21.484375
6295		17.578125
6296		21.484375
6297		17.578125
6298		21.484375
6299		17.578125
6300		21.484375
6301		17.578125
6302		19.531250
6303		17.578125
6304		19.531250
6305		17.578125
6306		19.531250
6307		15.625000
6308		19.531250
6309		15.625000
6310		19.531250
6311		15.625000
6312		19.531250
6313		15.625000
6314		17.578125
6315		15.625000
6316		17.578125
6317		13.671875
6318		17.578125
6319		13.671875
6320		17.578125
6321		13.671875
6322		17.578125
6323		11.718750
6324		15.625000
6325		13.671875
6326		15.625000
6327		11.718750
6328		15.625000
6329		11.718750
6330		15.625000
6331		11.718750
6332		13.671875
6333		11.718750
6334		13.671875
6335		9.765625
6336		13.671875
6337		9.765625
6338		13.671875
6339		9.765625
6340		13.671875
6341		9.765625
6342		11.718750
6343		7.812500
6344		11.718750
6345		7.812500
6346		11.718750
6347		7.812500
6348		9.765625
6349		5.859375
6350		9.765625
6351		7.812500
6352		9.765625
6353		5.859375
6354		9.765625
6355		5.859375
6356		9.765625
6357		5.859375
6358		7.812500
6359		5.859375
6360		7.812500
6361		3.906250
6362		7.812500
6363		3.906250
6364		7.812500
6365		3.906250
6366		7.812500
6367		3.906250
6368		5.859375
6369		3.906250
6370		5.859375
6371		3.906250
6372		5.859375
6373		1.953125
6374		5.859375
6375		1.953125
6376		5.859375
6377		1.953125
6378		3.906250
6379		1.953125
6380		5.859375
6381		1.953125
6382		3.906250
6383		1.953125
6384		3.906250
6385		1.953125
6386		3.906250
6387		0.000000
6388		3.906250
6389		0.000000
6390		3.906250
6391		0.000000
6392		3.906250
6393		1.953125
6394		3.906250
6395		1.953125
6396		3.906250
6397		0.000000
6398		3.906250
6399		0.000000
6400		3.906250
6401		0.000000
6402		3.906250
6403		0.000000
6404		3.906250
6405		0.000000
6406		3.906250
6407		0.000000
6408		3.906250
6409		1.953125
6410		3.906250
6411		1.953125
6412		3.906250
6413		0.000000
6414		5.859375
6415		1.953125
6416		3.906250
6417		1.953125
6418		3.906250
6419		1.953125
6420		5.859375
6421		1.953125
6422		5.859375
6423		1.953125
6424		5.859375
6425		3.906250
6426		5.859375
6427		3.906250
6428		5.859375
6429		1.953125
6430		5.859375
6431		3.906250
6432		7.812500
6433		3.906250
6434		7.812500
6435		3.906250
6436		7.812500
6437		3.906250
6438		7.812500
6439		5.859375
6440		9.765625
6441		5.859375
6442		9.765625
6443		5.859375
6444		9.765625
6445		5.859375
6446		9.765625
6447		5.859375
6448		9.765625
6449		7.812500
6450		11.718750
6451		7.812500
6452		9.765625
6453		7.812500
6454		11.718750
6455		7.812500
6456		11.718750
6457		7.812500
6458		11.718750
6459		9.765625
6460		11.718750
6461		9.765625
6462		13.671875
6463		11.718750
6464		13.671875
6465		11.718750
6466		13.671875
6467		11.718750
6468		15.625000
6469		11.718750
6470		15.625000
6471		11.718750
6472		15.625000
6473		11.718750
6474		15.625000
6475		11.718750
6476		17.578125
6477		13.671875
6478		15.625000
6479		13.671875
6480		17.578125
6481		15.625000
6482		17.578125
6483		15.625000
6484		17.578125
6485		15.625000
6486		19.531250
6487		15.625000
6488		19.531250
6489		15.625000
6490		19.531250
6491		15.625000
6492		19.531250
6493		17.578125
6494		19.531250
6495		17.578125
6496		19.531250
6497		17.578125
6498		19.531250
6499		17.578125
6500		21.484375
6501		17.578125
6502		21.484375
6503		17.578125
6504		21.484375
6505		17.578125
6506		21.484375
6507		19.531250
6508		21.484375
6509		17.578125
6510		21.484375
6511		19.531250
6512		21.484375
6513		17.578125
6514		23.437500
6515		19.531250
6516		23.437500
6517		19.531250
6518		23.437500
6519		19.531250
6520		21.484375
6521		19.531250
6522		23.437500
6523		19.531250
6524		21.484375
6525		17.578125
6526		23.437500
6527		19.531250
6528		21.484375
6529		19.531250
6530		23.437500
6531		19.531250
6532		23.437500
6533		19.531250
6534		21.484375
6535		19.531250
6536		21.484375
6537		19.531250
6538		21.484375
6539		19.531250
6540		21.484375
6541		17.578125
6542		21.484375
6543		17.578125
6544		21.484375
6545		17.578125
6546		21.484375
6547		17.578125
6548		21.484375
6549		17.578125
6550		21.484375
6551		17.578125
6552		21.484375
6553		15.625000
6554		19.531250
6555		17.578125
6556		19.531250
6557		15.625000
6558		19.531250
6559		15.625000
6560		19.531250
6561		15.625000
6562		17.578125
6563		15.625000
6564		19.531250
6565		15.625000
6566		17.578125
6567		13.671875
6568		17.578125
6569		13.671875
6570		17.578125
6571		13.671875
6572		17.578125
6573		13.671875
6574		17.578125
6575		11.718750
6576		15.625000
6577		13.671875
6578		15.625000
6579		11.718750
6580		15.625000
6581		11.718750
6582		15.625000
6583		11.718750
6584		13.671875
6585		11.718750
6586		13.671875
6587		9.765625
6588		13.671875
6589		9.765625
6590		11.718750
6591		7.812500
6592		11.718750
6593		9.765625
6594		11.718750
6595		7.812500
6596		11.718750
6597		7.812500
6598		11.718750
6599		7.812500
6600		9.765625
6601		5.859375
6602		9.765625
6603		5.859375
6604		9.765625
6605		5.859375
6606		9.765625
6607		5.859375
6608		7.812500
6609		3.906250
6610		9.765625
6611		5.859375
6612		7.812500
6613		3.906250
6614		7.812500
6615		3.906250
6616		7.812500
6617		3.906250
6618		7.812500
6619		3.906250
6620		7.812500
6621		3.906250
6622		5.859375
6623		1.953125
6624		5.859375
6625		1.953125
6626		5.859375
6627		1.953125
6628		3.906250
6629		1.953125
6630		3.906250
6631		1.953125
6632		3.906250
6633		1.953125
6634		3.906250
6635		1.953125
6636		3.906250
6637		0.000000
6638		3.906250
6639		0.000000
6640		3.906250
6641		0.000000
6642		3.906250
6643		1.953125
6644		3.906250
6645		1.953125
6646		3.906250
6647		0.000000
6648		3.906250
6649		1.953125
6650		3.906250
6651		0.000000
6652		3.906250
6653		0.000000
6654		3.906250
6655		0.000000
6656		3.906250
6657		1.953125
6658		3.906250
6659		0.000000
6660		3.906250
6661		1.953125
6662		3.906250
6663		1.953125
6664		3.906250
6665		0.000000
6666		5.859375
6667		1.953125
6668		3.906250
6669		1.953125
6670		5.859375
6671		1.953125
6672		5.859375
6673		1.953125
6674		5.859375
6675		1.953125
6676		5.859375
6677		1.953125
6678		5.859375
6679		3.906250
6680		5.859375
6681		3.906250
6682		7.812500
6683		3.906250
6684		7.812500
6685		3.906250
6686		7.812500
6687		3.906250
6688		7.812500
6689		5.859375
6690		7.812500
6691		5.859375
6692		7.812500
6693		5.859375
6694		9.765625
6695		5.859375
6696		9.765625
6697		5.859375
6698		11.718750
6699		7.812500
6700		9.765625
6701		7.812500
6702		11.718750
6703		7.812500
6704		11.718750
6705		7.812500
6706		11.718750
6707		9.765625
6708		11.718750
6709		9.765625
6710		13.671875
6711		9.765625
6712		11.718750
6713		11.718750
6714		13.671875
6715		9.765625
6716		13.671875
6717		11.718750
6718		15.625000
6719		11.718750
6720		15.625000
6721		11.718750
6722		15.625000
6723		11.718750
6724		15.625000
6725		13.671875
6726		15.625000
6727		11.718750
6728		15.625000
6729		13.671875
6730		17.578125
6731		15.625000
6732		17.578125
6733		15.625000
6734		17.578125
6735		15.625000
6736		17.578125
6737		15.625000
6738		17.578125
6739		15.625000
6740		19.531250
6741		15.625000
6742		19.531250
6743		15.625000
6744		19.531250
6745		17.578125
6746		19.531250
6747		17.578125
6748		19.531250
6749		17.578125
6750		21.484375
6751		17.578125
6752		21.484375
6753		17.578125
6754		21.484375
6755		17.578125
6756		21.484375
6757		17.578125
6758		21.484375
6759		19.531250
6760		21.484375
6761		17.578125
6762		21.484375
6763		19.531250
6764		21.484375
6765		17.578125
6766		21.484375
6767		19.531250
6768		21.484375
6769		19.531250
6770		21.484375
6771		19.531250
6772		21.484375
6773		19.531250
6774		21.484375
6775		19.531250
6776		21.484375
6777		19.531250
6778		23.437500
6779		19.531250
6780		21.484375
6781		17.578125
6782		23.437500
6783		19.531250
6784		23.437500
6785		19.531250
6786		21.484375
6787		19.531250
6788		21.484375
6789		19.531250
6790		21.484375
6791		19.531250
6792		21.484375
6793		17.578125
6794		21.484375
6795		17.578125
6796		21.484375
6797		17.578125
6798		21.484375
6799		17.578125
6800		21.484375
6801		17.578125
6802		19.531250
6803		17.578125
6804		19.531250
6805		17.578125
6806		19.531250
6807		15.625000
6808		19.531250
6809		15.625000
6810		19.531250
6811		15.625000
6812		19.531250
6813		15.625000
6814		17.578125
6815		15.625000
6816		17.578125
6817		13.671875
6818		17.578125
6819		13.671875
6820		17.578125
6821		13.671875
6822		17.578125
6823		13.671875
6824		15.625000
6825		13.671875
6826		15.625000
6827		11.718750
6828		15.625000
6829		11.718750
6830		15.625000
6831		11.718750
6832		13.671875
6833		11.718750
6834		13.671875
6835		11.718750
6836		13.671875
6837		9.765625
6838		13.671875
6839		9.765625
6840		11.718750
6841		7.812500
6842		11.718750
6843		7.812500
6844		11.718750
6845		7.812500
6846		11.718750
6847		7.812500
6848		9.765625
6849		7.812500
6850		9.765625
6851		7.812500
6852		9.765625
6853		5.859375
6854		9.765625
6855		5.859375
6856		9.765625
6857		5.859375
6858		7.812500
6859		3.906250
6860		7.812500
6861		3.906250
6862		7.812500
6863		3.906250
6864		7.812500
6865		3.906250
6866		7.812500
6867		3.906250
6868		7.812500
6869		3.906250
6870		5.859375
6871		3.906250
6872		5.859375
6873		1.953125
6874		5.859375
6875		1.953125
6876		5.859375
6877		1.953125
6878		5.859375
6879		1.953125
6880		3.906250
6881		1.953125
6882		3.906250
6883		1.953125
6884		5.859375
6885		1.953125
6886		3.906250
6887		0.000000
6888		3.906250
6889		0.000000
6890		5.859375
6891		0.000000
6892		3.906250
6893		0.000000
6894		3.906250
6895		0.000000
6896		3.906250
6897		1.953125
6898		3.906250
6899		0.000000
6900		3.906250
6901		0.000000
6902		3.906250
6903		0.000000
6904		3.906250
6905		0.000000
6906		3.906250
6907		1.953125
6908		3.906250
6909		0.000000
6910		3.906250
6911		0.000000
6912		5.859375
6913		1.953125
6914		3.906250
6915		1.953125
6916		3.906250
6917		0.000000
6918		3.906250
6919		1.953125
6920		3.906250
6921		1.953125
6922		5.859375
6923		1.953125
6924		5.859375
6925		1.953125
6926		5.859375
6927		1.953125
6928		5.859375
6929		1.953125
6930		5.859375
6931		3.906250
6932		5.859375
6933		3.906250
6934		7.812500
6935		3.906250
6936		7.812500
6937		3.906250
6938		7.812500
6939		3.906250
6940		7.812500
6941		5.859375
6942		7.812500
6943		5.859375
6944		7.812500
6945		5.859375
6946		9.765625
6947		5.859375
6948		9.765625
6949		7.812500
6950		11.718750
6951		7.812500
6952		9.765625
6953		7.812500
6954		11.718750
6955		7.812500
6956		11.718750
6957		7.812500
6958		11.718750
6959		7.812500
6960		11.718750
6961		9.765625
6962		13.671875
6963		9.765625
6964		13.671875
6965		11.718750
6966		13.671875
6967		11.718750
6968		13.671875
6969		11.718750
6970		15.625000
6971		11.718750
6972		15.625000
6973		13.671875
6974		15.625000
6975		13.671875
6976		15.625000
6977		13.671875
6978		15.625000
6979		13.671875
6980		17.578125
6981		13.671875
6982		17.578125
6983		13.671875
6984		17.578125
6985		15.625000
6986		17.578125
6987		15.625000
6988		17.578125
6989		15.625000
6990		19.531250
6991		15.625000
6992		19.531250
6993		17.578125
6994		19.531250
6995		15.625000
6996		19.531250
6997		17.578125
6998		19.531250
6999		17.578125
7000		19.531250
7001		15.625000
7002		21.484375
7003		17.578125
7004		21.484375
7005		17.578125
7006		21.484375
7007		17.578125
7008		21.484375
7009		17.578125
7010		21.484375
7011		19.531250
7012		21.484375
7013		17.578125
7014		21.484375
7015		19.531250
7016		21.484375
7017		19.531250
7018		21.484375
7019		19.531250
7020		21.484375
7021		19.531250
7022		21.484375
7023		19.531250
7024		23.437500
7025		19.531250
7026		21.484375
7027		19.531250
7028		21.484375
7029		17.578125
7030		23.437500
7031		19.531250
7032		21.484375
7033		17.578125
7034		21.484375
7035		19.531250
7036		21.484375
7037		19.531250
7038		21.484375
7039		19.531250
7040		21.484375
7041		17.578125
7042		21.484375
7043		17.578125
7044		21.484375
7045		17.578125
7046		21.484375
7047		17.578125
7048		19.531250
7049		17.578125
7050		19.531250
7051		17.578125
7052		21.484375
7053		15.625000
7054		19.531250
7055		15.625000
7056		19.531250
7057		17.578125
7058		19.531250
7059		15.625000
7060		19.531250
7061		15.625000
7062		19.531250
7063		15.625000
7064		19.531250
7065		15.625000
7066		17.578125
7067		13.671875
7068		17.578125
7069		13.671875
7070		17.578125
7071		13.671875
7072		17.578125
7073		13.671875
7074		15.625000
7075		13.671875
7076		15.625000
7077		13.671875
7078		15.625000
7079		11.718750
7080		15.625000
7081		11.718750
7082		13.671875
7083		11.718750
7084		13.671875
7085		11.718750
7086		13.671875
7087		9.765625
7088		13.671875
7089		9.765625
7090		13.671875
7091		9.765625
7092		11.718750
7093		9.765625
7094		11.718750
7095		7.812500
7096		11.718750
7097		7.812500
7098		11.718750
7099		7.812500
7100		9.765625
7101		5.859375
7102		9.765625
7103		5.859375
7104		9.765625
7105		5.859375
7106		9.765625
7107		5.859375
7108		9.765625
7109		5.859375
7110		7.812500
7111		3.906250
7112		7.812500
7113		3.906250
7114		7.812500
7115		3.906250
7116		5.859375
7117		3.906250
7118		5.859375
7119		3.906250
7120		5.859375
7121		3.906250
7122		5.859375
7123		1.953125
7124		5.859375
7125		1.953125
7126		5.859375
7127		1.953125
7128		5.859375
7129		1.953125
7130		3.906250
7131		1.953125
7132		3.906250
7133		1.953125
7134		3.906250
7135		0.000000
7136		5.859375
7137		1.953125
7138		3.906250
7139		0.000000
7140		3.906250
7141		0.000000
7142		3.906250
7143		0.000000
7144		3.906250
7145		0.000000
7146		3.906250
7147		0.000000
7148		3.906250
7149		1.953125
7150		3.906250
7151		0.000000
7152		3.906250
7153		0.000000
7154		3.906250
7155		0.000000
7156		3.906250
7157		1.953125
7158		3.906250
7159		0.000000
7160		3.906250
7161		0.000000
7162		3.906250
7163		0.000000
7164		3.906250
7165		1.953125
7166		3.906250
7167		1.953125
7168		3.906250
7169		1.953125
7170		3.906250
7171		1.953125
7172		3.906250
7173		1.953125
7174		5.859375
7175		1.953125
7176		5.859375
7177		1.953125
7178		5.859375
7179		1.953125
7180		5.859375
7181		1.953125
7182		5.859375
7183		3.906250
7184		5.859375
7185		3.906250
7186		7.812500
7187		3.906250
7188		7.812500
7189		3.906250
7190		7.812500
7191		3.906250
7192		7.812500
7193		5.859375
7194		7.812500
7195		5.859375
7196		9.765625
7197		5.859375
7198		9.765625
7199		7.812500
7200		9.765625
7201		7.812500
7202		9.765625
7203		7.812500
7204		11.718750
7205		7.812500
7206		11.718750
7207		9.765625
7208		11.718750
7209		9.765625
7210		11.718750
7211		9.765625
7212		13.671875
7213		9.765625
7214		13.671875
7215		11.718750
7216		13.671875
7217		11.718750
7218		13.671875
7219		11.718750
7220		15.625000
7221		11.718750
7222		15.625000
7223		11.718750
7224		15.625000
7225		11.718750
7226		15.625000
7227		13.671875
7228		15.625000
7229		13.671875
7230		15.625000
7231		13.671875
7232		17.578125
7233		13.671875
7234		17.578125
7235		15.625000
7236		17.578125
7237		15.625000
7238		17.578125
7239		15.625000
7240		19.531250
7241		15.625000
7242		19.531250
7243		15.625000
7244		19.531250
7245		15.625000
7246		19.531250
7247		15.625000
7248		19.531250
7249		17.578125
7250		19.531250
7251		17.578125
7252		19.531250
7253		17.578125
7254		21.484375
7255		17.578125
7256		21.484375
7257		17.578125
7258		21.484375
7259		17.578125
7260		21.484375
7261		19.531250
7262		21.484375
7263		17.578125
7264		21.484375
7265		17.578125
7266		21.484375
7267		19.531250
7268		21.484375
7269		17.578125
7270		23.437500
7271		19.531250
7272		21.484375
7273		19.531250
7274		21.484375
7275		17.578125
7276		23.437500
7277		19.531250
7278		23.437500
7279		19.531250
7280		23.437500
7281		19.531250
7282		21.484375
7283		19.531250
7284		21.484375
7285		19.531250
7286		21.484375
7287		19.531250
7288		21.484375
7289		19.531250
7290		21.484375
7291		17.578125
7292		21.484375
7293		17.578125
7294		21.484375
7295		17.578125
7296		21.484375
7297		17.578125
7298		21.484375
7299		17.578125
7300		21.484375
7301		17.578125
7302		19.531250
7303		17.578125
7304		19.531250
7305		17.578125
7306		19.531250
7307		15.625000
7308		19.531250
7309		15.625000
7310		19.531250
7311		15.625000
7312		19.531250
7313		15.625000
7314		19.531250
7315		15.625000
7316		17.578125
7317		15.625000
7318		17.578125
7319		13.671875
7320		17.578125
7321		13.671875
7322		17.578125
7323		13.671875
7324		17.578125
7325		13.671875
7326		17.578125
7327		11.718750
7328		15.625000
7329		11.718750
7330		15.625000
7331		11.718750
7332		15.625000
7333		11.718750
7334		13.671875
7335		11.718750
7336		13.671875
7337		9.765625
7338		13.671875
7339		9.765625
7340		13.671875
7341		9.765625
7342		13.671875
7343		9.765625
7344		11.718750
7345		7.812500
7346		11.718750
7347		7.812500
7348		11.718750
7349		7.812500
7350		11.718750
7351		7.812500
7352		9.765625
7353		5.859375
7354		9.765625
7355		5.859375
7356		9.765625
7357		5.859375
7358		9.765625
7359		5.859375
7360		7.812500
7361		3.906250
7362		7.812500
7363		3.906250
7364		7.812500
7365		3.906250
7366		7.812500
7367		3.906250
7368		5.859375
7369		3.906250
7370		5.859375
7371		3.906250
7372		5.859375
7373		1.953125
7374		5.859375
7375		1.953125
7376		5.859375
7377		1.953125
7378		5.859375
7379		1.953125
7380		5.859375
7381		1.953125
7382		3.906250
7383		0.000000
7384		5.859375
7385		1.953125
7386		3.906250
7387		0.000000
7388		3.906250
7389		0.000000
7390		3.906250
7391		0.000000
7392		3.906250
7393		0.000000
7394		3.906250
7395		0.000000
7396		3.906250
7397		0.000000
7398		3.906250
7399		0.000000
7400		3.906250
7401		0.000000
7402		3.906250
7403		0.000000
7404		3.906250
7405		0.000000
7406		3.906250
7407		0.000000
7408		3.906250
7409		0.000000
7410		3.906250
7411		0.000000
7412		3.906250
7413		0.000000
7414		3.906250
7415		0.000000
7416		3.906250
7417		1.953125
7418		3.906250
7419		1.953125
7420		3.906250
7421		0.000000
7422		5.859375
7423		1.953125
7424		5.859375
7425		1.953125
7426		5.859375
7427		1.953125
7428		5.859375
7429		1.953125
7430		5.859375
7431		1.953125
7432		5.859375
7433		1.953125
7434		5.859375
7435		3.906250
7436		5.859375
7437		3.906250
7438		7.812500
7439		3.906250
7440		7.812500
7441		3.906250
7442		7.812500
7443		5.859375
7444		9.765625
7445		3.906250
7446		9.765625
7447		5.859375
7448		9.765625
7449		5.859375
7450		9.765625
7451		7.812500
7452		9.765625
7453		7.812500
7454		9.765625
7455		7.812500
7456		9.765625
7457		7.812500
7458		11.718750
7459		7.812500
7460		11.718750
7461		9.765625
7462		11.718750
7463		9.765625
7464		11.718750
7465		9.765625
7466		13.671875
7467		9.765625
7468		13.671875
7469		11.718750
7470		13.671875
7471		9.765625
7472		15.625000
7473		11.718750
7474		15.625000
7475		11.718750
7476		15.625000
7477		11.718750
7478		15.625000
7479		13.671875
7480		15.625000
7481		13.671875
7482		17.578125
7483		13.671875
7484		17.578125
7485		15.625000
7486		17.578125
7487		13.671875
7488		19.531250
7489		15.625000
7490		17.578125
7491		15.625000
7492		19.531250
7493		15.625000
7494		19.531250
7495		15.625000
7496		19.531250
7497		17.578125
7498		19.531250
7499		17.578125
7500		19.531250
7501		17.578125
7502		19.531250
7503		17.578125
7504		19.531250
7505		17.578125
7506		21.484375
7507		17.578125
7508		21.484375
7509		17.578125
7510		21.484375
7511		17.578125
7512		21.484375
7513		17.578125
7514		21.484375
7515		17.578125
7516		21.484375
7517		17.578125
7518		21.484375
7519		19.531250
7520		21.484375
7521		17.578125
7522		21.484375
7523		19.531250
7524		21.484375
7525		19.531250
7526		21.484375
7527		19.531250
7528		21.484375
7529		17.578125
7530		21.484375
7531		19.531250
7532		21.484375
7533		19.531250
7534		23.437500
7535		19.531250
7536		21.484375
7537		19.531250
7538		21.484375
7539		17.578125
7540		21.484375
7541		17.578125
7542		21.484375
7543		17.578125
7544		21.484375
7545		17.578125
7546		21.484375
7547		17.578125
7548		21.484375
7549		17.578125
7550		21.484375
7551		17.578125
7552		21.484375
7553		17.578125
7554		19.531250
7555		15.625000
7556		19.531250
7557		15.625000
7558		19.531250
7559		15.625000
7560		19.531250
7561		15.625000
7562		19.531250
7563		15.625000
7564		19.531250
7565		15.625000
7566		19.531250
7567		13.671875
7568		17.578125
7569		13.671875
7570		17.578125
7571		13.671875
7572		17.578125
7573		13.671875
7574		15.625000
7575		13.671875
7576		15.625000
7577		11.718750
7578		15.625000
7579		11.718750
7580		15.625000
7581		11.718750
7582		15.625000
7583		11.718750
7584		15.625000
7585		11.718750
7586		13.671875
7587		9.765625
7588		13.671875
7589		9.765625
7590		13.671875
7591		9.765625
7592		13.671875
7593		9.765625
7594		11.718750
7595		9.765625
7596		11.718750
7597		7.812500
7598		11.718750
7599		7.812500
7600		11.718750
7601		7.812500
7602		9.765625
7603		7.812500
7604		9.765625
7605		5.859375
7606		9.765625
7607		5.859375
7608		9.765625
7609		5.859375
7610		9.765625
7611		3.906250
7612		7.812500
7613		3.906250
7614		7.812500
7615		3.906250
7616		7.812500
7617		3.906250
7618		7.812500
7619		3.906250
7620		5.859375
7621		3.906250
7622		5.859375
7623		1.953125
7624		5.859375
7625		1.953125
7626		5.859375
7627		1.953125
7628		3.906250
7629		1.953125
7630		5.859375
7631		1.953125
7632		5.859375
7633		1.953125
7634		3.906250
7635		0.000000
7636		3.906250
7637		1.953125
7638		3.906250
7639		0.000000
7640		3.906250
7641		0.000000
7642		3.906250
7643		0.000000
7644		3.906250
7645		0.000000
7646		3.906250
7647		0.000000
7648		3.906250
7649		0.000000
7650		3.906250
7651		0.000000
7652		3.906250
7653		0.000000
7654		3.906250
7655		0.000000
7656		3.906250
7657		0.000000
7658		3.906250
7659		0.000000
7660		3.906250
7661		0.000000
7662		3.906250
7663		0.000000
7664		3.906250
7665		0.000000
7666		3.906250
7667		0.000000
7668		3.906250
7669		1.953125
7670		3.906250
7671		1.953125
7672		3.906250
7673		1.953125
7674		5.859375
7675		1.953125
7676		5.859375
7677		1.953125
7678		5.859375
7679		1.953125
7680		5.859375
7681		1.953125
7682		5.859375
7683		3.906250
7684		5.859375
7685		3.906250
7686		5.859375
7687		3.906250
7688		5.859375
7689		1.953125
7690		7.812500
7691		3.906250
7692		7.812500
7693		3.906250
7694		7.812500
7695		5.859375
7696		7.812500
7697		5.859375
7698		9.765625
7699		5.859375
7700		9.765625
7701		5.859375
7702		9.765625
7703		7.812500
7704		9.765625
7705		7.812500
7706		9.765625
7707		7.812500
7708		11.718750
7709		7.812500
7710		11.718750
7711		7.812500
7712		11.718750
7713		9.765625
7714		11.718750
7715		9.765625
7716		13.671875
7717		9.765625
7718		13.671875
7719		9.765625
7720		13.671875
7721		11.718750
7722		13.671875
7723		11.718750
7724		15.625000
7725		11.718750
7726		15.625000
7727		11.718750
7728		15.625000
7729		13.671875
7730		17.578125
7731		13.671875
7732		15.625000
7733		13.671875
7734		17.578125
7735		13.671875
7736		17.578125
7737		15.625000
7738		17.578125
7739		15.625000
7740		17.578125
7741		13.671875
7742		19.531250
7743		15.625000
7744		19.531250
7745		15.625000
7746		19.531250
7747		15.625000
7748		19.531250
7749		15.625000
7750		19.531250
7751		15.625000
7752		21.484375
7753		17.578125
7754		19.531250
7755		17.578125
7756		19.531250
7757		17.578125
7758		21.484375
7759		17.578125
7760		21.484375
7761		17.578125
7762		21.484375
7763		17.578125
7764		21.484375
7765		17.578125
7766		21.484375
7767		17.578125
7768		21.484375
7769		19.531250
7770		21.484375
7771		19.531250
7772		21.484375
7773		17.578125
7774		21.484375
7775		19.531250
7776		21.484375
7777		19.531250
7778		21.484375
7779		19.531250
7780		21.484375
7781		19.531250
7782		21.484375
7783		19.531250
7784		21.484375
7785		17.578125
7786		21.484375
7787		19.531250
7788		21.484375
7789		19.531250
7790		21.484375
7791		17.578125
7792		21.484375
7793		17.578125
7794		21.484375
7795		17.578125
7796		21.484375
7797		17.578125
7798		21.484375
7799		17.578125
7800		21.484375
7801		17.578125
7802		21.484375
7803		17.578125
7804		21.484375
7805		17.578125
7806		19.531250
7807		15.625000
7808		19.531250
7809		15.625000
7810		19.531250
7811		15.625000
7812		19.531250
7813		15.625000
7814		19.531250
7815		13.671875
7816		17.578125
7817		15.625000
7818		17.578125
7819		13.671875
7820		17.578125
7821		13.671875
7822		17.578125
7823		13.671875
7824		15.625000
7825		11.718750
7826		15.625000
7827		11.718750
7828		15.625000
7829		11.718750
7830		15.625000
7831		11.718750
7832		15.625000
7833		11.718750
7834		13.671875
7835		9.765625
7836		13.671875
7837		11.718750
7838		13.671875
7839		9.765625
7840		11.718750
7841		7.812500
7842		13.671875
7843		7.812500
7844		11.718750
7845		7.812500
7846		11.718750
7847		7.812500
7848		11.718750
7849		7.812500
7850		11.718750
7851		5.859375
7852		9.765625
7853		5.859375
7854		9.765625
7855		5.859375
7856		9.765625
7857		5.859375
7858		7.812500
7859		5.859375
7860		9.765625
7861		5.859375
7862		7.812500
7863		3.906250
7864		7.812500
7865		3.906250
7866		7.812500
7867		3.906250
7868		5.859375
7869		1.953125
7870		5.859375
7871		3.906250
7872		5.859375
7873		3.906250
7874		5.859375
7875		1.953125
7876		5.859375
7877		1.953125
7878		5.859375
7879		1.953125
7880		5.859375
7881		0.000000
7882		3.906250
7883		1.953125
7884		3.906250
7885		0.000000
7886		3.906250
7887		1.953125
7888		3.906250
7889		1.953125
7890		3.906250
7891		0.000000
7892		3.906250
7893		0.000000
7894		3.906250
7895		0.000000
7896		3.906250
7897		0.000000
7898		3.906250
7899		0.000000
7900		3.906250
7901		0.000000
7902		1.953125
7903		0.000000
7904		3.906250
7905		0.000000
7906		1.953125
7907		0.000000
7908		1.953125
7909		0.000000
7910		3.906250
7911		0.000000
7912		3.906250
7913		0.000000
7914		3.906250
7915		0.000000
7916		3.906250
7917		0.000000
7918		3.906250
7919		0.000000
7920		3.906250
7921		0.000000
7922		3.906250
7923		1.953125
7924		3.906250
7925		1.953125
7926		3.906250
7927		1.953125
7928		5.859375
7929		1.953125
7930		5.859375
7931		1.953125
7932		5.859375
7933		1.953125
7934		5.859375
7935		3.906250
7936		5.859375
7937		1.953125
7938		7.812500
7939		3.906250
7940		5.859375
7941		3.906250
7942		7.812500
7943		3.906250
7944		7.812500
7945		3.906250
7946		7.812500
7947		3.906250
7948		7.812500
7949		5.859375
7950		9.765625
7951		5.859375
7952		9.765625
7953		5.859375
7954		9.765625
7955		7.812500
7956		9.765625
7957		7.812500
7958		9.765625
7959		5.859375
7960		11.718750
7961		7.812500
7962		11.718750
7963		7.812500
7964		11.718750
7965		9.765625
7966		11.718750
7967		9.765625
7968		13.671875
7969		9.765625
7970		13.671875
7971		9.765625
7972		13.671875
7973		11.718750
7974		13.671875
7975		11.718750
7976		15.625000
7977		11.718750
7978		15.625000
7979		11.718750
7980		15.625000
7981		13.671875
7982		15.625000
7983		13.671875
7984		15.625000
7985		13.671875
7986		17.578125
7987		13.671875
7988		17.578125
7989		15.625000
7990		17.578125
7991		15.625000
7992		17.578125
7993		15.625000
7994		17.578125
7995		15.625000
7996		19.531250
7997		15.625000
7998		19.531250
7999		15.625000
8000		19.531250
8001		15.625000
8002		19.531250
8003		15.625000
8004		19.531250
8005		15.625000
8006		19.531250
8007		17.578125
8008		19.531250
8009		17.578125
8010		21.484375
8011		17.578125
8012		21.484375
8013		17.578125
8014		21.484375
8015		17.578125
8016		21.484375
8017		17.578125
8018		21.484375
8019		17.578125
8020		21.484375
8021		17.578125
8022		21.484375
8023		19.531250
8024		21.484375
8025		17.578125
8026		21.484375
8027		17.578125
8028		21.484375
8029		17.578125
8030		21.484375
8031		19.531250
8032		21.484375
8033		17.578125
8034		21.484375
8035		17.578125
8036		21.484375
8037		17.578125
8038		21.484375
8039		17.578125
8040		21.484375
8041		17.578125
8042		21.484375
8043		17.578125
8044		21.484375
8045		17.578125
8046		21.484375
8047		17.578125
8048		21.484375
8049		17.578125
8050		19.531250
8051		17.578125
8052		19.531250
8053		17.578125
8054		19.531250
8055		15.625000
8056		19.531250
8057		17.578125
8058		19.531250
8059		15.625000
8060		19.531250
8061		15.625000
8062		17.578125
8063		15.625000
8064		17.578125
8065		13.671875
8066		17.578125
8067		15.625000
8068		17.578125
8069		13.671875
8070		17.578125
8071		13.671875
8072		17.578125
8073		13.671875
8074		15.625000
8075		13.671875
8076		15.625000
8077		11.718750
8078		15.625000
8079		11.718750
8080		15.625000
8081		11.718750
8082		15.625000
8083		9.765625
8084		13.671875
8085		11.718750
8086		13.671875
8087		9.765625
8088		13.671875
8089		9.765625
8090		13.671875
8091		9.765625
8092		11.718750
8093		7.812500
8094		11.718750
8095		7.812500
8096		11.718750
8097		7.812500
8098		11.718750
8099		7.812500
8100		9.765625
8101		7.812500
8102		9.765625
8103		5.859375
8104		9.765625
8105		5.859375
8106		9.765625
8107		5.859375
8108		7.812500
8109		3.906250
8110		9.765625
8111		3.906250
8112		7.812500
8113		3.906250
8114		7.812500
8115		3.906250
8116		7.812500
8117		3.906250
8118		5.859375
8119		3.906250
8120		5.859375
8121		1.953125
8122		5.859375
8123		1.953125
8124		5.859375
8125		1.953125
8126		3.906250
8127		0.000000
8128		5.859375
8129		1.953125
8130		5.859375
8131		1.953125
8132		3.906250
8133		0.000000
8134		3.906250
8135		0.000000
8136		3.906250
8137		0.000000
8138		3.906250
8139		0.000000
8140		3.906250
8141		0.000000
8142		3.906250
8143		0.000000
8144		3.906250
8145		0.000000
8146		3.906250
8147		0.000000
8148		3.906250
8149		0.000000
8150		1.953125
8151		0.000000
8152		3.906250
8153		0.000000
8154		1.953125
8155		0.000000
8156		3.906250
8157		0.000000
8158		1.953125
8159		0.000000
8160		1.953125
8161		0.000000
8162		3.906250
8163		0.000000
8164		3.906250
8165		0.000000
8166		3.906250
8167		0.000000
8168		3.906250
8169		0.000000
8170		3.906250
8171		0.000000
8172		3.906250
8173		0.000000
8174		3.906250
8175		1.953125
8176		3.906250
8177		0.000000
8178		5.859375
8179		1.953125
8180		5.859375
8181		1.953125
8182		3.906250
8183		0.000000
8184		5.859375
8185		1.953125
8186		5.859375
8187		1.953125
8188		5.859375
8189		1.953125
8190		5.859375
8191		3.906250
8192		5.859375
8193		3.906250
8194		7.812500
8195		3.906250
8196		7.812500
8197		5.859375
8198		7.812500
8199		3.906250
8200		9.765625
8201		5.859375
8202		9.765625
8203		5.859375
8204		9.765625
8205		5.859375
8206		9.765625
8207		5.859375
8208		9.765625
8209		7.812500
8210		9.765625
8211		5.859375
8212		13.671875
8213		5.859375
8214		13.671875
8215		5.859375
8216		13.671875
8217		7.812500
8218		13.671875
8219		7.812500
8220		13.671875
8221		9.765625
8222		13.671875
8223		9.765625
8224		13.671875
8225		11.718750
8226		13.671875
8227		9.765625
8228		17.578125
8229		9.765625
8230		17.578125
8231		11.718750
8232		17.578125
8233		11.718750
8234		17.578125
8235		11.718750
8236		17.578125
8237		11.718750
8238		17.578125
8239		13.671875
8240		17.578125
8241		15.625000
8242		17.578125
8243		15.625000
8244		17.578125
8245		13.671875
8246		19.531250
8247		13.671875
8248		19.531250
8249		13.671875
8250		21.484375
8251		13.671875
8252		21.484375
8253		13.671875
8254		21.484375
8255		13.671875
8256		21.484375
8257		17.578125
8258		19.531250
8259		17.578125
8260		19.531250
8261		15.625000
8262		21.484375
8263		15.625000
8264		23.437500
8265		15.625000
8266		21.484375
8267		15.625000
8268		23.437500
8269		15.625000
8270		23.437500
8271		15.625000
8272		23.437500
8273		15.625000
8274		23.437500
8275		19.531250
8276		21.484375
8277		17.578125
8278		21.484375
8279		17.578125
8280		23.437500
8281		17.578125
8282		23.437500
8283		15.625000
8284		23.437500
8285		15.625000
8286		23.437500
8287		15.625000
8288		23.437500
8289		15.625000
8290		23.437500
8291		17.578125
8292		21.484375
8293		17.578125
8294		21.484375
8295		15.625000
8296		23.437500
8297		15.625000
8298		21.484375
8299		15.625000
8300		21.484375
8301		15.625000
8302		21.484375
8303		15.625000
8304		21.484375
8305		13.671875
8306		21.484375
8307		15.625000
8308		21.484375
8309		15.625000
8310		19.531250
8311		13.671875
8312		19.531250
8313		13.671875
8314		19.531250
8315		13.671875
8316		19.531250
8317		11.718750
8318		19.531250
8319		11.718750
8320		19.531250
8321		11.718750
8322		19.531250
8323		11.718750
8324		19.531250
8325		13.671875
8326		15.625000
8327		13.671875
8328		15.625000
8329		9.765625
8330		17.578125
8331		9.765625
8332		17.578125
8333		9.765625
8334		17.578125
8335		7.812500
8336		15.625000
8337		7.812500
8338		15.625000
8339		7.812500
8340		15.625000
8341		9.765625
8342		13.671875
8343		9.765625
8344		11.718750
8345		5.859375
8346		13.671875
8347		5.859375
8348		13.671875
8349		5.859375
8350		11.718750
8351		3.906250
8352		11.718750
8353		3.906250
8354		11.718750
8355		3.906250
8356		11.718750
8357		3.906250
8358		11.718750
8359		5.859375
8360		7.812500
8361		3.906250
8362		7.812500
8363		1.953125
8364		9.765625
8365		1.953125
8366		9.765625
8367		1.953125
8368		7.812500
8369		1.953125
8370		7.812500
8371		1.953125
8372		7.812500
8373		0.000000
8374		7.812500
8375		1.953125
8376		5.859375
8377		1.953125
8378		3.906250
8379		0.000000
8380		5.859375
8381		0.000000
8382		5.859375
8383		0.000000
8384		5.859375
8385		-1.953125
8386		5.859375
8387		-1.953125
8388		5.859375
8389		-1.953125
8390		5.859375
8391		-1.953125
8392		5.859375
8393		0.000000
8394		3.906250
8395		-1.953125
8396		3.906250
8397		-1.953125
8398		3.906250
8399		-1.953125
8400		3.906250
8401		-1.953125
8402		3.906250
8403		-1.953125
8404		3.906250
8405		-1.953125
8406		5.859375
8407		-1.953125
8408		3.906250
8409		0.000000
8410		1.953125
8411		0.000000
8412		1.953125
8413		-1.953125
8414		5.859375
8415		-1.953125
8416		5.859375
8417		-1.953125
8418		5.859375
8419		-1.953125
8420		5.859375
8421		-1.953125
8422		5.859375
8423		-1.953125
8424		5.859375
8425		-1.953125
8426		5.859375
8427		1.953125
8428		3.906250
8429		0.000000
8430		5.859375
8431		0.000000
8432		7.812500
8433		0.000000
8434		7.812500
8435		0.000000
8436		7.812500
8437		0.000000
8438		7.812500
8439		0.000000
8440		7.812500
8441		1.953125
8442		7.812500
8443		3.906250
8444		5.859375
8445		3.906250
8446		5.859375
8447		1.953125
8448		9.765625
8449		1.953125
8450		9.765625
8451		3.906250
8452		9.765625
8453		3.906250
8454		11.718750
8455		3.906250
8456		11.718750
8457		3.906250
8458		11.718750
8459		7.812500
8460		9.765625
8461		7.812500
8462		11.718750
8463		5.859375
8464		13.671875
8465		5.859375
8466		13.671875
8467		7.812500
8468		13.671875
8469		7.812500
8470		13.671875
8471		7.812500
8472		15.625000
8473		7.812500
8474		15.625000
8475		9.765625
8476		15.625000
8477		11.718750
8478		13.671875
8479		11.718750
8480		17.578125
8481		9.765625
8482		17.578125
8483		9.765625
8484		17.578125
8485		11.718750
8486		17.578125
8487		11.718750
8488		17.578125
8489		11.718750
8490		19.531250
8491		11.718750
8492		19.531250
8493		15.625000
8494		17.578125
8495		15.625000
8496		17.578125
8497		13.671875
8498		21.484375
8499		13.671875
8500		21.484375
8501		13.671875
8502		21.484375
8503		13.671875
8504		21.484375
8505		13.671875
8506		21.484375
8507		13.671875
8508		21.484375
8509		15.625000
8510		21.484375
8511		17.578125
8512		19.531250
8513		15.625000
8514		21.484375
8515		15.625000
8516		23.437500
8517		15.625000
8518		23.437500
8519		15.625000
8520		23.437500
8521		15.625000
8522		23.437500
8523		15.625000
8524		23.437500
8525		15.625000
8526		23.437500
8527		19.531250
8528		21.484375
8529		19.531250
8530		21.484375
8531		15.625000
8532		23.437500
8533		15.625000
8534		23.437500
8535		15.625000
8536		23.437500
8537		15.625000
8538		23.437500
8539		15.625000
8540		23.437500
8541		15.625000
8542		23.437500
8543		17.578125
8544		21.484375
8545		17.578125
8546		19.531250
8547		15.625000
8548		21.484375
8549		15.625000
8550		23.437500
8551		15.625000
8552		21.484375
8553		15.625000
8554		21.484375
8555		13.671875
8556		21.484375
8557		13.671875
8558		21.484375
8559		13.671875
8560		21.484375
8561		15.625000
8562		17.578125
8563		13.671875
8564		19.531250
8565		13.671875
8566		19.531250
8567		11.718750
8568		19.531250
8569		11.718750
8570		19.531250
8571		11.718750
8572		19.531250
8573		11.718750
8574		19.531250
8575		9.765625
8576		17.578125
8577		13.671875
8578		15.625000
8579		11.718750
8580		15.625000
8581		9.765625
8582		15.625000
8583		9.765625
8584		15.625000
8585		7.812500
8586		15.625000
8587		7.812500
8588		15.625000
8589		7.812500
8590		15.625000
8591		7.812500
8592		13.671875
8593		7.812500
8594		13.671875
8595		7.812500
8596		11.718750
8597		5.859375
8598		11.718750
8599		5.859375
8600		11.718750
8601		5.859375
8602		11.718750
8603		5.859375
8604		11.718750
8605		3.906250
8606		11.718750
8607		3.906250
8608		11.718750
8609		3.906250
8610		9.765625
8611		5.859375
8612		7.812500
8613		5.859375
8614		7.812500
8615		1.953125
8616		7.812500
8617		1.953125
8618		7.812500
8619		1.953125
8620		7.812500
8621		0.000000
8622		7.812500
8623		1.953125
8624		7.812500
8625		0.000000
8626		7.812500
8627		1.953125
8628		5.859375
8629		1.953125
8630		3.906250
8631		0.000000
8632		5.859375
8633		0.000000
8634		5.859375
8635		0.000000
8636		3.906250
8637		0.000000
8638		5.859375
8639		-1.953125
8640		3.906250
8641		-1.953125
8642		5.859375
8643		-1.953125
8644		5.859375
8645		0.000000
8646		1.953125
8647		0.000000
8648		3.906250
8649		0.000000
8650		3.906250
8651		0.000000
8652		1.953125
8653		-1.953125
8654		3.906250
8655		0.000000
8656		1.953125
8657		-1.953125
8658		3.906250
8659		0.000000
8660		3.906250
8661		0.000000
8662		1.953125
8663		0.000000
8664		1.953125
8665		-1.953125
8666		3.906250
8667		0.000000
8668		3.906250
8669		0.000000
8670		3.906250
8671		-1.953125
8672		3.906250
8673		0.000000
8674		3.906250
8675		1.953125
8676		3.906250
8677		0.000000
8678		3.906250
8679		1.953125
8680		3.906250
8681		0.000000
8682		5.859375
8683		1.953125
8684		5.859375
8685		1.953125
8686		5.859375
8687		3.906250
8688		5.859375
8689		1.953125
8690		5.859375
8691		1.953125
8692		7.812500
8693		1.953125
8694		7.812500
8695		3.906250
8696		7.812500
8697		3.906250
8698		7.812500
8699		3.906250
8700		7.812500
8701		3.906250
8702		9.765625
8703		5.859375
8704		7.812500
8705		5.859375
8706		9.765625
8707		5.859375
8708		9.765625
8709		5.859375
8710		9.765625
8711		7.812500
8712		9.765625
8713		7.812500
8714		11.718750
8715		7.812500
8716		11.718750
8717		9.765625
8718		11.718750
8719		9.765625
8720		11.718750
8721		9.765625
8722		13.671875
8723		9.765625
8724		13.671875
8725		9.765625
8726		13.671875
8727		11.718750
8728		13.671875
8729		11.718750
8730		13.671875
8731		11.718750
8732		15.625000
8733		11.718750
8734		15.625000
8735		13.671875
8736		15.625000
8737		13.671875
8738		15.625000
8739		13.671875
8740		17.578125
8741		13.671875
8742		17.578125
8743		13.671875
8744		17.578125
8745		15.625000
8746		17.578125
8747		15.625000
8748		17.578125
8749		15.625000
8750		19.531250
8751		15.625000
8752		19.531250
8753		15.625000
8754		19.531250
8755		15.625000
8756		19.531250
8757		15.625000
8758		19.531250
8759		17.578125
8760		19.531250
8761		15.625000
8762		19.531250
8763		17.578125
8764		19.531250
8765		17.578125
8766		21.484375
8767		17.578125
8768		21.484375
8769		17.578125
8770		21.484375
8771		17.578125
8772		21.484375
8773		17.578125
8774		21.484375
8775		17.578125
8776		21.484375
8777		17.578125
8778		21.484375
8779		19.531250
8780		21.484375
8781		19.531250
8782		21.484375
8783		17.578125
8784		21.484375
8785		17.578125
8786		21.484375
8787		17.578125
8788		21.484375
8789		17.578125
8790		21.484375
8791		17.578125
8792		21.484375
8793		17.578125
8794		21.484375
8795		17.578125
8796		21.484375
8797		17.578125
8798		19.531250
8799		17.578125
8800		21.484375
8801		17.578125
8802		19.531250
8803		17.578125
8804		19.531250
8805		15.625000
8806		19.531250
8807		17.578125
8808		19.531250
8809		15.625000
8810		19.531250
8811		15.625000
8812		19.531250
8813		15.625000
8814		17.578125
8815		15.625000
8816		17.578125
8817		13.671875
8818		17.578125
8819		13.671875
8820		17.578125
8821		13.671875
8822		17.578125
8823		13.671875
8824		17.578125
8825		13.671875
8826		15.625000
8827		11.718750
8828		15.625000
8829		11.718750
8830		15.625000
8831		11.718750
8832		15.625000
8833		11.718750
8834		15.625000
8835		11.718750
8836		13.671875
8837		9.765625
8838		13.671875
8839		9.765625
8840		13.671875
8841		9.765625
8842		13.671875
8843		9.765625
8844		11.718750
8845		7.812500
8846		11.718750
8847		9.765625
8848		11.718750
8849		7.812500
8850		11.718750
8851		7.812500
8852		9.765625
8853		7.812500
8854		9.765625
8855		5.859375
8856		9.765625
8857		5.859375
8858		9.765625
8859		5.859375
8860		7.812500
8861		5.859375
8862		7.812500
8863		3.906250
8864		7.812500
8865		3.906250
8866		7.812500
8867		3.906250
8868		7.812500
8869		3.906250
8870		5.859375
8871		3.906250
8872		5.859375
8873		1.953125
8874		5.859375
8875		1.953125
8876		5.859375
8877		1.953125
8878		5.859375
8879		1.953125
8880		3.906250
8881		1.953125
8882		3.906250
8883		0.000000
8884		3.906250
8885		0.000000
8886		3.906250
8887		0.000000
8888		3.906250
8889		0.000000
8890		3.906250
8891		0.000000
8892		3.906250
8893		0.000000
8894		3.906250
8895		0.000000
8896		3.906250
8897		0.000000
8898		1.953125
8899		0.000000
8900		3.906250
8901		0.000000
8902		1.953125
8903		0.000000
8904		1.953125
8905		0.000000
8906		3.906250
8907		0.000000
8908		1.953125
8909		0.000000
8910		1.953125
8911		0.000000
8912		3.906250
8913		0.000000
8914		1.953125
8915		0.000000
8916		1.953125
8917		0.000000
8918		3.906250
8919		0.000000
8920		3.906250
8921		0.000000
8922		3.906250
8923		0.000000
8924		3.906250
8925		0.000000
8926		3.906250
8927		0.000000
8928		3.906250
8929		1.953125
8930		3.906250
8931		1.953125
8932		3.906250
8933		1.953125
8934		5.859375
8935		1.953125
8936		5.859375
8937		1.953125
8938		5.859375
8939		1.953125
8940		5.859375
8941		3.906250
8942		5.859375
8943		3.906250
8944		5.859375
8945		3.906250
8946		7.812500
8947		3.906250
8948		5.859375
8949		5.859375
8950		7.812500
8951		3.906250
8952		7.812500
8953		5.859375
8954		7.812500
8955		5.859375
8956		9.765625
8957		5.859375
8958		9.765625
8959		5.859375
8960		9.765625
8961		7.812500
8962		9.765625
8963		7.812500
8964		9.765625
8965		7.812500
8966		9.765625
8967		7.812500
8968		11.718750
8969		7.812500
8970		11.718750
8971		9.765625
8972		11.718750
8973		9.765625
8974		13.671875
8975		9.765625
8976		13.671875
8977		9.765625
8978		13.671875
8979		9.765625
8980		15.625000
8981		11.718750
8982		13.671875
8983		11.718750
8984		15.625000
8985		11.718750
8986		15.625000
8987		13.671875
8988		15.625000
8989		13.671875
8990		15.625000
8991		13.671875
8992		17.578125
8993		13.671875
8994		17.578125
8995		13.671875
8996		17.578125
8997		15.625000
8998		17.578125
8999		15.625000
9000		17.578125
9001		15.625000
9002		19.531250
9003		15.625000
9004		19.531250
9005		15.625000
9006		19.531250
9007		15.625000
9008		19.531250
9009		15.625000
9010		19.531250
9011		17.578125
9012		19.531250
9013		15.625000
9014		19.531250
9015		17.578125
9016		19.531250
9017		17.578125
9018		21.484375
9019		17.578125
9020		21.484375
9021		17.578125
9022		21.484375
9023		17.578125
9024		21.484375
9025		17.578125
9026		21.484375
9027		17.578125
9028		21.484375
9029		17.578125
9030		21.484375
9031		17.578125
9032		21.484375
9033		17.578125
9034		21.484375
9035		17.578125
9036		21.484375
9037		17.578125
9038		21.484375
9039		17.578125
9040		21.484375
9041		17.578125
9042		21.484375
9043		17.578125
9044		21.484375
9045		17.578125
9046		21.484375
9047		15.625000
9048		21.484375
9049		17.578125
9050		19.531250
9051		17.578125
9052		19.531250
9053		17.578125
9054		19.531250
9055		15.625000
9056		19.531250
9057		15.625000
9058		19.531250
9059		15.625000
9060		19.531250
9061		15.625000
9062		19.531250
9063		15.625000
9064		17.578125
9065		15.625000
9066		17.578125
9067		15.625000
9068		17.578125
9069		13.671875
9070		17.578125
9071		13.671875
9072		17.578125
9073		13.671875
9074		17.578125
9075		13.671875
9076		15.625000
9077		11.718750
9078		15.625000
9079		11.718750
9080		15.625000
9081		11.718750
9082		15.625000
9083		11.718750
9084		13.671875
9085		9.765625
9086		15.625000
9087		9.765625
9088		13.671875
9089		9.765625
9090		13.671875
9091		9.765625
9092		11.718750
9093		7.812500
9094		11.718750
9095		9.765625
9096		11.718750
9097		7.812500
9098		11.718750
9099		7.812500
9100		9.765625
9101		7.812500
9102		9.765625
9103		5.859375
9104		9.765625
9105		5.859375
9106		9.765625
9107		5.859375
9108		9.765625
9109		5.859375
9110		7.812500
9111		5.859375
9112		7.812500
9113		3.906250
9114		7.812500
9115		3.906250
9116		7.812500
9117		3.906250
9118		5.859375
9119		1.953125
9120		5.859375
9121		1.953125
9122		5.859375
9123		1.953125
9124		5.859375
9125		1.953125
9126		5.859375
9127		1.953125
9128		5.859375
9129		1.953125
9130		5.859375
9131		1.953125
9132		3.906250
9133		1.953125
9134		3.906250
9135		0.000000
9136		5.859375
9137		0.000000
9138		3.906250
9139		0.000000
9140		3.906250
9141		0.000000
9142		3.906250
9143		0.000000
9144		1.953125
9145		-1.953125
9146		3.906250
9147		0.000000
9148		1.953125
9149		0.000000
9150		1.953125
9151		-1.953125
9152		3.906250
9153		-1.953125
9154		1.953125
9155		0.000000
9156		1.953125
9157		-1.953125
9158		3.906250
9159		0.000000
9160		1.953125
9161		0.000000
9162		1.953125
9163		0.000000
9164		1.953125
9165		-1.953125
9166		1.953125
9167		0.000000
9168		1.953125
9169		-1.953125
9170		3.906250
9171		0.000000
9172		3.906250
9173		0.000000
9174		3.906250
9175		0.000000
9176		3.906250
9177		0.000000
9178		3.906250
9179		0.000000
9180		3.906250
9181		0.000000
9182		3.906250
9183		1.953125
9184		3.906250
9185		1.953125
9186		5.859375
9187		1.953125
9188		5.859375
9189		1.953125
9190		5.859375
9191		1.953125
9192		5.859375
9193		1.953125
9194		5.859375
9195		3.906250
9196		5.859375
9197		3.906250
9198		7.812500
9199		3.906250
9200		5.859375
9201		5.859375
9202		7.812500
9203		3.906250
9204		9.765625
9205		5.859375
9206		7.812500
9207		5.859375
9208		9.765625
9209		5.859375
9210		9.765625
9211		5.859375
9212		9.765625
9213		7.812500
9214		9.765625
9215		5.859375
9216		11.718750
9217		7.812500
9218		11.718750
9219		7.812500
9220		13.671875
9221		9.765625
9222		11.718750
9223		9.765625
9224		11.718750
9225		9.765625
9226		13.671875
9227		9.765625
9228		13.671875
9229		11.718750
9230		13.671875
9231		9.765625
9232		15.625000
9233		11.718750
9234		13.671875
9235		11.718750
9236		15.625000
9237		11.718750
9238		17.578125
9239		13.671875
9240		15.625000
9241		13.671875
9242		15.625000
9243		13.671875
9244		17.578125
9245		13.671875
9246		17.578125
9247		15.625000
9248		17.578125
9249		13.671875
9250		17.578125
9251		15.625000
9252		19.531250
9253		15.625000
9254		19.531250
9255		15.625000
9256		19.531250
9257		15.625000
9258		19.531250
9259		15.625000
9260		19.531250
9261		17.578125
9262		19.531250
9263		15.625000
9264		21.484375
9265		17.578125
9266		21.484375
9267		17.578125
9268		19.531250
9269		15.625000
9270		21.484375
9271		17.578125
9272		21.484375
9273		17.578125
9274		21.484375
9275		17.578125
9276		21.484375
9277		17.578125
9278		21.484375
9279		17.578125
9280		21.484375
9281		17.578125
9282		21.484375
9283		17.578125
9284		21.484375
9285		17.578125
9286		21.484375
9287		17.578125
9288		21.484375
9289		17.578125
9290		21.484375
9291		17.578125
9292		21.484375
9293		17.578125
9294		21.484375
9295		17.578125
9296		21.484375
9297		17.578125
9298		21.484375
9299		17.578125
9300		21.484375
9301		17.578125
9302		19.531250
9303		15.625000
9304		19.531250
9305		17.578125
9306		19.531250
9307		15.625000
9308		19.531250
9309		15.625000
9310		19.531250
9311		15.625000
9312		19.531250
9313		15.625000
9314		19.531250
9315		13.671875
9316		19.531250
9317		15.625000
9318		17.578125
9319		13.671875
9320		17.578125
9321		13.671875
9322		17.578125
9323		13.671875
9324		17.578125
9325		13.671875
9326		17.578125
9327		11.718750
9328		15.625000
9329		11.718750
9330		15.625000
9331		11.718750
9332		15.625000
9333		11.718750
9334		15.625000
9335		11.718750
9336		13.671875
9337		9.765625
9338		13.671875
9339		9.765625
9340		13.671875
9341		9.765625
9342		13.671875
9343		9.765625
9344		11.718750
9345		9.765625
9346		11.718750
9347		7.812500
9348		11.718750
9349		7.812500
9350		11.718750
9351		7.812500
9352		9.765625
9353		5.859375
9354		9.765625
9355		5.859375
9356		9.765625
9357		5.859375
9358		9.765625
9359		5.859375
9360		9.765625
9361		5.859375
9362		7.812500
9363		3.906250
9364		7.812500
9365		3.906250
9366		7.812500
9367		3.906250
9368		5.859375
9369		3.906250
9370		7.812500
9371		1.953125
9372		5.859375
9373		1.953125
9374		5.859375
9375		1.953125
9376		5.859375
9377		1.953125
9378		5.859375
9379		0.000000
9380		5.859375
9381		1.953125
9382		3.906250
9383		0.000000
9384		3.906250
9385		1.953125
9386		3.906250
9387		0.000000
9388		3.906250
9389		0.000000
9390		3.906250
9391		0.000000
9392		3.906250
9393		0.000000
9394		1.953125
9395		0.000000
9396		3.906250
9397		0.000000
9398		3.906250
9399		0.000000
9400		1.953125
9401		0.000000
9402		1.953125
9403		-1.953125
9404		1.953125
9405		-1.953125
9406		1.953125
9407		-1.953125
9408		1.953125
9409		0.000000
9410		1.953125
9411		0.000000
9412		1.953125
9413		0.000000
9414		1.953125
9415		-1.953125
9416		3.906250
9417		0.000000
9418		3.906250
9419		0.000000
9420		1.953125
9421		0.000000
9422		3.906250
9423		0.000000
9424		3.906250
9425		0.000000
9426		3.906250
9427		0.000000
9428		3.906250
9429		0.000000
9430		3.906250
9431		0.000000
9432		3.906250
9433		0.000000
9434		3.906250
9435		1.953125
9436		3.906250
9437		1.953125
9438		5.859375
9439		1.953125
9440		5.859375
9441		1.953125
9442		5.859375
9443		1.953125
9444		5.859375
9445		1.953125
9446		5.859375
9447		3.906250
9448		5.859375
9449		1.953125
9450		7.812500
9451		3.906250
9452		7.812500
9453		5.859375
9454		7.812500
9455		5.859375
9456		7.812500
9457		5.859375
9458		7.812500
9459		5.859375
9460		7.812500
9461		5.859375
9462		9.765625
9463		7.812500
9464		9.765625
9465		7.812500
9466		9.765625
9467		7.812500
9468		11.718750
9469		7.812500
9470		11.718750
9471		7.812500
9472		11.718750
9473		7.812500
9474		13.671875
9475		9.765625
9476		13.671875
9477		9.765625
9478		13.671875
9479		9.765625
9480		13.671875
9481		11.718750
9482		13.671875
9483		11.718750
9484		15.625000
9485		11.718750
9486		15.625000
9487		11.718750
9488		15.625000
9489		11.718750
9490		15.625000
9491		13.671875
9492		17.578125
9493		13.671875
9494		15.625000
9495		13.671875
9496		17.578125
9497		13.671875
9498		17.578125
9499		13.671875
9500		17.578125
9501		13.671875
9502		17.578125
9503		15.625000
9504		17.578125
9505		15.625000
9506		19.531250
9507		15.625000
9508		19.531250
9509		15.625000
9510		19.531250
9511		15.625000
9512		19.531250
9513		17.578125
9514		19.531250
9515		17.578125
9516		19.531250
9517		15.625000
9518		19.531250
9519		15.625000
9520		19.531250
9521		17.578125
9522		19.531250
9523		17.578125
9524		19.531250
9525		17.578125
9526		19.531250
9527		17.578125
9528		21.484375
9529		17.578125
9530		21.484375
9531		17.578125
9532		21.484375
9533		17.578125
9534		21.484375
9535		17.578125
9536		19.531250
9537		17.578125
9538		19.531250
9539		17.578125
9540		19.531250
9541		17.578125
9542		21.484375
9543		17.578125
9544		19.531250
9545		17.578125
9546		21.484375
9547		17.578125
9548		19.531250
9549		17.578125
9550		19.531250
9551		17.578125
9552		19.531250
9553		17.578125
9554		19.531250
9555		15.625000
9556		19.531250
9557		15.625000
9558		19.531250
9559		15.625000
9560		19.531250
9561		15.625000
9562		17.578125
9563		15.625000
9564		17.578125
9565		13.671875
9566		17.578125
9567		13.671875
9568		17.578125
9569		13.671875
9570		17.578125
9571		13.671875
9572		15.625000
9573		13.671875
9574		17.578125
9575		13.671875
9576		17.578125
9577		11.718750
9578		15.625000
9579		11.718750
9580		15.625000
9581		11.718750
9582		15.625000
9583		11.718750
9584		15.625000
9585		11.718750
9586		13.671875
9587		11.718750
9588		13.671875
9589		9.765625
9590		13.671875
9591		9.765625
9592		11.718750
9593		9.765625
9594		11.718750
9595		7.812500
9596		11.718750
9597		7.812500
9598		11.718750
9599		7.812500
9600		11.718750
9601		5.859375
9602		9.765625
9603		7.812500
9604		9.765625
9605		5.859375
9606		9.765625
9607		5.859375
9608		9.765625
9609		5.859375
9610		9.765625
9611		3.906250
9612		7.812500
9613		3.906250
9614		7.812500
9615		3.906250
9616		7.812500
9617		3.906250
9618		5.859375
9619		3.906250
9620		5.859375
9621		3.906250
9622		5.859375
9623		1.953125
9624		5.859375
9625		1.953125
9626		5.859375
9627		1.953125
9628		5.859375
9629		0.000000
9630		3.906250
9631		1.953125
9632		3.906250
9633		0.000000
9634		3.906250
9635		0.000000
9636		3.906250
9637		0.000000
9638		3.906250
9639		0.000000
9640		3.906250
9641		0.000000
9642		3.906250
9643		0.000000
9644		3.906250
9645		0.000000
9646		1.953125
9647		-1.953125
9648		1.953125
9649		0.000000
9650		1.953125
9651		-1.953125
9652		1.953125
9653		0.000000
9654		1.953125
9655		0.000000
9656		1.953125
9657		-1.953125
9658		1.953125
9659		-1.953125
9660		1.953125
9661		0.000000
9662		1.953125
9663		-1.953125
9664		1.953125
9665		0.000000
9666		1.953125
9667		-1.953125
9668		1.953125
9669		-1.953125
9670		1.953125
9671		0.000000
9672		1.953125
9673		-1.953125
9674		3.906250
9675		0.000000
9676		1.953125
9677		0.000000
9678		3.906250
9679		0.000000
9680		3.906250
9681		0.000000
9682		3.906250
9683		1.953125
9684		3.906250
9685		1.953125
9686		3.906250
9687		1.953125
9688		3.906250
9689		1.953125
9690		3.906250
9691		1.953125
9692		5.859375
9693		1.953125
9694		5.859375
9695		1.953125
9696		5.859375
9697		1.953125
9698		5.859375
9699		3.906250
9700		5.859375
9701		3.906250
9702		7.812500
9703		3.906250
9704		7.812500
9705		5.859375
9706		7.812500
9707		3.906250
9708		7.812500
9709		5.859375
9710		9.765625
9711		5.859375
9712		9.765625
9713		5.859375
9714		9.765625
9715		5.859375
9716		9.765625
9717		7.812500
9718		9.765625
9719		7.812500
9720		11.718750
9721		7.812500
9722		11.718750
9723		9.765625
9724		11.718750
9725		9.765625
9726		11.718750
9727		9.765625
9728		13.671875
9729		9.765625
9730		13.671875
9731		9.765625
9732		13.671875
9733		11.718750
9734		13.671875
9735		9.765625
9736		15.625000
9737		11.718750
9738		15.625000
9739		11.718750
9740		15.625000
9741		11.718750
9742		15.625000
9743		13.671875
9744		15.625000
9745		13.671875
9746		15.625000
9747		13.671875
9748		17.578125
9749		13.671875
9750		17.578125
9751		15.625000
9752		17.578125
9753		13.671875
9754		17.578125
9755		15.625000
9756		17.578125
9757		15.625000
9758		19.531250
9759		15.625000
9760		19.531250
9761		15.625000
9762		19.531250
9763		15.625000
9764		19.531250
9765		15.625000
9766		19.531250
9767		17.578125
9768		19.531250
9769		17.578125
9770		19.531250
9771		17.578125
9772		19.531250
9773		17.578125
9774		19.531250
9775		17.578125
9776		21.484375
9777		17.578125
9778		19.531250
9779		17.578125
9780		19.531250
9781		17.578125
9782		19.531250
9783		17.578125
9784		21.484375
9785		17.578125
9786		21.484375
9787		17.578125
9788		19.531250
9789		17.578125
9790		19.531250
9791		17.578125
9792		21.484375
9793		17.578125
9794		21.484375
9795		17.578125
9796		19.531250
9797		17.578125
9798		19.531250
9799		17.578125
9800		19.531250
9801		17.578125
9802		19.531250
9803		15.625000
9804		19.531250
9805		15.625000
9806		19.531250
9807		15.625000
9808		19.531250
9809		15.625000
9810		17.578125
9811		15.625000
9812		19.531250
9813		15.625000
9814		17.578125
9815		15.625000
9816		17.578125
9817		13.671875
9818		17.578125
9819		13.671875
9820		17.578125
9821		13.671875
9822		17.578125
9823		13.671875
9824		15.625000
9825		13.671875
9826		17.578125
9827		13.671875
9828		15.625000
9829		11.718750
9830		15.625000
9831		11.718750
9832		15.625000
9833		11.718750
9834		15.625000
9835		11.718750
9836		13.671875
9837		9.765625
9838		13.671875
9839		9.765625
9840		13.671875
9841		9.765625
9842		13.671875
9843		9.765625
9844		11.718750
9845		7.812500
9846		11.718750
9847		7.812500
9848		11.718750
9849		7.812500
9850		11.718750
9851		7.812500
9852		9.765625
9853		5.859375
9854		9.765625
9855		5.859375
9856		9.765625
9857		5.859375
9858		9.765625
9859		5.859375
9860		9.765625
9861		3.906250
9862		7.812500
9863		3.906250
9864		7.812500
9865		3.906250
9866		7.812500
9867		3.906250
9868		5.859375
9869		3.906250
9870		5.859375
9871		1.953125
9872		5.859375
9873		1.953125
9874		5.859375
9875		1.953125
9876		5.859375
9877		1.953125
9878		5.859375
9879		1.953125
9880		5.859375
9881		1.953125
9882		3.906250
9883		0.000000
9884		3.906250
9885		0.000000
9886		3.906250
9887		0.000000
9888		3.906250
9889		0.000000
9890		1.953125
9891		-1.953125
9892		3.906250
9893		0.000000
9894		1.953125
9895		0.000000
9896		1.953125
9897		0.000000
9898		1.953125
9899		-1.953125
9900		1.953125
9901		-1.953125
9902		1.953125
9903		-1.953125
9904		1.953125
9905		-1.953125
9906		1.953125
9907		0.000000
9908		1.953125
9909		-1.953125
9910		1.953125
9911		-1.953125
9912		1.953125
9913		-1.953125
9914		1.953125
9915		-1.953125
9916		1.953125
9917		-1.953125
9918		1.953125
9919		-1.953125
9920		1.953125
9921		-1.953125
9922		1.953125
9923		0.000000
9924		1.953125
9925		0.000000
9926		3.906250
9927		0.000000
9928		3.906250
9929		0.000000
9930		1.953125
9931		0.000000
9932		1.953125
9933		0.000000
9934		3.906250
9935		0.000000
9936		3.906250
9937		0.000000
9938		3.906250
9939		1.953125
9940		3.906250
9941		1.953125
9942		3.906250
9943		1.953125
9944		3.906250
9945		1.953125
9946		5.859375
9947		1.953125
9948		5.859375
9949		1.953125
9950		5.859375
9951		1.953125
9952		5.859375
9953		3.906250
9954		5.859375
9955		3.906250
9956		7.812500
9957		5.859375
9958		7.812500
9959		3.906250
9960		7.812500
9961		5.859375
9962		9.765625
9963		5.859375
9964		9.765625
9965		5.859375
9966		9.765625
9967		5.859375
9968		9.765625
9969		7.812500
9970		11.718750
9971		7.812500
9972		11.718750
9973		7.812500
9974		11.718750
9975		7.812500
9976		11.718750
9977		9.765625
9978		11.718750
9979		9.765625
9980		13.671875
9981		9.765625
9982		13.671875
9983		9.765625
9984		13.671875
9985		9.765625
9986		13.671875
9987		11.718750
9988		13.671875
9989		11.718750
9990		15.625000
9991		13.671875
9992		15.625000
9993		11.718750
9994		15.625000
9995		11.718750
9996		17.578125
9997		13.671875
9998		15.625000
9999		13.671875
10000		17.578125
