Channel              :		CH1
Frequency            :		1.995kHz
Period               :		0.501ms
PK-PK                :		54.69mV
Probe attenuation    :		1X
Voltage per ADC value:		0.122070mV
Time interval        :		2.00000us

index		CH1_Voltage(mV)
1		27.343750
2		27.343750
3		25.390625
4		29.296875
5		25.390625
6		29.296875
7		27.343750
8		31.250000
9		27.343750
10		31.250000
11		27.343750
12		31.250000
13		29.296875
14		31.250000
15		27.343750
16		33.203125
17		29.296875
18		33.203125
19		29.296875
20		33.203125
21		29.296875
22		33.203125
23		29.296875
24		33.203125
25		31.250000
26		33.203125
27		31.250000
28		33.203125
29		31.250000
30		33.203125
31		31.250000
32		33.203125
33		29.296875
34		35.156250
35		31.250000
36		33.203125
37		31.250000
38		33.203125
39		31.250000
40		33.203125
41		29.296875
42		33.203125
43		29.296875
44		33.203125
45		29.296875
46		33.203125
47		29.296875
48		31.250000
49		27.343750
50		31.250000
51		27.343750
52		31.250000
53		27.343750
54		31.250000
55		27.343750
56		29.296875
57		25.390625
58		29.296875
59		25.390625
60		29.296875
61		23.437500
62		29.296875
63		25.390625
64		27.343750
65		23.437500
66		25.390625
67		21.484375
68		25.390625
69		21.484375
70		25.390625
71		21.484375
72		25.390625
73		19.531250
74		23.437500
75		17.578125
76		21.484375
77		15.625000
78		21.484375
79		17.578125
80		19.531250
81		15.625000
82		19.531250
83		13.671875
84		17.578125
85		13.671875
86		17.578125
87		11.718750
88		15.625000
89		11.718750
90		13.671875
91		9.765625
92		13.671875
93		9.765625
94		11.718750
95		7.812500
96		11.718750
97		7.812500
98		9.765625
99		5.859375
100		9.765625
101		3.906250
102		7.812500
103		3.906250
104		7.812500
105		1.953125
106		5.859375
107		0.000000
108		3.906250
109		0.000000
110		3.906250
111		-1.953125
112		1.953125
113		-1.953125
114		0.000000
115		-1.953125
116		0.000000
117		-3.906250
118		0.000000
119		-5.859375
120		-1.953125
121		-5.859375
122		-1.953125
123		-5.859375
124		-3.906250
125		-7.812500
126		-3.906250
127		-7.812500
128		-5.859375
129		-9.765625
130		-5.859375
131		-9.765625
132		-7.812500
133		-9.765625
134		-7.812500
135		-13.671875
136		-7.812500
137		-11.718750
138		-7.812500
139		-11.718750
140		-9.765625
141		-11.718750
142		-9.765625
143		-13.671875
144		-7.812500
145		-13.671875
146		-9.765625
147		-13.671875
148		-11.718750
149		-15.625000
150		-11.718750
151		-15.625000
152		-9.765625
153		-15.625000
154		-9.765625
155		-13.671875
156		-11.718750
157		-13.671875
158		-11.718750
159		-13.671875
160		-11.718750
161		-15.625000
162		-9.765625
163		-13.671875
164		-11.718750
165		-13.671875
166		-11.718750
167		-15.625000
168		-9.765625
169		-15.625000
170		-7.812500
171		-15.625000
172		-7.812500
173		-13.671875
174		-7.812500
175		-13.671875
176		-5.859375
177		-13.671875
178		-5.859375
179		-11.718750
180		-7.812500
181		-9.765625
182		-7.812500
183		-9.765625
184		-5.859375
185		-9.765625
186		-3.906250
187		-9.765625
188		-3.906250
189		-9.765625
190		-1.953125
191		-7.812500
192		-1.953125
193		-7.812500
194		0.000000
195		-5.859375
196		0.000000
197		-3.906250
198		0.000000
199		-1.953125
200		0.000000
201		-3.906250
202		3.906250
203		-1.953125
204		3.906250
205		-1.953125
206		5.859375
207		0.000000
208		7.812500
209		0.000000
210		7.812500
211		1.953125
212		9.765625
213		3.906250
214		7.812500
215		5.859375
216		9.765625
217		5.859375
218		11.718750
219		5.859375
220		13.671875
221		5.859375
222		13.671875
223		7.812500
224		15.625000
225		9.765625
226		17.578125
227		11.718750
228		17.578125
229		11.718750
230		17.578125
231		15.625000
232		17.578125
233		15.625000
234		19.531250
235		15.625000
236		21.484375
237		15.625000
238		23.437500
239		17.578125
240		23.437500
241		17.578125
242		25.390625
243		19.531250
244		25.390625
245		19.531250
246		27.343750
247		23.437500
248		25.390625
249		23.437500
250		27.343750
251		23.437500
252		29.296875
253		23.437500
254		29.296875
255		23.437500
256		31.250000
257		23.437500
258		31.250000
259		25.390625
260		33.203125
261		25.390625
262		33.203125
263		27.343750
264		33.203125
265		29.296875
266		31.250000
267		27.343750
268		33.203125
269		27.343750
270		35.156250
271		27.343750
272		35.156250
273		27.343750
274		35.156250
275		27.343750
276		35.156250
277		29.296875
278		35.156250
279		29.296875
280		35.156250
281		31.250000
282		33.203125
283		31.250000
284		33.203125
285		29.296875
286		35.156250
287		29.296875
288		35.156250
289		27.343750
290		35.156250
291		29.296875
292		35.156250
293		27.343750
294		35.156250
295		27.343750
296		35.156250
297		27.343750
298		33.203125
299		29.296875
300		31.250000
301		25.390625
302		33.203125
303		25.390625
304		33.203125
305		25.390625
306		31.250000
307		25.390625
308		31.250000
309		23.437500
310		31.250000
311		21.484375
312		29.296875
313		23.437500
314		29.296875
315		23.437500
316		27.343750
317		23.437500
318		25.390625
319		19.531250
320		27.343750
321		19.531250
322		25.390625
323		17.578125
324		25.390625
325		17.578125
326		23.437500
327		15.625000
328		23.437500
329		15.625000
330		23.437500
331		15.625000
332		19.531250
333		15.625000
334		17.578125
335		11.718750
336		19.531250
337		9.765625
338		17.578125
339		9.765625
340		17.578125
341		7.812500
342		17.578125
343		7.812500
344		15.625000
345		5.859375
346		13.671875
347		5.859375
348		11.718750
349		5.859375
350		9.765625
351		1.953125
352		9.765625
353		1.953125
354		9.765625
355		0.000000
356		7.812500
357		0.000000
358		7.812500
359		-1.953125
360		5.859375
361		-3.906250
362		3.906250
363		-3.906250
364		3.906250
365		-1.953125
366		0.000000
367		-3.906250
368		0.000000
369		-5.859375
370		0.000000
371		-7.812500
372		0.000000
373		-7.812500
374		-1.953125
375		-9.765625
376		-1.953125
377		-9.765625
378		-1.953125
379		-11.718750
380		-3.906250
381		-11.718750
382		-3.906250
383		-9.765625
384		-7.812500
385		-13.671875
386		-5.859375
387		-13.671875
388		-5.859375
389		-13.671875
390		-7.812500
391		-15.625000
392		-7.812500
393		-15.625000
394		-7.812500
395		-15.625000
396		-9.765625
397		-15.625000
398		-9.765625
399		-13.671875
400		-11.718750
401		-13.671875
402		-11.718750
403		-15.625000
404		-9.765625
405		-15.625000
406		-9.765625
407		-17.578125
408		-9.765625
409		-17.578125
410		-9.765625
411		-17.578125
412		-9.765625
413		-15.625000
414		-9.765625
415		-15.625000
416		-11.718750
417		-13.671875
418		-11.718750
419		-15.625000
420		-7.812500
421		-15.625000
422		-7.812500
423		-15.625000
424		-7.812500
425		-13.671875
426		-5.859375
427		-13.671875
428		-7.812500
429		-13.671875
430		-5.859375
431		-13.671875
432		-5.859375
433		-9.765625
434		-7.812500
435		-9.765625
436		-3.906250
437		-11.718750
438		-3.906250
439		-9.765625
440		-1.953125
441		-9.765625
442		-1.953125
443		-7.812500
444		0.000000
445		-7.812500
446		0.000000
447		-5.859375
448		0.000000
449		-1.953125
450		0.000000
451		-1.953125
452		0.000000
453		-3.906250
454		3.906250
455		-1.953125
456		3.906250
457		-1.953125
458		5.859375
459		0.000000
460		7.812500
461		0.000000
462		7.812500
463		1.953125
464		9.765625
465		3.906250
466		9.765625
467		5.859375
468		9.765625
469		5.859375
470		13.671875
471		5.859375
472		13.671875
473		7.812500
474		15.625000
475		7.812500
476		15.625000
477		9.765625
478		17.578125
479		11.718750
480		19.531250
481		11.718750
482		19.531250
483		15.625000
484		17.578125
485		17.578125
486		19.531250
487		15.625000
488		23.437500
489		15.625000
490		23.437500
491		17.578125
492		25.390625
493		19.531250
494		25.390625
495		19.531250
496		27.343750
497		19.531250
498		27.343750
499		21.484375
500		27.343750
501		23.437500
502		27.343750
503		23.437500
504		29.296875
505		23.437500
506		31.250000
507		23.437500
508		31.250000
509		25.390625
510		31.250000
511		25.390625
512		33.203125
513		25.390625
514		33.203125
515		25.390625
516		33.203125
517		29.296875
518		31.250000
519		29.296875
520		33.203125
521		27.343750
522		35.156250
523		27.343750
524		35.156250
525		27.343750
526		35.156250
527		27.343750
528		35.156250
529		27.343750
530		35.156250
531		29.296875
532		35.156250
533		31.250000
534		33.203125
535		29.296875
536		35.156250
537		29.296875
538		35.156250
539		29.296875
540		35.156250
541		27.343750
542		35.156250
543		27.343750
544		35.156250
545		27.343750
546		35.156250
547		27.343750
548		35.156250
549		27.343750
550		33.203125
551		29.296875
552		31.250000
553		25.390625
554		33.203125
555		25.390625
556		33.203125
557		23.437500
558		31.250000
559		23.437500
560		31.250000
561		23.437500
562		31.250000
563		23.437500
564		29.296875
565		23.437500
566		29.296875
567		23.437500
568		25.390625
569		21.484375
570		25.390625
571		19.531250
572		27.343750
573		17.578125
574		25.390625
575		17.578125
576		23.437500
577		15.625000
578		23.437500
579		15.625000
580		23.437500
581		13.671875
582		21.484375
583		15.625000
584		19.531250
585		13.671875
586		17.578125
587		11.718750
588		17.578125
589		9.765625
590		17.578125
591		9.765625
592		15.625000
593		7.812500
594		15.625000
595		7.812500
596		13.671875
597		5.859375
598		13.671875
599		5.859375
600		11.718750
601		5.859375
602		7.812500
603		3.906250
604		7.812500
605		0.000000
606		7.812500
607		0.000000
608		7.812500
609		-1.953125
610		5.859375
611		-1.953125
612		5.859375
613		-1.953125
614		3.906250
615		-3.906250
616		3.906250
617		-3.906250
618		0.000000
619		-3.906250
620		-1.953125
621		-7.812500
622		0.000000
623		-7.812500
624		0.000000
625		-9.765625
626		-1.953125
627		-9.765625
628		-1.953125
629		-9.765625
630		-3.906250
631		-11.718750
632		-3.906250
633		-11.718750
634		-3.906250
635		-9.765625
636		-7.812500
637		-13.671875
638		-5.859375
639		-13.671875
640		-5.859375
641		-13.671875
642		-7.812500
643		-15.625000
644		-7.812500
645		-15.625000
646		-7.812500
647		-15.625000
648		-7.812500
649		-15.625000
650		-9.765625
651		-13.671875
652		-11.718750
653		-13.671875
654		-11.718750
655		-15.625000
656		-9.765625
657		-15.625000
658		-9.765625
659		-17.578125
660		-9.765625
661		-15.625000
662		-9.765625
663		-15.625000
664		-9.765625
665		-15.625000
666		-9.765625
667		-15.625000
668		-9.765625
669		-13.671875
670		-9.765625
671		-15.625000
672		-7.812500
673		-15.625000
674		-7.812500
675		-13.671875
676		-7.812500
677		-13.671875
678		-7.812500
679		-13.671875
680		-5.859375
681		-13.671875
682		-5.859375
683		-11.718750
684		-5.859375
685		-9.765625
686		-5.859375
687		-9.765625
688		-3.906250
689		-9.765625
690		-3.906250
691		-9.765625
692		-1.953125
693		-7.812500
694		-1.953125
695		-7.812500
696		0.000000
697		-5.859375
698		0.000000
699		-5.859375
700		1.953125
701		-1.953125
702		0.000000
703		-1.953125
704		1.953125
705		-1.953125
706		3.906250
707		-1.953125
708		5.859375
709		0.000000
710		5.859375
711		0.000000
712		7.812500
713		1.953125
714		9.765625
715		1.953125
716		9.765625
717		3.906250
718		9.765625
719		7.812500
720		9.765625
721		7.812500
722		13.671875
723		7.812500
724		13.671875
725		7.812500
726		15.625000
727		9.765625
728		17.578125
729		9.765625
730		17.578125
731		11.718750
732		19.531250
733		13.671875
734		19.531250
735		15.625000
736		19.531250
737		17.578125
738		19.531250
739		15.625000
740		23.437500
741		17.578125
742		23.437500
743		17.578125
744		25.390625
745		19.531250
746		25.390625
747		19.531250
748		27.343750
749		19.531250
750		27.343750
751		21.484375
752		27.343750
753		25.390625
754		27.343750
755		23.437500
756		29.296875
757		23.437500
758		31.250000
759		23.437500
760		31.250000
761		25.390625
762		31.250000
763		25.390625
764		33.203125
765		25.390625
766		33.203125
767		27.343750
768		33.203125
769		29.296875
770		31.250000
771		29.296875
772		33.203125
773		27.343750
774		35.156250
775		27.343750
776		35.156250
777		27.343750
778		35.156250
779		27.343750
780		35.156250
781		29.296875
782		35.156250
783		27.343750
784		37.109375
785		31.250000
786		33.203125
787		31.250000
788		33.203125
789		29.296875
790		35.156250
791		29.296875
792		35.156250
793		27.343750
794		35.156250
795		27.343750
796		35.156250
797		27.343750
798		35.156250
799		27.343750
800		35.156250
801		25.390625
802		33.203125
803		29.296875
804		31.250000
805		25.390625
806		31.250000
807		25.390625
808		31.250000
809		23.437500
810		31.250000
811		23.437500
812		31.250000
813		23.437500
814		29.296875
815		21.484375
816		29.296875
817		21.484375
818		29.296875
819		23.437500
820		25.390625
821		21.484375
822		25.390625
823		19.531250
824		25.390625
825		17.578125
826		25.390625
827		17.578125
828		23.437500
829		15.625000
830		23.437500
831		13.671875
832		21.484375
833		13.671875
834		21.484375
835		13.671875
836		19.531250
837		13.671875
838		17.578125
839		9.765625
840		17.578125
841		9.765625
842		17.578125
843		7.812500
844		15.625000
845		5.859375
846		15.625000
847		5.859375
848		13.671875
849		3.906250
850		11.718750
851		3.906250
852		11.718750
853		5.859375
854		7.812500
855		3.906250
856		5.859375
857		0.000000
858		7.812500
859		0.000000
860		5.859375
861		-1.953125
862		5.859375
863		-1.953125
864		3.906250
865		-3.906250
866		3.906250
867		-3.906250
868		1.953125
869		-3.906250
870		0.000000
871		-5.859375
872		-1.953125
873		-7.812500
874		-1.953125
875		-9.765625
876		-1.953125
877		-9.765625
878		-1.953125
879		-9.765625
880		-3.906250
881		-11.718750
882		-3.906250
883		-11.718750
884		-3.906250
885		-11.718750
886		-5.859375
887		-11.718750
888		-7.812500
889		-13.671875
890		-7.812500
891		-15.625000
892		-7.812500
893		-15.625000
894		-7.812500
895		-15.625000
896		-7.812500
897		-15.625000
898		-7.812500
899		-15.625000
900		-7.812500
901		-15.625000
902		-9.765625
903		-13.671875
904		-11.718750
905		-13.671875
906		-11.718750
907		-17.578125
908		-9.765625
909		-17.578125
910		-9.765625
911		-17.578125
912		-9.765625
913		-17.578125
914		-9.765625
915		-15.625000
916		-9.765625
917		-15.625000
918		-9.765625
919		-15.625000
920		-9.765625
921		-13.671875
922		-11.718750
923		-15.625000
924		-7.812500
925		-15.625000
926		-7.812500
927		-13.671875
928		-7.812500
929		-13.671875
930		-5.859375
931		-13.671875
932		-5.859375
933		-11.718750
934		-5.859375
935		-11.718750
936		-5.859375
937		-9.765625
938		-5.859375
939		-7.812500
940		-5.859375
941		-9.765625
942		-3.906250
943		-9.765625
944		-1.953125
945		-7.812500
946		-1.953125
947		-7.812500
948		0.000000
949		-5.859375
950		0.000000
951		-5.859375
952		1.953125
953		-1.953125
954		0.000000
955		-1.953125
956		1.953125
957		-1.953125
958		3.906250
959		0.000000
960		5.859375
961		0.000000
962		7.812500
963		0.000000
964		7.812500
965		1.953125
966		9.765625
967		3.906250
968		9.765625
969		3.906250
970		11.718750
971		7.812500
972		9.765625
973		9.765625
974		13.671875
975		7.812500
976		15.625000
977		9.765625
978		15.625000
979		9.765625
980		17.578125
981		11.718750
982		19.531250
983		11.718750
984		19.531250
985		13.671875
986		19.531250
987		17.578125
988		19.531250
989		17.578125
990		19.531250
991		17.578125
992		23.437500
993		17.578125
994		25.390625
995		19.531250
996		25.390625
997		19.531250
998		27.343750
999		19.531250
1000		27.343750
1001		21.484375
1002		27.343750
1003		23.437500
1004		27.343750
1005		25.390625
1006		27.343750
1007		23.437500
1008		29.296875
1009		23.437500
1010		31.250000
1011		25.390625
1012		31.250000
1013		27.343750
1014		29.296875
1015		25.390625
1016		33.203125
1017		27.343750
1018		33.203125
1019		25.390625
1020		33.203125
1021		29.296875
1022		31.250000
1023		29.296875
1024		31.250000
1025		27.343750
1026		35.156250
1027		27.343750
1028		35.156250
1029		31.250000
1030		33.203125
1031		29.296875
1032		35.156250
1033		29.296875
1034		35.156250
1035		27.343750
1036		35.156250
1037		29.296875
1038		33.203125
1039		31.250000
1040		33.203125
1041		29.296875
1042		33.203125
1043		29.296875
1044		35.156250
1045		29.296875
1046		33.203125
1047		29.296875
1048		33.203125
1049		29.296875
1050		33.203125
1051		25.390625
1052		33.203125
1053		27.343750
1054		31.250000
1055		27.343750
1056		31.250000
1057		25.390625
1058		31.250000
1059		25.390625
1060		31.250000
1061		25.390625
1062		29.296875
1063		25.390625
1064		27.343750
1065		23.437500
1066		29.296875
1067		23.437500
1068		27.343750
1069		21.484375
1070		27.343750
1071		21.484375
1072		25.390625
1073		21.484375
1074		23.437500
1075		19.531250
1076		23.437500
1077		19.531250
1078		21.484375
1079		17.578125
1080		21.484375
1081		17.578125
1082		19.531250
1083		15.625000
1084		21.484375
1085		13.671875
1086		17.578125
1087		13.671875
1088		17.578125
1089		13.671875
1090		15.625000
1091		9.765625
1092		15.625000
1093		11.718750
1094		13.671875
1095		9.765625
1096		13.671875
1097		7.812500
1098		11.718750
1099		5.859375
1100		11.718750
1101		5.859375
1102		9.765625
1103		3.906250
1104		7.812500
1105		3.906250
1106		7.812500
1107		3.906250
1108		5.859375
1109		1.953125
1110		5.859375
1111		0.000000
1112		3.906250
1113		0.000000
1114		3.906250
1115		-1.953125
1116		1.953125
1117		-3.906250
1118		0.000000
1119		-3.906250
1120		0.000000
1121		-3.906250
1122		0.000000
1123		-5.859375
1124		-1.953125
1125		-7.812500
1126		-3.906250
1127		-7.812500
1128		-3.906250
1129		-7.812500
1130		-5.859375
1131		-9.765625
1132		-5.859375
1133		-9.765625
1134		-7.812500
1135		-11.718750
1136		-7.812500
1137		-11.718750
1138		-7.812500
1139		-11.718750
1140		-9.765625
1141		-13.671875
1142		-7.812500
1143		-11.718750
1144		-9.765625
1145		-13.671875
1146		-9.765625
1147		-13.671875
1148		-9.765625
1149		-13.671875
1150		-11.718750
1151		-13.671875
1152		-11.718750
1153		-15.625000
1154		-11.718750
1155		-13.671875
1156		-11.718750
1157		-15.625000
1158		-11.718750
1159		-15.625000
1160		-11.718750
1161		-15.625000
1162		-11.718750
1163		-15.625000
1164		-11.718750
1165		-15.625000
1166		-11.718750
1167		-15.625000
1168		-11.718750
1169		-13.671875
1170		-11.718750
1171		-15.625000
1172		-11.718750
1173		-13.671875
1174		-11.718750
1175		-13.671875
1176		-9.765625
1177		-13.671875
1178		-9.765625
1179		-11.718750
1180		-9.765625
1181		-11.718750
1182		-9.765625
1183		-11.718750
1184		-7.812500
1185		-11.718750
1186		-7.812500
1187		-9.765625
1188		-5.859375
1189		-7.812500
1190		-5.859375
1191		-9.765625
1192		-5.859375
1193		-7.812500
1194		-3.906250
1195		-7.812500
1196		-3.906250
1197		-5.859375
1198		-1.953125
1199		-3.906250
1200		-1.953125
1201		-3.906250
1202		-1.953125
1203		-3.906250
1204		0.000000
1205		-1.953125
1206		0.000000
1207		0.000000
1208		1.953125
1209		0.000000
1210		3.906250
1211		1.953125
1212		5.859375
1213		1.953125
1214		5.859375
1215		3.906250
1216		5.859375
1217		3.906250
1218		7.812500
1219		5.859375
1220		9.765625
1221		5.859375
1222		9.765625
1223		7.812500
1224		11.718750
1225		9.765625
1226		13.671875
1227		9.765625
1228		13.671875
1229		11.718750
1230		15.625000
1231		11.718750
1232		15.625000
1233		13.671875
1234		17.578125
1235		15.625000
1236		17.578125
1237		15.625000
1238		19.531250
1239		17.578125
1240		19.531250
1241		17.578125
1242		21.484375
1243		19.531250
1244		21.484375
1245		19.531250
1246		23.437500
1247		19.531250
1248		23.437500
1249		21.484375
1250		25.390625
1251		21.484375
1252		25.390625
1253		23.437500
1254		27.343750
1255		23.437500
1256		27.343750
1257		25.390625
1258		27.343750
1259		25.390625
1260		29.296875
1261		25.390625
1262		29.296875
1263		27.343750
1264		29.296875
1265		27.343750
1266		31.250000
1267		27.343750
1268		31.250000
1269		27.343750
1270		31.250000
1271		27.343750
1272		33.203125
1273		29.296875
1274		31.250000
1275		29.296875
1276		33.203125
1277		29.296875
1278		33.203125
1279		29.296875
1280		33.203125
1281		31.250000
1282		33.203125
1283		29.296875
1284		33.203125
1285		31.250000
1286		33.203125
1287		29.296875
1288		33.203125
1289		29.296875
1290		33.203125
1291		31.250000
1292		33.203125
1293		29.296875
1294		33.203125
1295		29.296875
1296		33.203125
1297		29.296875
1298		33.203125
1299		27.343750
1300		31.250000
1301		29.296875
1302		31.250000
1303		27.343750
1304		31.250000
1305		27.343750
1306		31.250000
1307		27.343750
1308		29.296875
1309		25.390625
1310		29.296875
1311		25.390625
1312		29.296875
1313		25.390625
1314		27.343750
1315		25.390625
1316		27.343750
1317		23.437500
1318		27.343750
1319		23.437500
1320		25.390625
1321		21.484375
1322		25.390625
1323		21.484375
1324		23.437500
1325		21.484375
1326		23.437500
1327		19.531250
1328		23.437500
1329		17.578125
1330		21.484375
1331		17.578125
1332		21.484375
1333		17.578125
1334		19.531250
1335		15.625000
1336		19.531250
1337		13.671875
1338		17.578125
1339		13.671875
1340		17.578125
1341		11.718750
1342		15.625000
1343		9.765625
1344		15.625000
1345		9.765625
1346		13.671875
1347		7.812500
1348		11.718750
1349		7.812500
1350		11.718750
1351		5.859375
1352		9.765625
1353		5.859375
1354		7.812500
1355		3.906250
1356		7.812500
1357		3.906250
1358		5.859375
1359		1.953125
1360		3.906250
1361		0.000000
1362		5.859375
1363		0.000000
1364		3.906250
1365		-1.953125
1366		1.953125
1367		-1.953125
1368		0.000000
1369		-3.906250
1370		0.000000
1371		-3.906250
1372		-1.953125
1373		-5.859375
1374		-1.953125
1375		-5.859375
1376		-3.906250
1377		-7.812500
1378		-3.906250
1379		-7.812500
1380		-3.906250
1381		-9.765625
1382		-5.859375
1383		-9.765625
1384		-5.859375
1385		-9.765625
1386		-7.812500
1387		-11.718750
1388		-7.812500
1389		-11.718750
1390		-7.812500
1391		-11.718750
1392		-9.765625
1393		-13.671875
1394		-9.765625
1395		-13.671875
1396		-9.765625
1397		-13.671875
1398		-9.765625
1399		-13.671875
1400		-11.718750
1401		-13.671875
1402		-11.718750
1403		-15.625000
1404		-11.718750
1405		-15.625000
1406		-11.718750
1407		-13.671875
1408		-11.718750
1409		-13.671875
1410		-11.718750
1411		-15.625000
1412		-11.718750
1413		-15.625000
1414		-11.718750
1415		-15.625000
1416		-11.718750
1417		-15.625000
1418		-11.718750
1419		-15.625000
1420		-11.718750
1421		-13.671875
1422		-11.718750
1423		-13.671875
1424		-11.718750
1425		-13.671875
1426		-11.718750
1427		-13.671875
1428		-7.812500
1429		-13.671875
1430		-9.765625
1431		-11.718750
1432		-9.765625
1433		-11.718750
1434		-9.765625
1435		-11.718750
1436		-7.812500
1437		-9.765625
1438		-7.812500
1439		-9.765625
1440		-5.859375
1441		-7.812500
1442		-5.859375
1443		-7.812500
1444		-5.859375
1445		-7.812500
1446		-3.906250
1447		-5.859375
1448		-3.906250
1449		-5.859375
1450		-1.953125
1451		-3.906250
1452		0.000000
1453		-3.906250
1454		0.000000
1455		-3.906250
1456		1.953125
1457		-1.953125
1458		1.953125
1459		0.000000
1460		1.953125
1461		0.000000
1462		3.906250
1463		1.953125
1464		5.859375
1465		1.953125
1466		5.859375
1467		3.906250
1468		7.812500
1469		3.906250
1470		7.812500
1471		5.859375
1472		9.765625
1473		7.812500
1474		9.765625
1475		9.765625
1476		11.718750
1477		9.765625
1478		13.671875
1479		9.765625
1480		15.625000
1481		11.718750
1482		15.625000
1483		13.671875
1484		17.578125
1485		13.671875
1486		17.578125
1487		15.625000
1488		19.531250
1489		15.625000
1490		19.531250
1491		17.578125
1492		19.531250
1493		17.578125
1494		21.484375
1495		19.531250
1496		23.437500
1497		19.531250
1498		23.437500
1499		21.484375
1500		23.437500
1501		21.484375
1502		25.390625
1503		23.437500
1504		25.390625
1505		23.437500
1506		27.343750
1507		23.437500
1508		27.343750
1509		25.390625
1510		27.343750
1511		25.390625
1512		29.296875
1513		27.343750
1514		29.296875
1515		27.343750
1516		31.250000
1517		27.343750
1518		31.250000
1519		27.343750
1520		31.250000
1521		27.343750
1522		31.250000
1523		29.296875
1524		33.203125
1525		29.296875
1526		31.250000
1527		29.296875
1528		31.250000
1529		29.296875
1530		33.203125
1531		29.296875
1532		33.203125
1533		29.296875
1534		33.203125
1535		29.296875
1536		33.203125
1537		31.250000
1538		33.203125
1539		29.296875
1540		33.203125
1541		29.296875
1542		33.203125
1543		31.250000
1544		33.203125
1545		29.296875
1546		33.203125
1547		29.296875
1548		33.203125
1549		29.296875
1550		31.250000
1551		29.296875
1552		31.250000
1553		29.296875
1554		31.250000
1555		27.343750
1556		31.250000
1557		27.343750
1558		31.250000
1559		27.343750
1560		29.296875
1561		27.343750
1562		29.296875
1563		25.390625
1564		29.296875
1565		25.390625
1566		27.343750
1567		23.437500
1568		27.343750
1569		23.437500
1570		25.390625
1571		21.484375
1572		25.390625
1573		21.484375
1574		25.390625
1575		21.484375
1576		23.437500
1577		19.531250
1578		21.484375
1579		19.531250
1580		23.437500
1581		17.578125
1582		21.484375
1583		15.625000
1584		19.531250
1585		15.625000
1586		19.531250
1587		13.671875
1588		17.578125
1589		13.671875
1590		17.578125
1591		11.718750
1592		15.625000
1593		11.718750
1594		13.671875
1595		9.765625
1596		13.671875
1597		9.765625
1598		13.671875
1599		7.812500
1600		11.718750
1601		7.812500
1602		9.765625
1603		5.859375
1604		9.765625
1605		3.906250
1606		7.812500
1607		3.906250
1608		7.812500
1609		1.953125
1610		5.859375
1611		1.953125
1612		3.906250
1613		0.000000
1614		3.906250
1615		0.000000
1616		1.953125
1617		-1.953125
1618		0.000000
1619		-1.953125
1620		0.000000
1621		-3.906250
1622		0.000000
1623		-3.906250
1624		-1.953125
1625		-5.859375
1626		-1.953125
1627		-5.859375
1628		-3.906250
1629		-7.812500
1630		-3.906250
1631		-7.812500
1632		-5.859375
1633		-9.765625
1634		-5.859375
1635		-9.765625
1636		-5.859375
1637		-11.718750
1638		-7.812500
1639		-11.718750
1640		-7.812500
1641		-11.718750
1642		-7.812500
1643		-11.718750
1644		-9.765625
1645		-11.718750
1646		-9.765625
1647		-13.671875
1648		-9.765625
1649		-13.671875
1650		-11.718750
1651		-13.671875
1652		-11.718750
1653		-15.625000
1654		-11.718750
1655		-15.625000
1656		-11.718750
1657		-15.625000
1658		-11.718750
1659		-15.625000
1660		-11.718750
1661		-15.625000
1662		-11.718750
1663		-15.625000
1664		-11.718750
1665		-15.625000
1666		-11.718750
1667		-15.625000
1668		-11.718750
1669		-15.625000
1670		-11.718750
1671		-15.625000
1672		-11.718750
1673		-13.671875
1674		-11.718750
1675		-13.671875
1676		-9.765625
1677		-13.671875
1678		-9.765625
1679		-13.671875
1680		-9.765625
1681		-11.718750
1682		-9.765625
1683		-11.718750
1684		-9.765625
1685		-11.718750
1686		-7.812500
1687		-11.718750
1688		-7.812500
1689		-9.765625
1690		-5.859375
1691		-9.765625
1692		-5.859375
1693		-7.812500
1694		-5.859375
1695		-7.812500
1696		-3.906250
1697		-7.812500
1698		-3.906250
1699		-5.859375
1700		-1.953125
1701		-5.859375
1702		-1.953125
1703		-3.906250
1704		0.000000
1705		-3.906250
1706		0.000000
1707		-1.953125
1708		1.953125
1709		-1.953125
1710		1.953125
1711		0.000000
1712		1.953125
1713		1.953125
1714		5.859375
1715		1.953125
1716		5.859375
1717		3.906250
1718		7.812500
1719		3.906250
1720		7.812500
1721		5.859375
1722		9.765625
1723		5.859375
1724		9.765625
1725		7.812500
1726		11.718750
1727		9.765625
1728		11.718750
1729		9.765625
1730		13.671875
1731		11.718750
1732		15.625000
1733		11.718750
1734		15.625000
1735		13.671875
1736		17.578125
1737		15.625000
1738		17.578125
1739		15.625000
1740		19.531250
1741		15.625000
1742		19.531250
1743		15.625000
1744		21.484375
1745		19.531250
1746		21.484375
1747		19.531250
1748		23.437500
1749		21.484375
1750		23.437500
1751		21.484375
1752		23.437500
1753		21.484375
1754		25.390625
1755		23.437500
1756		25.390625
1757		23.437500
1758		27.343750
1759		25.390625
1760		27.343750
1761		25.390625
1762		29.296875
1763		25.390625
1764		29.296875
1765		25.390625
1766		29.296875
1767		27.343750
1768		31.250000
1769		27.343750
1770		31.250000
1771		29.296875
1772		31.250000
1773		29.296875
1774		31.250000
1775		27.343750
1776		31.250000
1777		29.296875
1778		31.250000
1779		27.343750
1780		33.203125
1781		29.296875
1782		33.203125
1783		29.296875
1784		33.203125
1785		29.296875
1786		33.203125
1787		29.296875
1788		33.203125
1789		29.296875
1790		33.203125
1791		29.296875
1792		33.203125
1793		29.296875
1794		33.203125
1795		29.296875
1796		33.203125
1797		29.296875
1798		33.203125
1799		29.296875
1800		33.203125
1801		27.343750
1802		31.250000
1803		29.296875
1804		31.250000
1805		27.343750
1806		31.250000
1807		27.343750
1808		31.250000
1809		27.343750
1810		31.250000
1811		27.343750
1812		29.296875
1813		25.390625
1814		29.296875
1815		25.390625
1816		29.296875
1817		23.437500
1818		27.343750
1819		23.437500
1820		27.343750
1821		21.484375
1822		25.390625
1823		21.484375
1824		25.390625
1825		21.484375
1826		23.437500
1827		19.531250
1828		23.437500
1829		19.531250
1830		21.484375
1831		17.578125
1832		21.484375
1833		17.578125
1834		19.531250
1835		15.625000
1836		19.531250
1837		15.625000
1838		17.578125
1839		13.671875
1840		17.578125
1841		11.718750
1842		15.625000
1843		11.718750
1844		15.625000
1845		9.765625
1846		13.671875
1847		7.812500
1848		13.671875
1849		7.812500
1850		11.718750
1851		5.859375
1852		9.765625
1853		5.859375
1854		9.765625
1855		5.859375
1856		7.812500
1857		3.906250
1858		7.812500
1859		1.953125
1860		5.859375
1861		1.953125
1862		3.906250
1863		0.000000
1864		3.906250
1865		0.000000
1866		1.953125
1867		-1.953125
1868		1.953125
1869		-1.953125
1870		0.000000
1871		-3.906250
1872		0.000000
1873		-5.859375
1874		-1.953125
1875		-5.859375
1876		-1.953125
1877		-5.859375
1878		-3.906250
1879		-7.812500
1880		-3.906250
1881		-9.765625
1882		-5.859375
1883		-9.765625
1884		-5.859375
1885		-9.765625
1886		-5.859375
1887		-11.718750
1888		-7.812500
1889		-11.718750
1890		-7.812500
1891		-11.718750
1892		-7.812500
1893		-11.718750
1894		-9.765625
1895		-11.718750
1896		-9.765625
1897		-13.671875
1898		-11.718750
1899		-15.625000
1900		-9.765625
1901		-15.625000
1902		-11.718750
1903		-15.625000
1904		-11.718750
1905		-15.625000
1906		-11.718750
1907		-15.625000
1908		-11.718750
1909		-15.625000
1910		-11.718750
1911		-17.578125
1912		-11.718750
1913		-15.625000
1914		-13.671875
1915		-15.625000
1916		-11.718750
1917		-15.625000
1918		-11.718750
1919		-15.625000
1920		-11.718750
1921		-15.625000
1922		-11.718750
1923		-13.671875
1924		-11.718750
1925		-13.671875
1926		-11.718750
1927		-15.625000
1928		-9.765625
1929		-13.671875
1930		-11.718750
1931		-13.671875
1932		-9.765625
1933		-11.718750
1934		-9.765625
1935		-11.718750
1936		-9.765625
1937		-11.718750
1938		-7.812500
1939		-9.765625
1940		-7.812500
1941		-9.765625
1942		-5.859375
1943		-9.765625
1944		-3.906250
1945		-7.812500
1946		-5.859375
1947		-7.812500
1948		-3.906250
1949		-7.812500
1950		-1.953125
1951		-5.859375
1952		-1.953125
1953		-3.906250
1954		0.000000
1955		-3.906250
1956		0.000000
1957		-3.906250
1958		1.953125
1959		-1.953125
1960		1.953125
1961		-1.953125
1962		1.953125
1963		0.000000
1964		3.906250
1965		1.953125
1966		5.859375
1967		1.953125
1968		5.859375
1969		3.906250
1970		7.812500
1971		3.906250
1972		7.812500
1973		5.859375
1974		9.765625
1975		7.812500
1976		9.765625
1977		7.812500
1978		11.718750
1979		9.765625
1980		11.718750
1981		11.718750
1982		13.671875
1983		9.765625
1984		15.625000
1985		13.671875
1986		15.625000
1987		13.671875
1988		17.578125
1989		15.625000
1990		19.531250
1991		15.625000
1992		19.531250
1993		17.578125
1994		19.531250
1995		17.578125
1996		21.484375
1997		19.531250
1998		21.484375
1999		19.531250
2000		23.437500
2001		21.484375
2002		23.437500
2003		21.484375
2004		25.390625
2005		23.437500
2006		27.343750
2007		23.437500
2008		27.343750
2009		23.437500
2010		27.343750
2011		25.390625
2012		29.296875
2013		25.390625
2014		29.296875
2015		25.390625
2016		29.296875
2017		27.343750
2018		29.296875
2019		27.343750
2020		31.250000
2021		27.343750
2022		31.250000
2023		27.343750
2024		31.250000
2025		29.296875
2026		31.250000
2027		29.296875
2028		33.203125
2029		29.296875
2030		31.250000
2031		29.296875
2032		33.203125
2033		29.296875
2034		33.203125
2035		29.296875
2036		33.203125
2037		29.296875
2038		33.203125
2039		31.250000
2040		33.203125
2041		29.296875
2042		33.203125
2043		29.296875
2044		33.203125
2045		29.296875
2046		33.203125
2047		29.296875
2048		31.250000
2049		29.296875
2050		33.203125
2051		29.296875
2052		33.203125
2053		29.296875
2054		31.250000
2055		29.296875
2056		31.250000
2057		27.343750
2058		31.250000
2059		27.343750
2060		29.296875
2061		25.390625
2062		29.296875
2063		25.390625
2064		29.296875
2065		25.390625
2066		27.343750
2067		23.437500
2068		29.296875
2069		23.437500
2070		27.343750
2071		23.437500
2072		27.343750
2073		21.484375
2074		25.390625
2075		21.484375
2076		25.390625
2077		19.531250
2078		23.437500
2079		19.531250
2080		23.437500
2081		19.531250
2082		21.484375
2083		17.578125
2084		21.484375
2085		15.625000
2086		19.531250
2087		15.625000
2088		17.578125
2089		13.671875
2090		17.578125
2091		13.671875
2092		15.625000
2093		11.718750
2094		15.625000
2095		9.765625
2096		13.671875
2097		9.765625
2098		13.671875
2099		9.765625
2100		11.718750
2101		7.812500
2102		11.718750
2103		7.812500
2104		9.765625
2105		5.859375
2106		9.765625
2107		3.906250
2108		7.812500
2109		3.906250
2110		7.812500
2111		1.953125
2112		5.859375
2113		1.953125
2114		3.906250
2115		0.000000
2116		3.906250
2117		-1.953125
2118		1.953125
2119		-1.953125
2120		1.953125
2121		-1.953125
2122		0.000000
2123		-3.906250
2124		0.000000
2125		-5.859375
2126		-1.953125
2127		-5.859375
2128		-1.953125
2129		-7.812500
2130		-1.953125
2131		-7.812500
2132		-3.906250
2133		-9.765625
2134		-5.859375
2135		-9.765625
2136		-5.859375
2137		-9.765625
2138		-5.859375
2139		-9.765625
2140		-7.812500
2141		-11.718750
2142		-7.812500
2143		-11.718750
2144		-9.765625
2145		-13.671875
2146		-9.765625
2147		-11.718750
2148		-9.765625
2149		-13.671875
2150		-9.765625
2151		-13.671875
2152		-9.765625
2153		-13.671875
2154		-11.718750
2155		-15.625000
2156		-11.718750
2157		-15.625000
2158		-11.718750
2159		-15.625000
2160		-11.718750
2161		-15.625000
2162		-11.718750
2163		-15.625000
2164		-11.718750
2165		-15.625000
2166		-11.718750
2167		-15.625000
2168		-11.718750
2169		-15.625000
2170		-11.718750
2171		-15.625000
2172		-11.718750
2173		-15.625000
2174		-11.718750
2175		-13.671875
2176		-11.718750
2177		-13.671875
2178		-9.765625
2179		-13.671875
2180		-9.765625
2181		-13.671875
2182		-9.765625
2183		-11.718750
2184		-9.765625
2185		-13.671875
2186		-7.812500
2187		-11.718750
2188		-7.812500
2189		-9.765625
2190		-7.812500
2191		-9.765625
2192		-7.812500
2193		-9.765625
2194		-5.859375
2195		-7.812500
2196		-5.859375
2197		-7.812500
2198		-3.906250
2199		-5.859375
2200		-3.906250
2201		-5.859375
2202		-1.953125
2203		-5.859375
2204		0.000000
2205		-3.906250
2206		0.000000
2207		-1.953125
2208		0.000000
2209		-1.953125
2210		1.953125
2211		-1.953125
2212		1.953125
2213		0.000000
2214		3.906250
2215		1.953125
2216		3.906250
2217		1.953125
2218		5.859375
2219		3.906250
2220		7.812500
2221		5.859375
2222		7.812500
2223		5.859375
2224		7.812500
2225		5.859375
2226		9.765625
2227		7.812500
2228		11.718750
2229		7.812500
2230		13.671875
2231		9.765625
2232		13.671875
2233		11.718750
2234		13.671875
2235		11.718750
2236		15.625000
2237		13.671875
2238		17.578125
2239		15.625000
2240		17.578125
2241		15.625000
2242		19.531250
2243		15.625000
2244		21.484375
2245		17.578125
2246		21.484375
2247		19.531250
2248		21.484375
2249		19.531250
2250		21.484375
2251		19.531250
2252		25.390625
2253		21.484375
2254		25.390625
2255		23.437500
2256		25.390625
2257		23.437500
2258		27.343750
2259		23.437500
2260		27.343750
2261		25.390625
2262		27.343750
2263		25.390625
2264		29.296875
2265		27.343750
2266		29.296875
2267		27.343750
2268		29.296875
2269		27.343750
2270		31.250000
2271		27.343750
2272		31.250000
2273		29.296875
2274		31.250000
2275		29.296875
2276		31.250000
2277		29.296875
2278		31.250000
2279		29.296875
2280		33.203125
2281		29.296875
2282		33.203125
2283		31.250000
2284		33.203125
2285		29.296875
2286		33.203125
2287		29.296875
2288		33.203125
2289		29.296875
2290		33.203125
2291		29.296875
2292		33.203125
2293		29.296875
2294		33.203125
2295		29.296875
2296		33.203125
2297		29.296875
2298		33.203125
2299		29.296875
2300		31.250000
2301		29.296875
2302		31.250000
2303		29.296875
2304		31.250000
2305		29.296875
2306		31.250000
2307		27.343750
2308		31.250000
2309		27.343750
2310		31.250000
2311		27.343750
2312		31.250000
2313		25.390625
2314		29.296875
2315		25.390625
2316		27.343750
2317		25.390625
2318		27.343750
2319		23.437500
2320		27.343750
2321		23.437500
2322		25.390625
2323		23.437500
2324		25.390625
2325		21.484375
2326		25.390625
2327		21.484375
2328		23.437500
2329		19.531250
2330		23.437500
2331		17.578125
2332		21.484375
2333		17.578125
2334		21.484375
2335		15.625000
2336		19.531250
2337		15.625000
2338		19.531250
2339		15.625000
2340		17.578125
2341		13.671875
2342		17.578125
2343		13.671875
2344		15.625000
2345		11.718750
2346		15.625000
2347		9.765625
2348		13.671875
2349		9.765625
2350		11.718750
2351		7.812500
2352		11.718750
2353		5.859375
2354		11.718750
2355		5.859375
2356		9.765625
2357		3.906250
2358		7.812500
2359		3.906250
2360		7.812500
2361		1.953125
2362		5.859375
2363		1.953125
2364		5.859375
2365		0.000000
2366		3.906250
2367		0.000000
2368		1.953125
2369		-3.906250
2370		1.953125
2371		-3.906250
2372		0.000000
2373		-3.906250
2374		0.000000
2375		-5.859375
2376		-1.953125
2377		-5.859375
2378		-1.953125
2379		-7.812500
2380		-1.953125
2381		-7.812500
2382		-3.906250
2383		-7.812500
2384		-5.859375
2385		-9.765625
2386		-5.859375
2387		-9.765625
2388		-7.812500
2389		-11.718750
2390		-7.812500
2391		-11.718750
2392		-7.812500
2393		-11.718750
2394		-7.812500
2395		-11.718750
2396		-9.765625
2397		-13.671875
2398		-9.765625
2399		-13.671875
2400		-11.718750
2401		-13.671875
2402		-11.718750
2403		-15.625000
2404		-11.718750
2405		-15.625000
2406		-11.718750
2407		-15.625000
2408		-11.718750
2409		-15.625000
2410		-11.718750
2411		-15.625000
2412		-11.718750
2413		-15.625000
2414		-11.718750
2415		-15.625000
2416		-11.718750
2417		-15.625000
2418		-13.671875
2419		-15.625000
2420		-11.718750
2421		-15.625000
2422		-11.718750
2423		-15.625000
2424		-11.718750
2425		-13.671875
2426		-11.718750
2427		-13.671875
2428		-11.718750
2429		-13.671875
2430		-11.718750
2431		-13.671875
2432		-9.765625
2433		-11.718750
2434		-9.765625
2435		-11.718750
2436		-9.765625
2437		-13.671875
2438		-7.812500
2439		-11.718750
2440		-7.812500
2441		-9.765625
2442		-7.812500
2443		-9.765625
2444		-5.859375
2445		-9.765625
2446		-5.859375
2447		-7.812500
2448		-5.859375
2449		-7.812500
2450		-3.906250
2451		-5.859375
2452		-3.906250
2453		-5.859375
2454		-1.953125
2455		-3.906250
2456		-1.953125
2457		-3.906250
2458		0.000000
2459		-1.953125
2460		0.000000
2461		-1.953125
2462		1.953125
2463		0.000000
2464		1.953125
2465		0.000000
2466		3.906250
2467		1.953125
2468		3.906250
2469		1.953125
2470		7.812500
2471		3.906250
2472		7.812500
2473		5.859375
2474		7.812500
2475		5.859375
2476		9.765625
2477		7.812500
2478		11.718750
2479		7.812500
2480		11.718750
2481		9.765625
2482		13.671875
2483		11.718750
2484		13.671875
2485		11.718750
2486		15.625000
2487		13.671875
2488		17.578125
2489		13.671875
2490		17.578125
2491		15.625000
2492		19.531250
2493		15.625000
2494		19.531250
2495		17.578125
2496		21.484375
2497		17.578125
2498		21.484375
2499		17.578125
2500		23.437500
2501		21.484375
2502		23.437500
2503		19.531250
2504		25.390625
2505		21.484375
2506		25.390625
2507		23.437500
2508		25.390625
2509		23.437500
2510		27.343750
2511		23.437500
2512		27.343750
2513		25.390625
2514		29.296875
2515		25.390625
2516		29.296875
2517		27.343750
2518		29.296875
2519		27.343750
2520		29.296875
2521		25.390625
2522		31.250000
2523		27.343750
2524		31.250000
2525		27.343750
2526		31.250000
2527		29.296875
2528		31.250000
2529		29.296875
2530		31.250000
2531		29.296875
2532		33.203125
2533		29.296875
2534		33.203125
2535		29.296875
2536		33.203125
2537		29.296875
2538		33.203125
2539		29.296875
2540		33.203125
2541		29.296875
2542		33.203125
2543		29.296875
2544		33.203125
2545		29.296875
2546		33.203125
2547		29.296875
2548		33.203125
2549		27.343750
2550		33.203125
2551		29.296875
2552		31.250000
2553		29.296875
2554		33.203125
2555		27.343750
2556		31.250000
2557		27.343750
2558		31.250000
2559		27.343750
2560		31.250000
2561		27.343750
2562		29.296875
2563		25.390625
2564		29.296875
2565		25.390625
2566		29.296875
2567		25.390625
2568		27.343750
2569		23.437500
2570		27.343750
2571		23.437500
2572		27.343750
2573		23.437500
2574		25.390625
2575		21.484375
2576		25.390625
2577		21.484375
2578		25.390625
2579		19.531250
2580		23.437500
2581		19.531250
2582		23.437500
2583		17.578125
2584		21.484375
2585		17.578125
2586		19.531250
2587		15.625000
2588		19.531250
2589		15.625000
2590		19.531250
2591		13.671875
2592		17.578125
2593		13.671875
2594		15.625000
2595		11.718750
2596		15.625000
2597		9.765625
2598		13.671875
2599		9.765625
2600		13.671875
2601		9.765625
2602		11.718750
2603		7.812500
2604		9.765625
2605		5.859375
2606		9.765625
2607		5.859375
2608		7.812500
2609		3.906250
2610		7.812500
2611		3.906250
2612		5.859375
2613		1.953125
2614		5.859375
2615		0.000000
2616		3.906250
2617		0.000000
2618		3.906250
2619		-1.953125
2620		1.953125
2621		-3.906250
2622		1.953125
2623		-3.906250
2624		0.000000
2625		-3.906250
2626		0.000000
2627		-5.859375
2628		-1.953125
2629		-5.859375
2630		-3.906250
2631		-7.812500
2632		-3.906250
2633		-7.812500
2634		-3.906250
2635		-7.812500
2636		-5.859375
2637		-9.765625
2638		-5.859375
2639		-9.765625
2640		-5.859375
2641		-11.718750
2642		-7.812500
2643		-11.718750
2644		-7.812500
2645		-11.718750
2646		-9.765625
2647		-13.671875
2648		-9.765625
2649		-13.671875
2650		-9.765625
2651		-13.671875
2652		-11.718750
2653		-13.671875
2654		-11.718750
2655		-15.625000
2656		-11.718750
2657		-15.625000
2658		-11.718750
2659		-15.625000
2660		-11.718750
2661		-15.625000
2662		-11.718750
2663		-15.625000
2664		-11.718750
2665		-15.625000
2666		-11.718750
2667		-15.625000
2668		-11.718750
2669		-15.625000
2670		-11.718750
2671		-15.625000
2672		-9.765625
2673		-15.625000
2674		-11.718750
2675		-15.625000
2676		-11.718750
2677		-13.671875
2678		-11.718750
2679		-13.671875
2680		-9.765625
2681		-13.671875
2682		-11.718750
2683		-13.671875
2684		-9.765625
2685		-11.718750
2686		-9.765625
2687		-11.718750
2688		-9.765625
2689		-11.718750
2690		-7.812500
2691		-11.718750
2692		-7.812500
2693		-9.765625
2694		-7.812500
2695		-9.765625
2696		-5.859375
2697		-7.812500
2698		-5.859375
2699		-7.812500
2700		-3.906250
2701		-7.812500
2702		-3.906250
2703		-5.859375
2704		-3.906250
2705		-5.859375
2706		-1.953125
2707		-3.906250
2708		0.000000
2709		-1.953125
2710		1.953125
2711		-1.953125
2712		1.953125
2713		0.000000
2714		1.953125
2715		0.000000
2716		3.906250
2717		1.953125
2718		5.859375
2719		1.953125
2720		5.859375
2721		3.906250
2722		5.859375
2723		3.906250
2724		7.812500
2725		5.859375
2726		9.765625
2727		5.859375
2728		9.765625
2729		7.812500
2730		11.718750
2731		9.765625
2732		11.718750
2733		9.765625
2734		13.671875
2735		11.718750
2736		13.671875
2737		13.671875
2738		15.625000
2739		11.718750
2740		17.578125
2741		15.625000
2742		19.531250
2743		15.625000
2744		19.531250
2745		15.625000
2746		21.484375
2747		17.578125
2748		21.484375
2749		19.531250
2750		21.484375
2751		19.531250
2752		23.437500
2753		21.484375
2754		23.437500
2755		21.484375
2756		25.390625
2757		23.437500
2758		25.390625
2759		23.437500
2760		25.390625
2761		23.437500
2762		27.343750
2763		23.437500
2764		27.343750
2765		25.390625
2766		29.296875
2767		25.390625
2768		29.296875
2769		27.343750
2770		29.296875
2771		27.343750
2772		29.296875
2773		27.343750
2774		31.250000
2775		27.343750
2776		31.250000
2777		29.296875
2778		31.250000
2779		29.296875
2780		33.203125
2781		29.296875
2782		33.203125
2783		29.296875
2784		33.203125
2785		29.296875
2786		33.203125
2787		29.296875
2788		33.203125
2789		29.296875
2790		33.203125
2791		31.250000
2792		33.203125
2793		29.296875
2794		33.203125
2795		29.296875
2796		33.203125
2797		29.296875
2798		33.203125
2799		29.296875
2800		33.203125
2801		29.296875
2802		33.203125
2803		29.296875
2804		31.250000
2805		29.296875
2806		31.250000
2807		27.343750
2808		31.250000
2809		27.343750
2810		31.250000
2811		27.343750
2812		29.296875
2813		27.343750
2814		29.296875
2815		25.390625
2816		29.296875
2817		25.390625
2818		29.296875
2819		23.437500
2820		29.296875
2821		25.390625
2822		27.343750
2823		23.437500
2824		27.343750
2825		23.437500
2826		25.390625
2827		21.484375
2828		25.390625
2829		19.531250
2830		23.437500
2831		19.531250
2832		23.437500
2833		19.531250
2834		21.484375
2835		17.578125
2836		21.484375
2837		17.578125
2838		19.531250
2839		15.625000
2840		19.531250
2841		13.671875
2842		17.578125
2843		13.671875
2844		17.578125
2845		13.671875
2846		15.625000
2847		11.718750
2848		15.625000
2849		9.765625
2850		13.671875
2851		7.812500
2852		11.718750
2853		7.812500
2854		11.718750
2855		7.812500
2856		9.765625
2857		5.859375
2858		9.765625
2859		3.906250
2860		7.812500
2861		3.906250
2862		7.812500
2863		1.953125
2864		5.859375
2865		1.953125
2866		5.859375
2867		0.000000
2868		3.906250
2869		0.000000
2870		1.953125
2871		-1.953125
2872		1.953125
2873		-3.906250
2874		0.000000
2875		-3.906250
2876		0.000000
2877		-3.906250
2878		-1.953125
2879		-5.859375
2880		-1.953125
2881		-7.812500
2882		-3.906250
2883		-7.812500
2884		-3.906250
2885		-9.765625
2886		-5.859375
2887		-9.765625
2888		-5.859375
2889		-9.765625
2890		-7.812500
2891		-11.718750
2892		-5.859375
2893		-11.718750
2894		-7.812500
2895		-11.718750
2896		-9.765625
2897		-11.718750
2898		-9.765625
2899		-13.671875
2900		-9.765625
2901		-13.671875
2902		-9.765625
2903		-13.671875
2904		-9.765625
2905		-13.671875
2906		-11.718750
2907		-13.671875
2908		-11.718750
2909		-15.625000
2910		-11.718750
2911		-15.625000
2912		-11.718750
2913		-15.625000
2914		-11.718750
2915		-15.625000
2916		-11.718750
2917		-15.625000
2918		-11.718750
2919		-15.625000
2920		-11.718750
2921		-15.625000
2922		-13.671875
2923		-15.625000
2924		-11.718750
2925		-15.625000
2926		-11.718750
2927		-13.671875
2928		-11.718750
2929		-13.671875
2930		-11.718750
2931		-13.671875
2932		-9.765625
2933		-13.671875
2934		-9.765625
2935		-13.671875
2936		-7.812500
2937		-13.671875
2938		-9.765625
2939		-11.718750
2940		-9.765625
2941		-11.718750
2942		-7.812500
2943		-9.765625
2944		-7.812500
2945		-9.765625
2946		-5.859375
2947		-7.812500
2948		-5.859375
2949		-7.812500
2950		-5.859375
2951		-5.859375
2952		-3.906250
2953		-7.812500
2954		-3.906250
2955		-5.859375
2956		-1.953125
2957		-3.906250
2958		0.000000
2959		-3.906250
2960		0.000000
2961		-1.953125
2962		0.000000
2963		-1.953125
2964		1.953125
2965		0.000000
2966		3.906250
2967		0.000000
2968		3.906250
2969		1.953125
2970		5.859375
2971		3.906250
2972		5.859375
2973		3.906250
2974		7.812500
2975		5.859375
2976		7.812500
2977		5.859375
2978		9.765625
2979		7.812500
2980		9.765625
2981		7.812500
2982		11.718750
2983		9.765625
2984		13.671875
2985		9.765625
2986		13.671875
2987		11.718750
2988		15.625000
2989		13.671875
2990		15.625000
2991		13.671875
2992		17.578125
2993		15.625000
2994		19.531250
2995		15.625000
2996		19.531250
2997		17.578125
2998		21.484375
2999		17.578125
3000		21.484375
3001		19.531250
3002		23.437500
3003		19.531250
3004		23.437500
3005		21.484375
3006		23.437500
3007		21.484375
3008		25.390625
3009		21.484375
3010		25.390625
3011		23.437500
3012		27.343750
3013		25.390625
3014		27.343750
3015		25.390625
3016		27.343750
3017		25.390625
3018		29.296875
3019		25.390625
3020		29.296875
3021		27.343750
3022		29.296875
3023		27.343750
3024		29.296875
3025		27.343750
3026		31.250000
3027		29.296875
3028		31.250000
3029		27.343750
3030		31.250000
3031		29.296875
3032		31.250000
3033		29.296875
3034		33.203125
3035		29.296875
3036		33.203125
3037		29.296875
3038		33.203125
3039		31.250000
3040		33.203125
3041		29.296875
3042		33.203125
3043		29.296875
3044		33.203125
3045		29.296875
3046		33.203125
3047		29.296875
3048		33.203125
3049		29.296875
3050		33.203125
3051		29.296875
3052		33.203125
3053		29.296875
3054		33.203125
3055		29.296875
3056		31.250000
3057		29.296875
3058		31.250000
3059		27.343750
3060		31.250000
3061		27.343750
3062		31.250000
3063		27.343750
3064		29.296875
3065		25.390625
3066		29.296875
3067		25.390625
3068		29.296875
3069		25.390625
3070		29.296875
3071		25.390625
3072		27.343750
3073		23.437500
3074		25.390625
3075		21.484375
3076		25.390625
3077		21.484375
3078		25.390625
3079		21.484375
3080		23.437500
3081		19.531250
3082		23.437500
3083		19.531250
3084		21.484375
3085		17.578125
3086		21.484375
3087		15.625000
3088		21.484375
3089		15.625000
3090		19.531250
3091		13.671875
3092		19.531250
3093		13.671875
3094		17.578125
3095		13.671875
3096		17.578125
3097		11.718750
3098		15.625000
3099		11.718750
3100		13.671875
3101		9.765625
3102		13.671875
3103		7.812500
3104		11.718750
3105		7.812500
3106		9.765625
3107		5.859375
3108		9.765625
3109		3.906250
3110		9.765625
3111		3.906250
3112		7.812500
3113		1.953125
3114		5.859375
3115		1.953125
3116		5.859375
3117		0.000000
3118		3.906250
3119		0.000000
3120		1.953125
3121		-1.953125
3122		1.953125
3123		-1.953125
3124		0.000000
3125		-3.906250
3126		0.000000
3127		-5.859375
3128		-1.953125
3129		-5.859375
3130		-1.953125
3131		-5.859375
3132		-3.906250
3133		-7.812500
3134		-3.906250
3135		-7.812500
3136		-3.906250
3137		-9.765625
3138		-5.859375
3139		-9.765625
3140		-7.812500
3141		-9.765625
3142		-7.812500
3143		-11.718750
3144		-7.812500
3145		-11.718750
3146		-7.812500
3147		-13.671875
3148		-9.765625
3149		-13.671875
3150		-9.765625
3151		-13.671875
3152		-9.765625
3153		-13.671875
3154		-9.765625
3155		-13.671875
3156		-11.718750
3157		-13.671875
3158		-11.718750
3159		-15.625000
3160		-11.718750
3161		-15.625000
3162		-11.718750
3163		-15.625000
3164		-11.718750
3165		-15.625000
3166		-11.718750
3167		-15.625000
3168		-11.718750
3169		-15.625000
3170		-11.718750
3171		-15.625000
3172		-11.718750
3173		-13.671875
3174		-11.718750
3175		-15.625000
3176		-11.718750
3177		-13.671875
3178		-11.718750
3179		-13.671875
3180		-11.718750
3181		-13.671875
3182		-11.718750
3183		-13.671875
3184		-9.765625
3185		-13.671875
3186		-9.765625
3187		-13.671875
3188		-7.812500
3189		-11.718750
3190		-9.765625
3191		-11.718750
3192		-7.812500
3193		-11.718750
3194		-7.812500
3195		-9.765625
3196		-5.859375
3197		-9.765625
3198		-5.859375
3199		-7.812500
3200		-5.859375
3201		-7.812500
3202		-3.906250
3203		-7.812500
3204		-3.906250
3205		-5.859375
3206		-1.953125
3207		-3.906250
3208		-1.953125
3209		-3.906250
3210		0.000000
3211		-3.906250
3212		0.000000
3213		-1.953125
3214		1.953125
3215		-1.953125
3216		1.953125
3217		0.000000
3218		3.906250
3219		1.953125
3220		3.906250
3221		1.953125
3222		5.859375
3223		3.906250
3224		5.859375
3225		5.859375
3226		7.812500
3227		5.859375
3228		9.765625
3229		7.812500
3230		11.718750
3231		7.812500
3232		11.718750
3233		9.765625
3234		13.671875
3235		9.765625
3236		13.671875
3237		11.718750
3238		15.625000
3239		11.718750
3240		15.625000
3241		13.671875
3242		17.578125
3243		15.625000
3244		19.531250
3245		15.625000
3246		19.531250
3247		17.578125
3248		19.531250
3249		17.578125
3250		21.484375
3251		19.531250
3252		23.437500
3253		19.531250
3254		23.437500
3255		19.531250
3256		25.390625
3257		21.484375
3258		25.390625
3259		23.437500
3260		25.390625
3261		21.484375
3262		27.343750
3263		23.437500
3264		27.343750
3265		23.437500
3266		27.343750
3267		25.390625
3268		29.296875
3269		25.390625
3270		29.296875
3271		27.343750
3272		31.250000
3273		27.343750
3274		29.296875
3275		29.296875
3276		29.296875
3277		27.343750
3278		31.250000
3279		29.296875
3280		33.203125
3281		29.296875
3282		31.250000
3283		29.296875
3284		33.203125
3285		29.296875
3286		33.203125
3287		29.296875
3288		33.203125
3289		29.296875
3290		33.203125
3291		29.296875
3292		33.203125
3293		29.296875
3294		33.203125
3295		31.250000
3296		33.203125
3297		29.296875
3298		31.250000
3299		29.296875
3300		33.203125
3301		29.296875
3302		31.250000
3303		29.296875
3304		31.250000
3305		29.296875
3306		31.250000
3307		29.296875
3308		31.250000
3309		29.296875
3310		31.250000
3311		27.343750
3312		31.250000
3313		27.343750
3314		31.250000
3315		27.343750
3316		29.296875
3317		25.390625
3318		29.296875
3319		25.390625
3320		29.296875
3321		23.437500
3322		27.343750
3323		23.437500
3324		27.343750
3325		23.437500
3326		25.390625
3327		21.484375
3328		25.390625
3329		21.484375
3330		25.390625
3331		19.531250
3332		23.437500
3333		19.531250
3334		23.437500
3335		19.531250
3336		21.484375
3337		17.578125
3338		21.484375
3339		17.578125
3340		19.531250
3341		15.625000
3342		19.531250
3343		15.625000
3344		17.578125
3345		13.671875
3346		17.578125
3347		13.671875
3348		15.625000
3349		11.718750
3350		15.625000
3351		9.765625
3352		13.671875
3353		9.765625
3354		11.718750
3355		7.812500
3356		11.718750
3357		7.812500
3358		9.765625
3359		5.859375
3360		9.765625
3361		3.906250
3362		7.812500
3363		3.906250
3364		5.859375
3365		1.953125
3366		5.859375
3367		1.953125
3368		3.906250
3369		0.000000
3370		3.906250
3371		0.000000
3372		1.953125
3373		-1.953125
3374		1.953125
3375		-3.906250
3376		0.000000
3377		-3.906250
3378		0.000000
3379		-5.859375
3380		-1.953125
3381		-5.859375
3382		-1.953125
3383		-7.812500
3384		-3.906250
3385		-7.812500
3386		-3.906250
3387		-7.812500
3388		-5.859375
3389		-9.765625
3390		-5.859375
3391		-9.765625
3392		-7.812500
3393		-9.765625
3394		-7.812500
3395		-11.718750
3396		-7.812500
3397		-11.718750
3398		-9.765625
3399		-11.718750
3400		-9.765625
3401		-13.671875
3402		-9.765625
3403		-13.671875
3404		-9.765625
3405		-13.671875
3406		-11.718750
3407		-15.625000
3408		-9.765625
3409		-13.671875
3410		-11.718750
3411		-15.625000
3412		-11.718750
3413		-15.625000
3414		-11.718750
3415		-15.625000
3416		-11.718750
3417		-15.625000
3418		-11.718750
3419		-15.625000
3420		-11.718750
3421		-15.625000
3422		-11.718750
3423		-13.671875
3424		-11.718750
3425		-13.671875
3426		-11.718750
3427		-13.671875
3428		-11.718750
3429		-15.625000
3430		-11.718750
3431		-13.671875
3432		-11.718750
3433		-13.671875
3434		-9.765625
3435		-13.671875
3436		-9.765625
3437		-13.671875
3438		-9.765625
3439		-11.718750
3440		-9.765625
3441		-11.718750
3442		-7.812500
3443		-9.765625
3444		-7.812500
3445		-9.765625
3446		-5.859375
3447		-9.765625
3448		-5.859375
3449		-9.765625
3450		-5.859375
3451		-7.812500
3452		-3.906250
3453		-7.812500
3454		-3.906250
3455		-5.859375
3456		-1.953125
3457		-5.859375
3458		-1.953125
3459		-3.906250
3460		-1.953125
3461		-3.906250
3462		1.953125
3463		-1.953125
3464		1.953125
3465		0.000000
3466		1.953125
3467		0.000000
3468		3.906250
3469		0.000000
3470		3.906250
3471		1.953125
3472		5.859375
3473		1.953125
3474		7.812500
3475		3.906250
3476		7.812500
3477		5.859375
3478		7.812500
3479		5.859375
3480		9.765625
3481		7.812500
3482		11.718750
3483		9.765625
3484		13.671875
3485		9.765625
3486		13.671875
3487		9.765625
3488		15.625000
3489		11.718750
3490		15.625000
3491		13.671875
3492		15.625000
3493		15.625000
3494		17.578125
3495		15.625000
3496		19.531250
3497		17.578125
3498		19.531250
3499		17.578125
3500		21.484375
3501		17.578125
3502		21.484375
3503		19.531250
3504		23.437500
3505		21.484375
3506		23.437500
3507		21.484375
3508		25.390625
3509		23.437500
3510		25.390625
3511		23.437500
3512		25.390625
3513		23.437500
3514		27.343750
3515		25.390625
3516		27.343750
3517		25.390625
3518		27.343750
3519		25.390625
3520		29.296875
3521		27.343750
3522		29.296875
3523		27.343750
3524		31.250000
3525		27.343750
3526		31.250000
3527		29.296875
3528		31.250000
3529		29.296875
3530		31.250000
3531		29.296875
3532		31.250000
3533		29.296875
3534		33.203125
3535		29.296875
3536		33.203125
3537		29.296875
3538		33.203125
3539		29.296875
3540		33.203125
3541		29.296875
3542		33.203125
3543		31.250000
3544		33.203125
3545		29.296875
3546		33.203125
3547		29.296875
3548		33.203125
3549		29.296875
3550		33.203125
3551		29.296875
3552		33.203125
3553		29.296875
3554		33.203125
3555		29.296875
3556		33.203125
3557		29.296875
3558		33.203125
3559		29.296875
3560		31.250000
3561		29.296875
3562		31.250000
3563		27.343750
3564		31.250000
3565		27.343750
3566		29.296875
3567		27.343750
3568		29.296875
3569		25.390625
3570		29.296875
3571		25.390625
3572		29.296875
3573		23.437500
3574		27.343750
3575		23.437500
3576		27.343750
3577		23.437500
3578		25.390625
3579		21.484375
3580		25.390625
3581		21.484375
3582		23.437500
3583		21.484375
3584		23.437500
3585		19.531250
3586		23.437500
3587		17.578125
3588		21.484375
3589		17.578125
3590		21.484375
3591		15.625000
3592		19.531250
3593		15.625000
3594		19.531250
3595		13.671875
3596		17.578125
3597		13.671875
3598		17.578125
3599		11.718750
3600		15.625000
3601		11.718750
3602		15.625000
3603		9.765625
3604		13.671875
3605		7.812500
3606		11.718750
3607		7.812500
3608		11.718750
3609		5.859375
3610		9.765625
3611		5.859375
3612		7.812500
3613		3.906250
3614		7.812500
3615		1.953125
3616		5.859375
3617		1.953125
3618		3.906250
3619		1.953125
3620		3.906250
3621		0.000000
3622		3.906250
3623		-1.953125
3624		1.953125
3625		-1.953125
3626		1.953125
3627		-1.953125
3628		0.000000
3629		-5.859375
3630		-1.953125
3631		-5.859375
3632		-1.953125
3633		-5.859375
3634		-3.906250
3635		-7.812500
3636		-3.906250
3637		-7.812500
3638		-3.906250
3639		-7.812500
3640		-5.859375
3641		-9.765625
3642		-5.859375
3643		-9.765625
3644		-7.812500
3645		-9.765625
3646		-7.812500
3647		-11.718750
3648		-7.812500
3649		-11.718750
3650		-9.765625
3651		-13.671875
3652		-9.765625
3653		-13.671875
3654		-9.765625
3655		-13.671875
3656		-9.765625
3657		-13.671875
3658		-11.718750
3659		-15.625000
3660		-11.718750
3661		-13.671875
3662		-11.718750
3663		-15.625000
3664		-11.718750
3665		-13.671875
3666		-11.718750
3667		-15.625000
3668		-11.718750
3669		-15.625000
3670		-11.718750
3671		-15.625000
3672		-11.718750
3673		-15.625000
3674		-11.718750
3675		-15.625000
3676		-11.718750
3677		-13.671875
3678		-11.718750
3679		-13.671875
3680		-11.718750
3681		-13.671875
3682		-9.765625
3683		-13.671875
3684		-9.765625
3685		-13.671875
3686		-9.765625
3687		-11.718750
3688		-9.765625
3689		-11.718750
3690		-9.765625
3691		-11.718750
3692		-7.812500
3693		-11.718750
3694		-7.812500
3695		-9.765625
3696		-7.812500
3697		-9.765625
3698		-5.859375
3699		-9.765625
3700		-5.859375
3701		-7.812500
3702		-3.906250
3703		-7.812500
3704		-3.906250
3705		-5.859375
3706		-3.906250
3707		-5.859375
3708		-1.953125
3709		-3.906250
3710		-1.953125
3711		-3.906250
3712		0.000000
3713		-3.906250
3714		1.953125
3715		-1.953125
3716		1.953125
3717		0.000000
3718		1.953125
3719		0.000000
3720		3.906250
3721		1.953125
3722		5.859375
3723		1.953125
3724		5.859375
3725		3.906250
3726		7.812500
3727		5.859375
3728		7.812500
3729		5.859375
3730		9.765625
3731		7.812500
3732		11.718750
3733		7.812500
3734		11.718750
3735		9.765625
3736		13.671875
3737		11.718750
3738		13.671875
3739		11.718750
3740		15.625000
3741		13.671875
3742		15.625000
3743		13.671875
3744		17.578125
3745		15.625000
3746		17.578125
3747		15.625000
3748		19.531250
3749		17.578125
3750		19.531250
3751		17.578125
3752		21.484375
3753		19.531250
3754		21.484375
3755		19.531250
3756		23.437500
3757		21.484375
3758		25.390625
3759		21.484375
3760		25.390625
3761		23.437500
3762		25.390625
3763		23.437500
3764		27.343750
3765		23.437500
3766		27.343750
3767		25.390625
3768		27.343750
3769		25.390625
3770		29.296875
3771		25.390625
3772		29.296875
3773		27.343750
3774		29.296875
3775		27.343750
3776		31.250000
3777		27.343750
3778		31.250000
3779		29.296875
3780		31.250000
3781		27.343750
3782		33.203125
3783		29.296875
3784		31.250000
3785		29.296875
3786		33.203125
3787		29.296875
3788		33.203125
3789		29.296875
3790		33.203125
3791		29.296875
3792		33.203125
3793		29.296875
3794		33.203125
3795		31.250000
3796		33.203125
3797		29.296875
3798		33.203125
3799		29.296875
3800		33.203125
3801		29.296875
3802		33.203125
3803		29.296875
3804		33.203125
3805		29.296875
3806		31.250000
3807		29.296875
3808		31.250000
3809		27.343750
3810		31.250000
3811		29.296875
3812		31.250000
3813		27.343750
3814		31.250000
3815		27.343750
3816		31.250000
3817		27.343750
3818		31.250000
3819		25.390625
3820		29.296875
3821		25.390625
3822		29.296875
3823		25.390625
3824		27.343750
3825		23.437500
3826		27.343750
3827		23.437500
3828		27.343750
3829		23.437500
3830		25.390625
3831		19.531250
3832		25.390625
3833		19.531250
3834		23.437500
3835		19.531250
3836		23.437500
3837		19.531250
3838		21.484375
3839		17.578125
3840		21.484375
3841		15.625000
3842		19.531250
3843		15.625000
3844		19.531250
3845		15.625000
3846		17.578125
3847		13.671875
3848		15.625000
3849		11.718750
3850		17.578125
3851		9.765625
3852		13.671875
3853		9.765625
3854		13.671875
3855		9.765625
3856		11.718750
3857		7.812500
3858		11.718750
3859		5.859375
3860		9.765625
3861		5.859375
3862		9.765625
3863		5.859375
3864		7.812500
3865		3.906250
3866		5.859375
3867		1.953125
3868		5.859375
3869		1.953125
3870		3.906250
3871		0.000000
3872		3.906250
3873		0.000000
3874		1.953125
3875		-1.953125
3876		1.953125
3877		-3.906250
3878		0.000000
3879		-3.906250
3880		-1.953125
3881		-3.906250
3882		-1.953125
3883		-5.859375
3884		-1.953125
3885		-5.859375
3886		-3.906250
3887		-7.812500
3888		-3.906250
3889		-7.812500
3890		-5.859375
3891		-9.765625
3892		-5.859375
3893		-11.718750
3894		-5.859375
3895		-9.765625
3896		-7.812500
3897		-11.718750
3898		-9.765625
3899		-11.718750
3900		-9.765625
3901		-13.671875
3902		-9.765625
3903		-13.671875
3904		-9.765625
3905		-13.671875
3906		-9.765625
3907		-13.671875
3908		-11.718750
3909		-15.625000
3910		-11.718750
3911		-15.625000
3912		-11.718750
3913		-13.671875
3914		-11.718750
3915		-15.625000
3916		-11.718750
3917		-15.625000
3918		-11.718750
3919		-15.625000
3920		-11.718750
3921		-15.625000
3922		-11.718750
3923		-15.625000
3924		-11.718750
3925		-15.625000
3926		-11.718750
3927		-15.625000
3928		-11.718750
3929		-13.671875
3930		-11.718750
3931		-13.671875
3932		-11.718750
3933		-13.671875
3934		-11.718750
3935		-13.671875
3936		-9.765625
3937		-13.671875
3938		-9.765625
3939		-11.718750
3940		-9.765625
3941		-11.718750
3942		-9.765625
3943		-11.718750
3944		-7.812500
3945		-11.718750
3946		-7.812500
3947		-9.765625
3948		-5.859375
3949		-7.812500
3950		-5.859375
3951		-7.812500
3952		-5.859375
3953		-7.812500
3954		-3.906250
3955		-5.859375
3956		-1.953125
3957		-5.859375
3958		-1.953125
3959		-5.859375
3960		-1.953125
3961		-3.906250
3962		0.000000
3963		-1.953125
3964		0.000000
3965		-1.953125
3966		0.000000
3967		-1.953125
3968		1.953125
3969		0.000000
3970		3.906250
3971		1.953125
3972		5.859375
3973		1.953125
3974		5.859375
3975		3.906250
3976		7.812500
3977		3.906250
3978		9.765625
3979		5.859375
3980		7.812500
3981		7.812500
3982		9.765625
3983		7.812500
3984		11.718750
3985		7.812500
3986		11.718750
3987		9.765625
3988		13.671875
3989		11.718750
3990		15.625000
3991		11.718750
3992		15.625000
3993		13.671875
3994		17.578125
3995		13.671875
3996		17.578125
3997		15.625000
3998		19.531250
3999		17.578125
4000		21.484375
4001		17.578125
4002		21.484375
4003		19.531250
4004		21.484375
4005		19.531250
4006		23.437500
4007		21.484375
4008		23.437500
4009		21.484375
4010		25.390625
4011		21.484375
4012		25.390625
4013		23.437500
4014		25.390625
4015		25.390625
4016		27.343750
4017		25.390625
4018		29.296875
4019		25.390625
4020		29.296875
4021		25.390625
4022		29.296875
4023		27.343750
4024		31.250000
4025		27.343750
4026		31.250000
4027		27.343750
4028		31.250000
4029		27.343750
4030		33.203125
4031		29.296875
4032		31.250000
4033		29.296875
4034		33.203125
4035		29.296875
4036		33.203125
4037		29.296875
4038		33.203125
4039		29.296875
4040		33.203125
4041		29.296875
4042		33.203125
4043		29.296875
4044		33.203125
4045		29.296875
4046		33.203125
4047		31.250000
4048		33.203125
4049		29.296875
4050		33.203125
4051		29.296875
4052		33.203125
4053		29.296875
4054		33.203125
4055		29.296875
4056		33.203125
4057		29.296875
4058		33.203125
4059		29.296875
4060		33.203125
4061		27.343750
4062		31.250000
4063		27.343750
4064		31.250000
4065		27.343750
4066		31.250000
4067		25.390625
4068		31.250000
4069		25.390625
4070		31.250000
4071		25.390625
4072		29.296875
4073		25.390625
4074		29.296875
4075		23.437500
4076		27.343750
4077		23.437500
4078		27.343750
4079		21.484375
4080		27.343750
4081		21.484375
4082		25.390625
4083		19.531250
4084		25.390625
4085		19.531250
4086		25.390625
4087		17.578125
4088		23.437500
4089		17.578125
4090		23.437500
4091		15.625000
4092		21.484375
4093		15.625000
4094		19.531250
4095		15.625000
4096		19.531250
4097		13.671875
4098		17.578125
4099		13.671875
4100		15.625000
4101		11.718750
4102		15.625000
4103		9.765625
4104		15.625000
4105		9.765625
4106		13.671875
4107		7.812500
4108		13.671875
4109		7.812500
4110		11.718750
4111		5.859375
4112		11.718750
4113		5.859375
4114		9.765625
4115		3.906250
4116		7.812500
4117		1.953125
4118		5.859375
4119		1.953125
4120		5.859375
4121		0.000000
4122		5.859375
4123		0.000000
4124		3.906250
4125		-1.953125
4126		1.953125
4127		-3.906250
4128		1.953125
4129		-3.906250
4130		1.953125
4131		-3.906250
4132		-1.953125
4133		-5.859375
4134		-1.953125
4135		-5.859375
4136		-1.953125
4137		-7.812500
4138		-3.906250
4139		-7.812500
4140		-5.859375
4141		-7.812500
4142		-5.859375
4143		-9.765625
4144		-5.859375
4145		-9.765625
4146		-7.812500
4147		-11.718750
4148		-7.812500
4149		-11.718750
4150		-7.812500
4151		-11.718750
4152		-9.765625
4153		-11.718750
4154		-9.765625
4155		-11.718750
4156		-9.765625
4157		-13.671875
4158		-11.718750
4159		-13.671875
4160		-11.718750
4161		-13.671875
4162		-11.718750
4163		-15.625000
4164		-11.718750
4165		-13.671875
4166		-11.718750
4167		-13.671875
4168		-11.718750
4169		-13.671875
4170		-11.718750
4171		-13.671875
4172		-11.718750
4173		-13.671875
4174		-11.718750
4175		-13.671875
4176		-11.718750
4177		-15.625000
4178		-11.718750
4179		-13.671875
4180		-11.718750
4181		-13.671875
4182		-11.718750
4183		-13.671875
4184		-11.718750
4185		-13.671875
4186		-11.718750
4187		-13.671875
4188		-9.765625
4189		-11.718750
4190		-9.765625
4191		-11.718750
4192		-9.765625
4193		-11.718750
4194		-7.812500
4195		-9.765625
4196		-7.812500
4197		-9.765625
4198		-7.812500
4199		-9.765625
4200		-5.859375
4201		-7.812500
4202		-5.859375
4203		-7.812500
4204		-5.859375
4205		-5.859375
4206		-3.906250
4207		-5.859375
4208		-3.906250
4209		-3.906250
4210		-1.953125
4211		-3.906250
4212		-1.953125
4213		-1.953125
4214		0.000000
4215		-1.953125
4216		0.000000
4217		0.000000
4218		1.953125
4219		0.000000
4220		1.953125
4221		1.953125
4222		3.906250
4223		1.953125
4224		5.859375
4225		3.906250
4226		5.859375
4227		3.906250
4228		7.812500
4229		5.859375
4230		7.812500
4231		7.812500
4232		9.765625
4233		7.812500
4234		9.765625
4235		7.812500
4236		13.671875
4237		7.812500
4238		15.625000
4239		7.812500
4240		17.578125
4241		11.718750
4242		15.625000
4243		13.671875
4244		15.625000
4245		13.671875
4246		17.578125
4247		15.625000
4248		17.578125
4249		17.578125
4250		19.531250
4251		15.625000
4252		23.437500
4253		15.625000
4254		25.390625
4255		17.578125
4256		25.390625
4257		17.578125
4258		25.390625
4259		21.484375
4260		23.437500
4261		23.437500
4262		25.390625
4263		23.437500
4264		25.390625
4265		23.437500
4266		27.343750
4267		25.390625
4268		27.343750
4269		21.484375
4270		31.250000
4271		23.437500
4272		31.250000
4273		23.437500
4274		33.203125
4275		27.343750
4276		29.296875
4277		27.343750
4278		31.250000
4279		29.296875
4280		31.250000
4281		29.296875
4282		31.250000
4283		29.296875
4284		31.250000
4285		27.343750
4286		35.156250
4287		27.343750
4288		35.156250
4289		25.390625
4290		35.156250
4291		27.343750
4292		37.109375
4293		31.250000
4294		33.203125
4295		31.250000
4296		33.203125
4297		31.250000
4298		33.203125
4299		31.250000
4300		33.203125
4301		31.250000
4302		33.203125
4303		27.343750
4304		35.156250
4305		27.343750
4306		37.109375
4307		25.390625
4308		35.156250
4309		29.296875
4310		31.250000
4311		29.296875
4312		31.250000
4313		29.296875
4314		31.250000
4315		27.343750
4316		31.250000
4317		27.343750
4318		29.296875
4319		23.437500
4320		33.203125
4321		23.437500
4322		31.250000
4323		21.484375
4324		31.250000
4325		25.390625
4326		27.343750
4327		23.437500
4328		27.343750
4329		23.437500
4330		25.390625
4331		23.437500
4332		25.390625
4333		21.484375
4334		23.437500
4335		17.578125
4336		25.390625
4337		17.578125
4338		27.343750
4339		15.625000
4340		25.390625
4341		15.625000
4342		25.390625
4343		17.578125
4344		19.531250
4345		15.625000
4346		19.531250
4347		15.625000
4348		17.578125
4349		13.671875
4350		17.578125
4351		11.718750
4352		15.625000
4353		7.812500
4354		19.531250
4355		7.812500
4356		17.578125
4357		5.859375
4358		15.625000
4359		7.812500
4360		11.718750
4361		7.812500
4362		9.765625
4363		5.859375
4364		9.765625
4365		5.859375
4366		7.812500
4367		3.906250
4368		5.859375
4369		0.000000
4370		7.812500
4371		-1.953125
4372		7.812500
4373		-3.906250
4374		7.812500
4375		-3.906250
4376		5.859375
4377		-1.953125
4378		1.953125
4379		-1.953125
4380		0.000000
4381		-3.906250
4382		0.000000
4383		-3.906250
4384		-1.953125
4385		-5.859375
4386		-3.906250
4387		-9.765625
4388		0.000000
4389		-9.765625
4390		-1.953125
4391		-11.718750
4392		-1.953125
4393		-7.812500
4394		-5.859375
4395		-9.765625
4396		-7.812500
4397		-9.765625
4398		-7.812500
4399		-9.765625
4400		-7.812500
4401		-11.718750
4402		-9.765625
4403		-15.625000
4404		-5.859375
4405		-15.625000
4406		-7.812500
4407		-17.578125
4408		-7.812500
4409		-13.671875
4410		-9.765625
4411		-13.671875
4412		-11.718750
4413		-13.671875
4414		-11.718750
4415		-13.671875
4416		-11.718750
4417		-13.671875
4418		-11.718750
4419		-13.671875
4420		-11.718750
4421		-17.578125
4422		-9.765625
4423		-15.625000
4424		-9.765625
4425		-17.578125
4426		-9.765625
4427		-13.671875
4428		-11.718750
4429		-13.671875
4430		-11.718750
4431		-13.671875
4432		-11.718750
4433		-13.671875
4434		-11.718750
4435		-13.671875
4436		-11.718750
4437		-13.671875
4438		-9.765625
4439		-13.671875
4440		-7.812500
4441		-13.671875
4442		-5.859375
4443		-11.718750
4444		-9.765625
4445		-9.765625
4446		-7.812500
4447		-9.765625
4448		-7.812500
4449		-9.765625
4450		-7.812500
4451		-7.812500
4452		-5.859375
4453		-9.765625
4454		-3.906250
4455		-7.812500
4456		-3.906250
4457		-7.812500
4458		-1.953125
4459		-5.859375
4460		-1.953125
4461		-3.906250
4462		-1.953125
4463		-3.906250
4464		0.000000
4465		-1.953125
4466		0.000000
4467		-1.953125
4468		1.953125
4469		0.000000
4470		1.953125
4471		0.000000
4472		3.906250
4473		1.953125
4474		3.906250
4475		1.953125
4476		5.859375
4477		3.906250
4478		7.812500
4479		5.859375
4480		7.812500
4481		5.859375
4482		9.765625
4483		7.812500
4484		9.765625
4485		7.812500
4486		11.718750
4487		9.765625
4488		11.718750
4489		11.718750
4490		13.671875
4491		11.718750
4492		15.625000
4493		13.671875
4494		15.625000
4495		13.671875
4496		17.578125
4497		15.625000
4498		17.578125
4499		15.625000
4500		19.531250
4501		17.578125
4502		19.531250
4503		17.578125
4504		21.484375
4505		19.531250
4506		21.484375
4507		19.531250
4508		23.437500
4509		21.484375
4510		23.437500
4511		21.484375
4512		25.390625
4513		23.437500
4514		25.390625
4515		23.437500
4516		25.390625
4517		25.390625
4518		27.343750
4519		25.390625
4520		27.343750
4521		25.390625
4522		29.296875
4523		25.390625
4524		29.296875
4525		27.343750
4526		29.296875
4527		27.343750
4528		31.250000
4529		27.343750
4530		31.250000
4531		29.296875
4532		31.250000
4533		29.296875
4534		31.250000
4535		29.296875
4536		31.250000
4537		29.296875
4538		33.203125
4539		29.296875
4540		33.203125
4541		31.250000
4542		33.203125
4543		29.296875
4544		33.203125
4545		29.296875
4546		33.203125
4547		31.250000
4548		33.203125
4549		31.250000
4550		33.203125
4551		31.250000
4552		33.203125
4553		31.250000
4554		33.203125
4555		29.296875
4556		33.203125
4557		29.296875
4558		33.203125
4559		29.296875
4560		31.250000
4561		27.343750
4562		33.203125
4563		29.296875
4564		31.250000
4565		29.296875
4566		31.250000
4567		27.343750
4568		29.296875
4569		27.343750
4570		29.296875
4571		25.390625
4572		31.250000
4573		25.390625
4574		29.296875
4575		25.390625
4576		27.343750
4577		23.437500
4578		27.343750
4579		23.437500
4580		27.343750
4581		23.437500
4582		25.390625
4583		21.484375
4584		25.390625
4585		21.484375
4586		23.437500
4587		19.531250
4588		23.437500
4589		19.531250
4590		23.437500
4591		19.531250
4592		21.484375
4593		17.578125
4594		19.531250
4595		15.625000
4596		19.531250
4597		15.625000
4598		19.531250
4599		13.671875
4600		17.578125
4601		13.671875
4602		15.625000
4603		11.718750
4604		15.625000
4605		9.765625
4606		15.625000
4607		9.765625
4608		13.671875
4609		9.765625
4610		11.718750
4611		7.812500
4612		9.765625
4613		5.859375
4614		9.765625
4615		5.859375
4616		7.812500
4617		3.906250
4618		7.812500
4619		3.906250
4620		5.859375
4621		0.000000
4622		5.859375
4623		0.000000
4624		3.906250
4625		0.000000
4626		3.906250
4627		-1.953125
4628		1.953125
4629		-1.953125
4630		1.953125
4631		-3.906250
4632		0.000000
4633		-3.906250
4634		-1.953125
4635		-3.906250
4636		-1.953125
4637		-5.859375
4638		-3.906250
4639		-7.812500
4640		-3.906250
4641		-7.812500
4642		-3.906250
4643		-7.812500
4644		-5.859375
4645		-9.765625
4646		-5.859375
4647		-9.765625
4648		-5.859375
4649		-9.765625
4650		-7.812500
4651		-11.718750
4652		-7.812500
4653		-11.718750
4654		-9.765625
4655		-13.671875
4656		-9.765625
4657		-13.671875
4658		-9.765625
4659		-13.671875
4660		-9.765625
4661		-13.671875
4662		-11.718750
4663		-13.671875
4664		-9.765625
4665		-13.671875
4666		-11.718750
4667		-13.671875
4668		-11.718750
4669		-13.671875
4670		-11.718750
4671		-15.625000
4672		-9.765625
4673		-15.625000
4674		-11.718750
4675		-13.671875
4676		-11.718750
4677		-13.671875
4678		-11.718750
4679		-15.625000
4680		-11.718750
4681		-13.671875
4682		-11.718750
4683		-13.671875
4684		-11.718750
4685		-13.671875
4686		-11.718750
4687		-13.671875
4688		-9.765625
4689		-13.671875
4690		-9.765625
4691		-13.671875
4692		-7.812500
4693		-11.718750
4694		-9.765625
4695		-11.718750
4696		-7.812500
4697		-11.718750
4698		-7.812500
4699		-9.765625
4700		-7.812500
4701		-7.812500
4702		-5.859375
4703		-7.812500
4704		-5.859375
4705		-7.812500
4706		-3.906250
4707		-5.859375
4708		-3.906250
4709		-5.859375
4710		-1.953125
4711		-3.906250
4712		-1.953125
4713		-3.906250
4714		0.000000
4715		-1.953125
4716		0.000000
4717		-1.953125
4718		1.953125
4719		0.000000
4720		1.953125
4721		0.000000
4722		3.906250
4723		0.000000
4724		3.906250
4725		1.953125
4726		5.859375
4727		3.906250
4728		5.859375
4729		5.859375
4730		7.812500
4731		5.859375
4732		7.812500
4733		7.812500
4734		9.765625
4735		7.812500
4736		11.718750
4737		9.765625
4738		11.718750
4739		9.765625
4740		13.671875
4741		11.718750
4742		13.671875
4743		13.671875
4744		15.625000
4745		13.671875
4746		15.625000
4747		15.625000
4748		17.578125
4749		15.625000
4750		19.531250
4751		17.578125
4752		19.531250
4753		17.578125
4754		21.484375
4755		19.531250
4756		21.484375
4757		19.531250
4758		23.437500
4759		21.484375
4760		23.437500
4761		21.484375
4762		23.437500
4763		21.484375
4764		25.390625
4765		23.437500
4766		25.390625
4767		25.390625
4768		27.343750
4769		25.390625
4770		27.343750
4771		25.390625
4772		29.296875
4773		25.390625
4774		29.296875
4775		27.343750
4776		29.296875
4777		27.343750
4778		29.296875
4779		29.296875
4780		31.250000
4781		29.296875
4782		31.250000
4783		29.296875
4784		31.250000
4785		29.296875
4786		31.250000
4787		29.296875
4788		33.203125
4789		31.250000
4790		33.203125
4791		29.296875
4792		33.203125
4793		31.250000
4794		33.203125
4795		31.250000
4796		33.203125
4797		31.250000
4798		33.203125
4799		31.250000
4800		33.203125
4801		31.250000
4802		33.203125
4803		31.250000
4804		33.203125
4805		31.250000
4806		33.203125
4807		31.250000
4808		33.203125
4809		31.250000
4810		33.203125
4811		29.296875
4812		31.250000
4813		29.296875
4814		31.250000
4815		29.296875
4816		31.250000
4817		29.296875
4818		31.250000
4819		27.343750
4820		31.250000
4821		27.343750
4822		29.296875
4823		25.390625
4824		29.296875
4825		27.343750
4826		29.296875
4827		25.390625
4828		27.343750
4829		25.390625
4830		27.343750
4831		23.437500
4832		27.343750
4833		23.437500
4834		25.390625
4835		23.437500
4836		25.390625
4837		21.484375
4838		23.437500
4839		19.531250
4840		23.437500
4841		19.531250
4842		23.437500
4843		17.578125
4844		21.484375
4845		17.578125
4846		19.531250
4847		15.625000
4848		19.531250
4849		15.625000
4850		17.578125
4851		13.671875
4852		17.578125
4853		13.671875
4854		15.625000
4855		11.718750
4856		13.671875
4857		9.765625
4858		15.625000
4859		7.812500
4860		13.671875
4861		7.812500
4862		11.718750
4863		7.812500
4864		9.765625
4865		5.859375
4866		9.765625
4867		5.859375
4868		7.812500
4869		3.906250
4870		5.859375
4871		3.906250
4872		5.859375
4873		0.000000
4874		5.859375
4875		0.000000
4876		5.859375
4877		0.000000
4878		1.953125
4879		-1.953125
4880		1.953125
4881		-1.953125
4882		0.000000
4883		-3.906250
4884		0.000000
4885		-3.906250
4886		-1.953125
4887		-5.859375
4888		-1.953125
4889		-5.859375
4890		-3.906250
4891		-7.812500
4892		-1.953125
4893		-9.765625
4894		-3.906250
4895		-7.812500
4896		-5.859375
4897		-9.765625
4898		-5.859375
4899		-9.765625
4900		-7.812500
4901		-11.718750
4902		-7.812500
4903		-11.718750
4904		-7.812500
4905		-11.718750
4906		-9.765625
4907		-13.671875
4908		-7.812500
4909		-13.671875
4910		-7.812500
4911		-13.671875
4912		-9.765625
4913		-13.671875
4914		-9.765625
4915		-13.671875
4916		-11.718750
4917		-13.671875
4918		-11.718750
4919		-13.671875
4920		-11.718750
4921		-13.671875
4922		-11.718750
4923		-15.625000
4924		-9.765625
4925		-15.625000
4926		-9.765625
4927		-15.625000
4928		-9.765625
4929		-13.671875
4930		-11.718750
4931		-13.671875
4932		-11.718750
4933		-13.671875
4934		-11.718750
4935		-13.671875
4936		-11.718750
4937		-11.718750
4938		-9.765625
4939		-11.718750
4940		-9.765625
4941		-13.671875
4942		-7.812500
4943		-11.718750
4944		-7.812500
4945		-11.718750
4946		-7.812500
4947		-9.765625
4948		-7.812500
4949		-9.765625
4950		-7.812500
4951		-9.765625
4952		-5.859375
4953		-7.812500
4954		-5.859375
4955		-7.812500
4956		-3.906250
4957		-7.812500
4958		-1.953125
4959		-7.812500
4960		-1.953125
4961		-5.859375
4962		-1.953125
4963		-3.906250
4964		-1.953125
4965		-1.953125
4966		0.000000
4967		-1.953125
4968		0.000000
4969		-1.953125
4970		1.953125
4971		0.000000
4972		3.906250
4973		1.953125
4974		3.906250
4975		0.000000
4976		5.859375
4977		1.953125
4978		7.812500
4979		3.906250
4980		7.812500
4981		5.859375
4982		7.812500
4983		5.859375
4984		9.765625
4985		7.812500
4986		9.765625
4987		9.765625
4988		11.718750
4989		9.765625
4990		13.671875
4991		9.765625
4992		15.625000
4993		11.718750
4994		17.578125
4995		13.671875
4996		15.625000
4997		15.625000
4998		17.578125
4999		15.625000
5000		17.578125
5001		17.578125
5002		19.531250
5003		17.578125
5004		21.484375
5005		19.531250
5006		21.484375
5007		19.531250
5008		21.484375
5009		19.531250
5010		25.390625
5011		21.484375
5012		25.390625
5013		23.437500
5014		25.390625
5015		23.437500
5016		27.343750
5017		25.390625
5018		27.343750
5019		25.390625
5020		27.343750
5021		25.390625
5022		29.296875
5023		27.343750
5024		29.296875
5025		25.390625
5026		31.250000
5027		27.343750
5028		31.250000
5029		29.296875
5030		31.250000
5031		29.296875
5032		31.250000
5033		29.296875
5034		31.250000
5035		29.296875
5036		31.250000
5037		31.250000
5038		33.203125
5039		31.250000
5040		33.203125
5041		29.296875
5042		33.203125
5043		31.250000
5044		33.203125
5045		31.250000
5046		33.203125
5047		31.250000
5048		33.203125
5049		31.250000
5050		33.203125
5051		31.250000
5052		33.203125
5053		31.250000
5054		33.203125
5055		31.250000
5056		33.203125
5057		31.250000
5058		33.203125
5059		29.296875
5060		33.203125
5061		31.250000
5062		33.203125
5063		29.296875
5064		31.250000
5065		29.296875
5066		33.203125
5067		29.296875
5068		31.250000
5069		29.296875
5070		31.250000
5071		27.343750
5072		31.250000
5073		27.343750
5074		29.296875
5075		25.390625
5076		29.296875
5077		25.390625
5078		29.296875
5079		25.390625
5080		27.343750
5081		25.390625
5082		27.343750
5083		23.437500
5084		25.390625
5085		23.437500
5086		25.390625
5087		21.484375
5088		25.390625
5089		21.484375
5090		23.437500
5091		19.531250
5092		21.484375
5093		19.531250
5094		21.484375
5095		17.578125
5096		21.484375
5097		15.625000
5098		19.531250
5099		15.625000
5100		19.531250
5101		15.625000
5102		17.578125
5103		13.671875
5104		15.625000
5105		13.671875
5106		15.625000
5107		11.718750
5108		13.671875
5109		9.765625
5110		13.671875
5111		9.765625
5112		11.718750
5113		7.812500
5114		11.718750
5115		7.812500
5116		9.765625
5117		5.859375
5118		7.812500
5119		3.906250
5120		7.812500
5121		3.906250
5122		5.859375
5123		1.953125
5124		5.859375
5125		1.953125
5126		3.906250
5127		0.000000
5128		1.953125
5129		0.000000
5130		1.953125
5131		-1.953125
5132		1.953125
5133		-1.953125
5134		0.000000
5135		-3.906250
5136		0.000000
5137		-5.859375
5138		-1.953125
5139		-5.859375
5140		-1.953125
5141		-5.859375
5142		-3.906250
5143		-7.812500
5144		-5.859375
5145		-7.812500
5146		-5.859375
5147		-7.812500
5148		-5.859375
5149		-9.765625
5150		-7.812500
5151		-9.765625
5152		-7.812500
5153		-11.718750
5154		-7.812500
5155		-11.718750
5156		-9.765625
5157		-11.718750
5158		-9.765625
5159		-11.718750
5160		-9.765625
5161		-13.671875
5162		-9.765625
5163		-13.671875
5164		-9.765625
5165		-13.671875
5166		-11.718750
5167		-13.671875
5168		-11.718750
5169		-13.671875
5170		-11.718750
5171		-13.671875
5172		-11.718750
5173		-13.671875
5174		-11.718750
5175		-13.671875
5176		-11.718750
5177		-13.671875
5178		-11.718750
5179		-13.671875
5180		-11.718750
5181		-13.671875
5182		-11.718750
5183		-13.671875
5184		-11.718750
5185		-13.671875
5186		-9.765625
5187		-13.671875
5188		-9.765625
5189		-11.718750
5190		-9.765625
5191		-11.718750
5192		-9.765625
5193		-11.718750
5194		-9.765625
5195		-11.718750
5196		-7.812500
5197		-11.718750
5198		-7.812500
5199		-9.765625
5200		-7.812500
5201		-9.765625
5202		-5.859375
5203		-7.812500
5204		-5.859375
5205		-7.812500
5206		-5.859375
5207		-7.812500
5208		-3.906250
5209		-5.859375
5210		-3.906250
5211		-5.859375
5212		-1.953125
5213		-3.906250
5214		-1.953125
5215		-3.906250
5216		0.000000
5217		-1.953125
5218		0.000000
5219		-1.953125
5220		1.953125
5221		0.000000
5222		1.953125
5223		0.000000
5224		3.906250
5225		1.953125
5226		3.906250
5227		3.906250
5228		5.859375
5229		3.906250
5230		7.812500
5231		5.859375
5232		7.812500
5233		5.859375
5234		9.765625
5235		7.812500
5236		9.765625
5237		7.812500
5238		11.718750
5239		9.765625
5240		11.718750
5241		11.718750
5242		13.671875
5243		11.718750
5244		15.625000
5245		13.671875
5246		15.625000
5247		13.671875
5248		17.578125
5249		15.625000
5250		17.578125
5251		15.625000
5252		19.531250
5253		15.625000
5254		19.531250
5255		19.531250
5256		21.484375
5257		19.531250
5258		21.484375
5259		19.531250
5260		23.437500
5261		21.484375
5262		23.437500
5263		21.484375
5264		25.390625
5265		23.437500
5266		25.390625
5267		23.437500
5268		27.343750
5269		25.390625
5270		27.343750
5271		25.390625
5272		27.343750
5273		25.390625
5274		29.296875
5275		27.343750
5276		29.296875
5277		27.343750
5278		29.296875
5279		27.343750
5280		31.250000
5281		29.296875
5282		31.250000
5283		29.296875
5284		31.250000
5285		29.296875
5286		31.250000
5287		29.296875
5288		31.250000
5289		29.296875
5290		33.203125
5291		31.250000
5292		33.203125
5293		29.296875
5294		33.203125
5295		31.250000
5296		33.203125
5297		31.250000
5298		33.203125
5299		31.250000
5300		33.203125
5301		31.250000
5302		33.203125
5303		31.250000
5304		33.203125
5305		31.250000
5306		33.203125
5307		29.296875
5308		33.203125
5309		31.250000
5310		33.203125
5311		31.250000
5312		33.203125
5313		29.296875
5314		31.250000
5315		29.296875
5316		31.250000
5317		29.296875
5318		31.250000
5319		29.296875
5320		31.250000
5321		27.343750
5322		31.250000
5323		27.343750
5324		29.296875
5325		27.343750
5326		29.296875
5327		25.390625
5328		29.296875
5329		25.390625
5330		27.343750
5331		25.390625
5332		27.343750
5333		23.437500
5334		25.390625
5335		23.437500
5336		25.390625
5337		21.484375
5338		25.390625
5339		21.484375
5340		23.437500
5341		19.531250
5342		23.437500
5343		19.531250
5344		21.484375
5345		17.578125
5346		21.484375
5347		17.578125
5348		19.531250
5349		15.625000
5350		19.531250
5351		15.625000
5352		17.578125
5353		13.671875
5354		17.578125
5355		13.671875
5356		15.625000
5357		11.718750
5358		13.671875
5359		11.718750
5360		13.671875
5361		9.765625
5362		13.671875
5363		7.812500
5364		11.718750
5365		7.812500
5366		9.765625
5367		5.859375
5368		9.765625
5369		5.859375
5370		7.812500
5371		3.906250
5372		7.812500
5373		3.906250
5374		5.859375
5375		1.953125
5376		3.906250
5377		0.000000
5378		3.906250
5379		0.000000
5380		1.953125
5381		-1.953125
5382		1.953125
5383		-1.953125
5384		0.000000
5385		-3.906250
5386		0.000000
5387		-3.906250
5388		0.000000
5389		-5.859375
5390		-1.953125
5391		-5.859375
5392		-3.906250
5393		-7.812500
5394		-3.906250
5395		-7.812500
5396		-5.859375
5397		-9.765625
5398		-5.859375
5399		-9.765625
5400		-5.859375
5401		-9.765625
5402		-7.812500
5403		-9.765625
5404		-7.812500
5405		-11.718750
5406		-7.812500
5407		-11.718750
5408		-9.765625
5409		-11.718750
5410		-9.765625
5411		-11.718750
5412		-9.765625
5413		-11.718750
5414		-11.718750
5415		-13.671875
5416		-11.718750
5417		-13.671875
5418		-9.765625
5419		-13.671875
5420		-11.718750
5421		-13.671875
5422		-9.765625
5423		-13.671875
5424		-11.718750
5425		-13.671875
5426		-11.718750
5427		-13.671875
5428		-11.718750
5429		-13.671875
5430		-11.718750
5431		-13.671875
5432		-11.718750
5433		-13.671875
5434		-11.718750
5435		-13.671875
5436		-11.718750
5437		-13.671875
5438		-9.765625
5439		-11.718750
5440		-9.765625
5441		-11.718750
5442		-9.765625
5443		-11.718750
5444		-9.765625
5445		-11.718750
5446		-9.765625
5447		-9.765625
5448		-7.812500
5449		-9.765625
5450		-7.812500
5451		-9.765625
5452		-7.812500
5453		-9.765625
5454		-5.859375
5455		-7.812500
5456		-5.859375
5457		-7.812500
5458		-3.906250
5459		-5.859375
5460		-3.906250
5461		-5.859375
5462		-3.906250
5463		-3.906250
5464		-1.953125
5465		-3.906250
5466		0.000000
5467		-1.953125
5468		0.000000
5469		-1.953125
5470		1.953125
5471		0.000000
5472		1.953125
5473		0.000000
5474		3.906250
5475		1.953125
5476		3.906250
5477		1.953125
5478		5.859375
5479		3.906250
5480		5.859375
5481		3.906250
5482		7.812500
5483		5.859375
5484		7.812500
5485		7.812500
5486		9.765625
5487		7.812500
5488		11.718750
5489		9.765625
5490		11.718750
5491		11.718750
5492		13.671875
5493		11.718750
5494		13.671875
5495		13.671875
5496		15.625000
5497		13.671875
5498		15.625000
5499		15.625000
5500		17.578125
5501		15.625000
5502		19.531250
5503		17.578125
5504		19.531250
5505		17.578125
5506		21.484375
5507		19.531250
5508		21.484375
5509		19.531250
5510		23.437500
5511		19.531250
5512		23.437500
5513		21.484375
5514		25.390625
5515		23.437500
5516		25.390625
5517		23.437500
5518		27.343750
5519		25.390625
5520		27.343750
5521		25.390625
5522		29.296875
5523		25.390625
5524		29.296875
5525		27.343750
5526		29.296875
5527		27.343750
5528		29.296875
5529		29.296875
5530		31.250000
5531		27.343750
5532		31.250000
5533		29.296875
5534		31.250000
5535		29.296875
5536		31.250000
5537		29.296875
5538		31.250000
5539		31.250000
5540		33.203125
5541		31.250000
5542		33.203125
5543		31.250000
5544		33.203125
5545		31.250000
5546		33.203125
5547		31.250000
5548		33.203125
5549		31.250000
5550		33.203125
5551		31.250000
5552		33.203125
5553		31.250000
5554		33.203125
5555		31.250000
5556		33.203125
5557		31.250000
5558		33.203125
5559		31.250000
5560		33.203125
5561		31.250000
5562		33.203125
5563		31.250000
5564		33.203125
5565		29.296875
5566		33.203125
5567		29.296875
5568		33.203125
5569		29.296875
5570		31.250000
5571		29.296875
5572		31.250000
5573		27.343750
5574		31.250000
5575		27.343750
5576		29.296875
5577		27.343750
5578		29.296875
5579		25.390625
5580		29.296875
5581		25.390625
5582		27.343750
5583		25.390625
5584		27.343750
5585		23.437500
5586		25.390625
5587		23.437500
5588		25.390625
5589		21.484375
5590		25.390625
5591		21.484375
5592		23.437500
5593		19.531250
5594		23.437500
5595		19.531250
5596		21.484375
5597		17.578125
5598		21.484375
5599		17.578125
5600		19.531250
5601		15.625000
5602		19.531250
5603		15.625000
5604		17.578125
5605		13.671875
5606		15.625000
5607		13.671875
5608		15.625000
5609		11.718750
5610		13.671875
5611		9.765625
5612		13.671875
5613		9.765625
5614		11.718750
5615		7.812500
5616		9.765625
5617		7.812500
5618		9.765625
5619		5.859375
5620		7.812500
5621		3.906250
5622		7.812500
5623		3.906250
5624		5.859375
5625		1.953125
5626		5.859375
5627		1.953125
5628		3.906250
5629		0.000000
5630		3.906250
5631		0.000000
5632		1.953125
5633		-1.953125
5634		1.953125
5635		-1.953125
5636		0.000000
5637		-3.906250
5638		-1.953125
5639		-3.906250
5640		-1.953125
5641		-5.859375
5642		-1.953125
5643		-5.859375
5644		-3.906250
5645		-7.812500
5646		-3.906250
5647		-7.812500
5648		-5.859375
5649		-7.812500
5650		-5.859375
5651		-9.765625
5652		-7.812500
5653		-9.765625
5654		-7.812500
5655		-9.765625
5656		-7.812500
5657		-11.718750
5658		-9.765625
5659		-11.718750
5660		-7.812500
5661		-11.718750
5662		-9.765625
5663		-11.718750
5664		-9.765625
5665		-11.718750
5666		-9.765625
5667		-13.671875
5668		-11.718750
5669		-13.671875
5670		-11.718750
5671		-13.671875
5672		-11.718750
5673		-13.671875
5674		-11.718750
5675		-13.671875
5676		-11.718750
5677		-13.671875
5678		-11.718750
5679		-13.671875
5680		-11.718750
5681		-13.671875
5682		-11.718750
5683		-13.671875
5684		-11.718750
5685		-13.671875
5686		-11.718750
5687		-13.671875
5688		-11.718750
5689		-11.718750
5690		-9.765625
5691		-11.718750
5692		-9.765625
5693		-11.718750
5694		-9.765625
5695		-11.718750
5696		-9.765625
5697		-11.718750
5698		-7.812500
5699		-9.765625
5700		-7.812500
5701		-9.765625
5702		-7.812500
5703		-7.812500
5704		-5.859375
5705		-9.765625
5706		-5.859375
5707		-7.812500
5708		-5.859375
5709		-5.859375
5710		-3.906250
5711		-5.859375
5712		-3.906250
5713		-3.906250
5714		-1.953125
5715		-3.906250
5716		-1.953125
5717		-3.906250
5718		0.000000
5719		-1.953125
5720		0.000000
5721		0.000000
5722		1.953125
5723		0.000000
5724		1.953125
5725		1.953125
5726		3.906250
5727		1.953125
5728		5.859375
5729		3.906250
5730		5.859375
5731		3.906250
5732		7.812500
5733		5.859375
5734		7.812500
5735		5.859375
5736		9.765625
5737		7.812500
5738		9.765625
5739		7.812500
5740		11.718750
5741		9.765625
5742		11.718750
5743		11.718750
5744		13.671875
5745		11.718750
5746		15.625000
5747		13.671875
5748		15.625000
5749		13.671875
5750		17.578125
5751		15.625000
5752		19.531250
5753		17.578125
5754		19.531250
5755		17.578125
5756		19.531250
5757		19.531250
5758		21.484375
5759		19.531250
5760		23.437500
5761		21.484375
5762		23.437500
5763		21.484375
5764		25.390625
5765		23.437500
5766		25.390625
5767		23.437500
5768		25.390625
5769		25.390625
5770		27.343750
5771		25.390625
5772		27.343750
5773		25.390625
5774		27.343750
5775		25.390625
5776		29.296875
5777		27.343750
5778		29.296875
5779		27.343750
5780		29.296875
5781		29.296875
5782		31.250000
5783		29.296875
5784		31.250000
5785		29.296875
5786		31.250000
5787		29.296875
5788		31.250000
5789		29.296875
5790		33.203125
5791		31.250000
5792		33.203125
5793		29.296875
5794		33.203125
5795		31.250000
5796		33.203125
5797		31.250000
5798		33.203125
5799		31.250000
5800		33.203125
5801		31.250000
5802		33.203125
5803		31.250000
5804		33.203125
5805		31.250000
5806		33.203125
5807		31.250000
5808		33.203125
5809		29.296875
5810		33.203125
5811		31.250000
5812		33.203125
5813		31.250000
5814		33.203125
5815		31.250000
5816		33.203125
5817		29.296875
5818		31.250000
5819		29.296875
5820		31.250000
5821		29.296875
5822		31.250000
5823		27.343750
5824		31.250000
5825		27.343750
5826		29.296875
5827		27.343750
5828		29.296875
5829		25.390625
5830		29.296875
5831		25.390625
5832		27.343750
5833		25.390625
5834		27.343750
5835		23.437500
5836		27.343750
5837		23.437500
5838		25.390625
5839		21.484375
5840		25.390625
5841		21.484375
5842		23.437500
5843		21.484375
5844		23.437500
5845		19.531250
5846		21.484375
5847		17.578125
5848		21.484375
5849		17.578125
5850		19.531250
5851		15.625000
5852		19.531250
5853		15.625000
5854		17.578125
5855		13.671875
5856		17.578125
5857		13.671875
5858		15.625000
5859		11.718750
5860		15.625000
5861		9.765625
5862		13.671875
5863		9.765625
5864		11.718750
5865		7.812500
5866		11.718750
5867		7.812500
5868		9.765625
5869		5.859375
5870		9.765625
5871		5.859375
5872		7.812500
5873		3.906250
5874		7.812500
5875		3.906250
5876		5.859375
5877		1.953125
5878		3.906250
5879		0.000000
5880		3.906250
5881		0.000000
5882		3.906250
5883		-1.953125
5884		1.953125
5885		-1.953125
5886		0.000000
5887		-3.906250
5888		1.953125
5889		-3.906250
5890		-1.953125
5891		-5.859375
5892		0.000000
5893		-5.859375
5894		-1.953125
5895		-7.812500
5896		-3.906250
5897		-7.812500
5898		-3.906250
5899		-7.812500
5900		-5.859375
5901		-9.765625
5902		-5.859375
5903		-11.718750
5904		-5.859375
5905		-9.765625
5906		-7.812500
5907		-11.718750
5908		-7.812500
5909		-11.718750
5910		-9.765625
5911		-13.671875
5912		-7.812500
5913		-11.718750
5914		-9.765625
5915		-13.671875
5916		-9.765625
5917		-13.671875
5918		-9.765625
5919		-13.671875
5920		-9.765625
5921		-13.671875
5922		-9.765625
5923		-15.625000
5924		-9.765625
5925		-15.625000
5926		-9.765625
5927		-15.625000
5928		-9.765625
5929		-13.671875
5930		-11.718750
5931		-13.671875
5932		-11.718750
5933		-15.625000
5934		-9.765625
5935		-13.671875
5936		-9.765625
5937		-15.625000
5938		-9.765625
5939		-13.671875
5940		-9.765625
5941		-15.625000
5942		-7.812500
5943		-11.718750
5944		-9.765625
5945		-13.671875
5946		-5.859375
5947		-11.718750
5948		-7.812500
5949		-9.765625
5950		-7.812500
5951		-13.671875
5952		-3.906250
5953		-9.765625
5954		-3.906250
5955		-9.765625
5956		-5.859375
5957		-7.812500
5958		-3.906250
5959		-9.765625
5960		-3.906250
5961		-7.812500
5962		0.000000
5963		-5.859375
5964		-1.953125
5965		-5.859375
5966		-1.953125
5967		-3.906250
5968		0.000000
5969		-5.859375
5970		1.953125
5971		-1.953125
5972		1.953125
5973		0.000000
5974		3.906250
5975		-1.953125
5976		7.812500
5977		0.000000
5978		3.906250
5979		0.000000
5980		7.812500
5981		3.906250
5982		7.812500
5983		3.906250
5984		9.765625
5985		3.906250
5986		11.718750
5987		5.859375
5988		11.718750
5989		7.812500
5990		11.718750
5991		7.812500
5992		15.625000
5993		7.812500
5994		15.625000
5995		7.812500
5996		17.578125
5997		13.671875
5998		15.625000
5999		13.671875
6000		17.578125
6001		13.671875
6002		19.531250
6003		11.718750
6004		21.484375
6005		15.625000
6006		21.484375
6007		17.578125
6008		21.484375
6009		15.625000
6010		25.390625
6011		17.578125
6012		27.343750
6013		21.484375
6014		23.437500
6015		21.484375
6016		25.390625
6017		23.437500
6018		27.343750
6019		21.484375
6020		29.296875
6021		23.437500
6022		29.296875
6023		25.390625
6024		29.296875
6025		23.437500
6026		31.250000
6027		23.437500
6028		33.203125
6029		23.437500
6030		33.203125
6031		29.296875
6032		31.250000
6033		27.343750
6034		33.203125
6035		27.343750
6036		35.156250
6037		27.343750
6038		35.156250
6039		31.250000
6040		33.203125
6041		31.250000
6042		33.203125
6043		27.343750
6044		37.109375
6045		29.296875
6046		37.109375
6047		31.250000
6048		35.156250
6049		31.250000
6050		33.203125
6051		31.250000
6052		35.156250
6053		29.296875
6054		37.109375
6055		29.296875
6056		35.156250
6057		31.250000
6058		33.203125
6059		29.296875
6060		37.109375
6061		27.343750
6062		37.109375
6063		27.343750
6064		35.156250
6065		31.250000
6066		33.203125
6067		29.296875
6068		33.203125
6069		27.343750
6070		35.156250
6071		27.343750
6072		33.203125
6073		29.296875
6074		31.250000
6075		25.390625
6076		33.203125
6077		23.437500
6078		33.203125
6079		25.390625
6080		33.203125
6081		25.390625
6082		29.296875
6083		25.390625
6084		27.343750
6085		23.437500
6086		27.343750
6087		21.484375
6088		29.296875
6089		21.484375
6090		27.343750
6091		21.484375
6092		25.390625
6093		17.578125
6094		27.343750
6095		17.578125
6096		25.390625
6097		19.531250
6098		21.484375
6099		17.578125
6100		21.484375
6101		15.625000
6102		19.531250
6103		11.718750
6104		21.484375
6105		13.671875
6106		19.531250
6107		13.671875
6108		17.578125
6109		9.765625
6110		17.578125
6111		9.765625
6112		17.578125
6113		9.765625
6114		15.625000
6115		9.765625
6116		11.718750
6117		7.812500
6118		11.718750
6119		3.906250
6120		11.718750
6121		3.906250
6122		11.718750
6123		5.859375
6124		9.765625
6125		1.953125
6126		7.812500
6127		0.000000
6128		7.812500
6129		0.000000
6130		5.859375
6131		0.000000
6132		3.906250
6133		0.000000
6134		1.953125
6135		-1.953125
6136		1.953125
6137		-3.906250
6138		3.906250
6139		-5.859375
6140		1.953125
6141		-5.859375
6142		-1.953125
6143		-7.812500
6144		0.000000
6145		-7.812500
6146		0.000000
6147		-9.765625
6148		-1.953125
6149		-7.812500
6150		-5.859375
6151		-9.765625
6152		-5.859375
6153		-11.718750
6154		-3.906250
6155		-11.718750
6156		-5.859375
6157		-9.765625
6158		-7.812500
6159		-11.718750
6160		-5.859375
6161		-11.718750
6162		-9.765625
6163		-13.671875
6164		-5.859375
6165		-11.718750
6166		-9.765625
6167		-11.718750
6168		-9.765625
6169		-13.671875
6170		-9.765625
6171		-15.625000
6172		-7.812500
6173		-13.671875
6174		-11.718750
6175		-13.671875
6176		-9.765625
6177		-15.625000
6178		-9.765625
6179		-13.671875
6180		-11.718750
6181		-13.671875
6182		-11.718750
6183		-13.671875
6184		-11.718750
6185		-13.671875
6186		-11.718750
6187		-11.718750
6188		-11.718750
6189		-13.671875
6190		-7.812500
6191		-11.718750
6192		-9.765625
6193		-13.671875
6194		-7.812500
6195		-11.718750
6196		-9.765625
6197		-11.718750
6198		-7.812500
6199		-9.765625
6200		-7.812500
6201		-9.765625
6202		-5.859375
6203		-9.765625
6204		-5.859375
6205		-7.812500
6206		-5.859375
6207		-7.812500
6208		-5.859375
6209		-7.812500
6210		-3.906250
6211		-5.859375
6212		-3.906250
6213		-5.859375
6214		-1.953125
6215		-3.906250
6216		-1.953125
6217		-3.906250
6218		-1.953125
6219		-3.906250
6220		0.000000
6221		-1.953125
6222		0.000000
6223		0.000000
6224		1.953125
6225		0.000000
6226		3.906250
6227		1.953125
6228		3.906250
6229		1.953125
6230		5.859375
6231		1.953125
6232		5.859375
6233		5.859375
6234		7.812500
6235		5.859375
6236		9.765625
6237		5.859375
6238		11.718750
6239		7.812500
6240		11.718750
6241		7.812500
6242		13.671875
6243		9.765625
6244		13.671875
6245		9.765625
6246		15.625000
6247		11.718750
6248		17.578125
6249		13.671875
6250		17.578125
6251		15.625000
6252		17.578125
6253		15.625000
6254		19.531250
6255		15.625000
6256		21.484375
6257		17.578125
6258		21.484375
6259		17.578125
6260		23.437500
6261		19.531250
6262		23.437500
6263		19.531250
6264		25.390625
6265		21.484375
6266		25.390625
6267		23.437500
6268		25.390625
6269		23.437500
6270		27.343750
6271		23.437500
6272		29.296875
6273		23.437500
6274		29.296875
6275		25.390625
6276		29.296875
6277		25.390625
6278		31.250000
6279		25.390625
6280		31.250000
6281		27.343750
6282		31.250000
6283		29.296875
6284		31.250000
6285		29.296875
6286		33.203125
6287		29.296875
6288		33.203125
6289		29.296875
6290		33.203125
6291		29.296875
6292		35.156250
6293		29.296875
6294		35.156250
6295		29.296875
6296		35.156250
6297		29.296875
6298		35.156250
6299		31.250000
6300		33.203125
6301		31.250000
6302		33.203125
6303		31.250000
6304		33.203125
6305		31.250000
6306		35.156250
6307		31.250000
6308		35.156250
6309		29.296875
6310		35.156250
6311		31.250000
6312		35.156250
6313		31.250000
6314		35.156250
6315		29.296875
6316		33.203125
6317		29.296875
6318		33.203125
6319		27.343750
6320		33.203125
6321		29.296875
6322		33.203125
6323		27.343750
6324		33.203125
6325		27.343750
6326		33.203125
6327		25.390625
6328		31.250000
6329		27.343750
6330		31.250000
6331		27.343750
6332		29.296875
6333		25.390625
6334		29.296875
6335		25.390625
6336		27.343750
6337		23.437500
6338		27.343750
6339		23.437500
6340		27.343750
6341		21.484375
6342		27.343750
6343		19.531250
6344		25.390625
6345		19.531250
6346		23.437500
6347		17.578125
6348		23.437500
6349		19.531250
6350		21.484375
6351		17.578125
6352		21.484375
6353		15.625000
6354		19.531250
6355		15.625000
6356		19.531250
6357		13.671875
6358		17.578125
6359		9.765625
6360		17.578125
6361		11.718750
6362		15.625000
6363		11.718750
6364		13.671875
6365		9.765625
6366		13.671875
6367		9.765625
6368		11.718750
6369		7.812500
6370		9.765625
6371		5.859375
6372		9.765625
6373		3.906250
6374		7.812500
6375		1.953125
6376		7.812500
6377		1.953125
6378		7.812500
6379		1.953125
6380		5.859375
6381		0.000000
6382		3.906250
6383		0.000000
6384		1.953125
6385		0.000000
6386		1.953125
6387		-1.953125
6388		1.953125
6389		-3.906250
6390		0.000000
6391		-3.906250
6392		-1.953125
6393		-5.859375
6394		0.000000
6395		-5.859375
6396		-1.953125
6397		-5.859375
6398		-3.906250
6399		-7.812500
6400		-3.906250
6401		-7.812500
6402		-5.859375
6403		-9.765625
6404		-5.859375
6405		-9.765625
6406		-5.859375
6407		-11.718750
6408		-7.812500
6409		-11.718750
6410		-5.859375
6411		-11.718750
6412		-7.812500
6413		-11.718750
6414		-9.765625
6415		-13.671875
6416		-7.812500
6417		-11.718750
6418		-9.765625
6419		-11.718750
6420		-9.765625
6421		-13.671875
6422		-9.765625
6423		-13.671875
6424		-9.765625
6425		-13.671875
6426		-9.765625
6427		-15.625000
6428		-9.765625
6429		-13.671875
6430		-9.765625
6431		-13.671875
6432		-9.765625
6433		-13.671875
6434		-9.765625
6435		-13.671875
6436		-11.718750
6437		-13.671875
6438		-9.765625
6439		-13.671875
6440		-9.765625
6441		-13.671875
6442		-9.765625
6443		-13.671875
6444		-7.812500
6445		-11.718750
6446		-7.812500
6447		-11.718750
6448		-7.812500
6449		-11.718750
6450		-7.812500
6451		-9.765625
6452		-7.812500
6453		-9.765625
6454		-5.859375
6455		-9.765625
6456		-5.859375
6457		-7.812500
6458		-5.859375
6459		-7.812500
6460		-3.906250
6461		-7.812500
6462		-3.906250
6463		-5.859375
6464		-1.953125
6465		-5.859375
6466		-1.953125
6467		-3.906250
6468		-1.953125
6469		-1.953125
6470		0.000000
6471		-1.953125
6472		1.953125
6473		-1.953125
6474		1.953125
6475		0.000000
6476		3.906250
6477		0.000000
6478		3.906250
6479		1.953125
6480		5.859375
6481		3.906250
6482		5.859375
6483		3.906250
6484		7.812500
6485		5.859375
6486		7.812500
6487		5.859375
6488		9.765625
6489		7.812500
6490		11.718750
6491		7.812500
6492		11.718750
6493		9.765625
6494		13.671875
6495		9.765625
6496		13.671875
6497		11.718750
6498		15.625000
6499		11.718750
6500		17.578125
6501		13.671875
6502		17.578125
6503		15.625000
6504		17.578125
6505		15.625000
6506		19.531250
6507		17.578125
6508		21.484375
6509		17.578125
6510		21.484375
6511		19.531250
6512		23.437500
6513		19.531250
6514		23.437500
6515		21.484375
6516		25.390625
6517		21.484375
6518		25.390625
6519		23.437500
6520		25.390625
6521		23.437500
6522		27.343750
6523		25.390625
6524		27.343750
6525		25.390625
6526		29.296875
6527		25.390625
6528		29.296875
6529		27.343750
6530		31.250000
6531		27.343750
6532		31.250000
6533		29.296875
6534		31.250000
6535		29.296875
6536		31.250000
6537		29.296875
6538		31.250000
6539		29.296875
6540		33.203125
6541		29.296875
6542		33.203125
6543		31.250000
6544		33.203125
6545		31.250000
6546		33.203125
6547		31.250000
6548		35.156250
6549		31.250000
6550		35.156250
6551		31.250000
6552		33.203125
6553		31.250000
6554		33.203125
6555		31.250000
6556		35.156250
6557		31.250000
6558		35.156250
6559		31.250000
6560		35.156250
6561		31.250000
6562		33.203125
6563		31.250000
6564		33.203125
6565		31.250000
6566		33.203125
6567		29.296875
6568		33.203125
6569		31.250000
6570		33.203125
6571		29.296875
6572		33.203125
6573		29.296875
6574		33.203125
6575		27.343750
6576		31.250000
6577		27.343750
6578		31.250000
6579		27.343750
6580		31.250000
6581		27.343750
6582		29.296875
6583		25.390625
6584		29.296875
6585		25.390625
6586		27.343750
6587		23.437500
6588		27.343750
6589		23.437500
6590		27.343750
6591		23.437500
6592		25.390625
6593		21.484375
6594		25.390625
6595		21.484375
6596		23.437500
6597		19.531250
6598		23.437500
6599		19.531250
6600		21.484375
6601		17.578125
6602		21.484375
6603		17.578125
6604		19.531250
6605		13.671875
6606		19.531250
6607		15.625000
6608		17.578125
6609		13.671875
6610		17.578125
6611		13.671875
6612		15.625000
6613		11.718750
6614		13.671875
6615		9.765625
6616		13.671875
6617		9.765625
6618		13.671875
6619		7.812500
6620		11.718750
6621		7.812500
6622		9.765625
6623		5.859375
6624		9.765625
6625		3.906250
6626		7.812500
6627		3.906250
6628		5.859375
6629		1.953125
6630		5.859375
6631		1.953125
6632		3.906250
6633		0.000000
6634		3.906250
6635		-1.953125
6636		3.906250
6637		-1.953125
6638		0.000000
6639		-1.953125
6640		0.000000
6641		-3.906250
6642		0.000000
6643		-5.859375
6644		-1.953125
6645		-5.859375
6646		-1.953125
6647		-5.859375
6648		-3.906250
6649		-7.812500
6650		-3.906250
6651		-9.765625
6652		-3.906250
6653		-7.812500
6654		-5.859375
6655		-9.765625
6656		-7.812500
6657		-9.765625
6658		-7.812500
6659		-11.718750
6660		-7.812500
6661		-11.718750
6662		-7.812500
6663		-11.718750
6664		-9.765625
6665		-11.718750
6666		-9.765625
6667		-13.671875
6668		-9.765625
6669		-11.718750
6670		-9.765625
6671		-13.671875
6672		-11.718750
6673		-13.671875
6674		-9.765625
6675		-13.671875
6676		-9.765625
6677		-13.671875
6678		-9.765625
6679		-13.671875
6680		-11.718750
6681		-13.671875
6682		-11.718750
6683		-13.671875
6684		-11.718750
6685		-13.671875
6686		-9.765625
6687		-13.671875
6688		-11.718750
6689		-13.671875
6690		-9.765625
6691		-13.671875
6692		-9.765625
6693		-13.671875
6694		-9.765625
6695		-11.718750
6696		-9.765625
6697		-11.718750
6698		-9.765625
6699		-11.718750
6700		-7.812500
6701		-11.718750
6702		-7.812500
6703		-9.765625
6704		-7.812500
6705		-9.765625
6706		-7.812500
6707		-9.765625
6708		-5.859375
6709		-7.812500
6710		-3.906250
6711		-7.812500
6712		-3.906250
6713		-5.859375
6714		-1.953125
6715		-5.859375
6716		-1.953125
6717		-5.859375
6718		-1.953125
6719		-3.906250
6720		0.000000
6721		-1.953125
6722		0.000000
6723		-1.953125
6724		1.953125
6725		0.000000
6726		1.953125
6727		0.000000
6728		3.906250
6729		0.000000
6730		5.859375
6731		1.953125
6732		5.859375
6733		3.906250
6734		7.812500
6735		3.906250
6736		7.812500
6737		5.859375
6738		7.812500
6739		7.812500
6740		9.765625
6741		7.812500
6742		11.718750
6743		9.765625
6744		11.718750
6745		9.765625
6746		13.671875
6747		11.718750
6748		15.625000
6749		11.718750
6750		15.625000
6751		13.671875
6752		17.578125
6753		15.625000
6754		17.578125
6755		15.625000
6756		19.531250
6757		15.625000
6758		19.531250
6759		17.578125
6760		21.484375
6761		19.531250
6762		21.484375
6763		19.531250
6764		23.437500
6765		21.484375
6766		25.390625
6767		21.484375
6768		25.390625
6769		21.484375
6770		25.390625
6771		23.437500
6772		25.390625
6773		23.437500
6774		29.296875
6775		25.390625
6776		27.343750
6777		25.390625
6778		29.296875
6779		27.343750
6780		29.296875
6781		27.343750
6782		31.250000
6783		27.343750
6784		31.250000
6785		27.343750
6786		31.250000
6787		29.296875
6788		31.250000
6789		29.296875
6790		31.250000
6791		29.296875
6792		33.203125
6793		29.296875
6794		33.203125
6795		29.296875
6796		33.203125
6797		29.296875
6798		33.203125
6799		31.250000
6800		33.203125
6801		31.250000
6802		33.203125
6803		31.250000
6804		35.156250
6805		31.250000
6806		33.203125
6807		31.250000
6808		35.156250
6809		31.250000
6810		35.156250
6811		31.250000
6812		33.203125
6813		31.250000
6814		33.203125
6815		31.250000
6816		33.203125
6817		29.296875
6818		33.203125
6819		29.296875
6820		33.203125
6821		29.296875
6822		31.250000
6823		27.343750
6824		33.203125
6825		29.296875
6826		31.250000
6827		27.343750
6828		31.250000
6829		27.343750
6830		31.250000
6831		27.343750
6832		29.296875
6833		25.390625
6834		29.296875
6835		23.437500
6836		29.296875
6837		25.390625
6838		27.343750
6839		23.437500
6840		27.343750
6841		23.437500
6842		27.343750
6843		21.484375
6844		25.390625
6845		21.484375
6846		25.390625
6847		19.531250
6848		23.437500
6849		19.531250
6850		23.437500
6851		17.578125
6852		21.484375
6853		15.625000
6854		21.484375
6855		15.625000
6856		19.531250
6857		15.625000
6858		17.578125
6859		13.671875
6860		17.578125
6861		11.718750
6862		15.625000
6863		11.718750
6864		15.625000
6865		9.765625
6866		13.671875
6867		9.765625
6868		13.671875
6869		7.812500
6870		11.718750
6871		7.812500
6872		9.765625
6873		5.859375
6874		9.765625
6875		5.859375
6876		7.812500
6877		3.906250
6878		7.812500
6879		1.953125
6880		5.859375
6881		0.000000
6882		3.906250
6883		0.000000
6884		3.906250
6885		0.000000
6886		3.906250
6887		-1.953125
6888		1.953125
6889		-1.953125
6890		0.000000
6891		-3.906250
6892		0.000000
6893		-3.906250
6894		0.000000
6895		-3.906250
6896		-1.953125
6897		-5.859375
6898		-1.953125
6899		-7.812500
6900		-3.906250
6901		-7.812500
6902		-3.906250
6903		-9.765625
6904		-5.859375
6905		-7.812500
6906		-5.859375
6907		-9.765625
6908		-5.859375
6909		-9.765625
6910		-5.859375
6911		-11.718750
6912		-7.812500
6913		-11.718750
6914		-7.812500
6915		-11.718750
6916		-9.765625
6917		-11.718750
6918		-9.765625
6919		-13.671875
6920		-9.765625
6921		-13.671875
6922		-9.765625
6923		-13.671875
6924		-11.718750
6925		-13.671875
6926		-9.765625
6927		-13.671875
6928		-9.765625
6929		-13.671875
6930		-9.765625
6931		-13.671875
6932		-11.718750
6933		-13.671875
6934		-11.718750
6935		-13.671875
6936		-9.765625
6937		-13.671875
6938		-9.765625
6939		-13.671875
6940		-9.765625
6941		-13.671875
6942		-9.765625
6943		-13.671875
6944		-9.765625
6945		-11.718750
6946		-9.765625
6947		-11.718750
6948		-9.765625
6949		-11.718750
6950		-7.812500
6951		-11.718750
6952		-7.812500
6953		-11.718750
6954		-5.859375
6955		-9.765625
6956		-5.859375
6957		-7.812500
6958		-5.859375
6959		-9.765625
6960		-5.859375
6961		-7.812500
6962		-3.906250
6963		-7.812500
6964		-3.906250
6965		-5.859375
6966		-1.953125
6967		-5.859375
6968		-1.953125
6969		-3.906250
6970		0.000000
6971		-3.906250
6972		0.000000
6973		-1.953125
6974		1.953125
6975		-1.953125
6976		1.953125
6977		0.000000
6978		1.953125
6979		0.000000
6980		3.906250
6981		1.953125
6982		5.859375
6983		3.906250
6984		5.859375
6985		3.906250
6986		7.812500
6987		5.859375
6988		9.765625
6989		7.812500
6990		9.765625
6991		7.812500
6992		9.765625
6993		7.812500
6994		11.718750
6995		9.765625
6996		13.671875
6997		11.718750
6998		13.671875
6999		11.718750
7000		15.625000
7001		13.671875
7002		17.578125
7003		13.671875
7004		19.531250
7005		15.625000
7006		17.578125
7007		15.625000
7008		19.531250
7009		17.578125
7010		21.484375
7011		19.531250
7012		21.484375
7013		19.531250
7014		23.437500
7015		19.531250
7016		23.437500
7017		21.484375
7018		25.390625
7019		23.437500
7020		25.390625
7021		23.437500
7022		27.343750
7023		25.390625
7024		27.343750
7025		23.437500
7026		29.296875
7027		25.390625
7028		29.296875
7029		25.390625
7030		29.296875
7031		27.343750
7032		29.296875
7033		27.343750
7034		31.250000
7035		29.296875
7036		31.250000
7037		27.343750
7038		31.250000
7039		29.296875
7040		31.250000
7041		29.296875
7042		33.203125
7043		29.296875
7044		33.203125
7045		31.250000
7046		33.203125
7047		31.250000
7048		33.203125
7049		31.250000
7050		33.203125
7051		31.250000
7052		35.156250
7053		31.250000
7054		35.156250
7055		29.296875
7056		35.156250
7057		31.250000
7058		33.203125
7059		31.250000
7060		35.156250
7061		31.250000
7062		35.156250
7063		31.250000
7064		35.156250
7065		31.250000
7066		33.203125
7067		31.250000
7068		33.203125
7069		29.296875
7070		33.203125
7071		29.296875
7072		33.203125
7073		29.296875
7074		31.250000
7075		29.296875
7076		31.250000
7077		29.296875
7078		31.250000
7079		27.343750
7080		31.250000
7081		27.343750
7082		29.296875
7083		27.343750
7084		29.296875
7085		25.390625
7086		29.296875
7087		25.390625
7088		27.343750
7089		25.390625
7090		27.343750
7091		23.437500
7092		25.390625
7093		21.484375
7094		25.390625
7095		21.484375
7096		25.390625
7097		21.484375
7098		23.437500
7099		19.531250
7100		23.437500
7101		19.531250
7102		21.484375
7103		17.578125
7104		21.484375
7105		17.578125
7106		21.484375
7107		15.625000
7108		19.531250
7109		13.671875
7110		17.578125
7111		13.671875
7112		17.578125
7113		11.718750
7114		15.625000
7115		11.718750
7116		15.625000
7117		9.765625
7118		13.671875
7119		9.765625
7120		11.718750
7121		7.812500
7122		11.718750
7123		7.812500
7124		9.765625
7125		5.859375
7126		7.812500
7127		3.906250
7128		7.812500
7129		3.906250
7130		7.812500
7131		1.953125
7132		5.859375
7133		1.953125
7134		3.906250
7135		0.000000
7136		3.906250
7137		-1.953125
7138		1.953125
7139		-1.953125
7140		1.953125
7141		-1.953125
7142		0.000000
7143		-3.906250
7144		0.000000
7145		-5.859375
7146		-1.953125
7147		-5.859375
7148		-1.953125
7149		-5.859375
7150		-3.906250
7151		-7.812500
7152		-3.906250
7153		-7.812500
7154		-3.906250
7155		-9.765625
7156		-5.859375
7157		-9.765625
7158		-7.812500
7159		-9.765625
7160		-7.812500
7161		-11.718750
7162		-7.812500
7163		-11.718750
7164		-7.812500
7165		-11.718750
7166		-9.765625
7167		-13.671875
7168		-9.765625
7169		-11.718750
7170		-9.765625
7171		-13.671875
7172		-9.765625
7173		-13.671875
7174		-9.765625
7175		-13.671875
7176		-11.718750
7177		-15.625000
7178		-9.765625
7179		-13.671875
7180		-9.765625
7181		-13.671875
7182		-11.718750
7183		-13.671875
7184		-11.718750
7185		-13.671875
7186		-11.718750
7187		-13.671875
7188		-9.765625
7189		-13.671875
7190		-11.718750
7191		-13.671875
7192		-9.765625
7193		-13.671875
7194		-9.765625
7195		-13.671875
7196		-9.765625
7197		-11.718750
7198		-9.765625
7199		-11.718750
7200		-7.812500
7201		-11.718750
7202		-7.812500
7203		-9.765625
7204		-7.812500
7205		-9.765625
7206		-5.859375
7207		-9.765625
7208		-5.859375
7209		-7.812500
7210		-5.859375
7211		-7.812500
7212		-3.906250
7213		-7.812500
7214		-3.906250
7215		-7.812500
7216		-1.953125
7217		-5.859375
7218		-1.953125
7219		-5.859375
7220		-1.953125
7221		-3.906250
7222		0.000000
7223		-3.906250
7224		0.000000
7225		-1.953125
7226		1.953125
7227		-1.953125
7228		3.906250
7229		0.000000
7230		3.906250
7231		0.000000
7232		5.859375
7233		1.953125
7234		5.859375
7235		3.906250
7236		7.812500
7237		5.859375
7238		7.812500
7239		5.859375
7240		9.765625
7241		7.812500
7242		9.765625
7243		7.812500
7244		11.718750
7245		9.765625
7246		13.671875
7247		9.765625
7248		13.671875
7249		11.718750
7250		13.671875
7251		11.718750
7252		15.625000
7253		13.671875
7254		17.578125
7255		15.625000
7256		17.578125
7257		13.671875
7258		19.531250
7259		17.578125
7260		19.531250
7261		17.578125
7262		21.484375
7263		19.531250
7264		23.437500
7265		19.531250
7266		23.437500
7267		21.484375
7268		23.437500
7269		21.484375
7270		25.390625
7271		23.437500
7272		25.390625
7273		23.437500
7274		27.343750
7275		25.390625
7276		27.343750
7277		25.390625
7278		29.296875
7279		25.390625
7280		29.296875
7281		27.343750
7282		29.296875
7283		27.343750
7284		29.296875
7285		27.343750
7286		31.250000
7287		29.296875
7288		31.250000
7289		29.296875
7290		33.203125
7291		29.296875
7292		31.250000
7293		31.250000
7294		33.203125
7295		29.296875
7296		33.203125
7297		31.250000
7298		33.203125
7299		29.296875
7300		33.203125
7301		31.250000
7302		33.203125
7303		31.250000
7304		33.203125
7305		31.250000
7306		35.156250
7307		31.250000
7308		35.156250
7309		31.250000
7310		33.203125
7311		29.296875
7312		35.156250
7313		31.250000
7314		33.203125
7315		31.250000
7316		33.203125
7317		31.250000
7318		33.203125
7319		29.296875
7320		33.203125
7321		29.296875
7322		33.203125
7323		29.296875
7324		33.203125
7325		29.296875
7326		31.250000
7327		29.296875
7328		31.250000
7329		27.343750
7330		31.250000
7331		27.343750
7332		31.250000
7333		27.343750
7334		29.296875
7335		25.390625
7336		29.296875
7337		25.390625
7338		27.343750
7339		23.437500
7340		27.343750
7341		23.437500
7342		27.343750
7343		23.437500
7344		25.390625
7345		21.484375
7346		25.390625
7347		21.484375
7348		23.437500
7349		19.531250
7350		23.437500
7351		17.578125
7352		21.484375
7353		17.578125
7354		21.484375
7355		17.578125
7356		19.531250
7357		15.625000
7358		19.531250
7359		15.625000
7360		17.578125
7361		13.671875
7362		17.578125
7363		11.718750
7364		15.625000
7365		11.718750
7366		15.625000
7367		9.765625
7368		13.671875
7369		9.765625
7370		13.671875
7371		7.812500
7372		11.718750
7373		7.812500
7374		9.765625
7375		5.859375
7376		9.765625
7377		5.859375
7378		7.812500
7379		1.953125
7380		7.812500
7381		1.953125
7382		5.859375
7383		1.953125
7384		3.906250
7385		0.000000
7386		3.906250
7387		0.000000
7388		1.953125
7389		-1.953125
7390		1.953125
7391		-1.953125
7392		0.000000
7393		-3.906250
7394		0.000000
7395		-3.906250
7396		0.000000
7397		-5.859375
7398		-1.953125
7399		-5.859375
7400		-3.906250
7401		-7.812500
7402		-3.906250
7403		-7.812500
7404		-3.906250
7405		-7.812500
7406		-5.859375
7407		-9.765625
7408		-5.859375
7409		-9.765625
7410		-7.812500
7411		-9.765625
7412		-7.812500
7413		-11.718750
7414		-7.812500
7415		-11.718750
7416		-7.812500
7417		-11.718750
7418		-9.765625
7419		-13.671875
7420		-9.765625
7421		-11.718750
7422		-9.765625
7423		-13.671875
7424		-9.765625
7425		-13.671875
7426		-9.765625
7427		-13.671875
7428		-11.718750
7429		-15.625000
7430		-11.718750
7431		-13.671875
7432		-11.718750
7433		-13.671875
7434		-11.718750
7435		-13.671875
7436		-9.765625
7437		-13.671875
7438		-9.765625
7439		-13.671875
7440		-9.765625
7441		-13.671875
7442		-9.765625
7443		-11.718750
7444		-9.765625
7445		-13.671875
7446		-7.812500
7447		-13.671875
7448		-9.765625
7449		-11.718750
7450		-9.765625
7451		-11.718750
7452		-7.812500
7453		-11.718750
7454		-7.812500
7455		-9.765625
7456		-7.812500
7457		-9.765625
7458		-5.859375
7459		-7.812500
7460		-5.859375
7461		-7.812500
7462		-5.859375
7463		-7.812500
7464		-3.906250
7465		-7.812500
7466		-3.906250
7467		-5.859375
7468		-1.953125
7469		-3.906250
7470		-1.953125
7471		-3.906250
7472		0.000000
7473		-1.953125
7474		0.000000
7475		-1.953125
7476		0.000000
7477		0.000000
7478		1.953125
7479		0.000000
7480		3.906250
7481		0.000000
7482		3.906250
7483		1.953125
7484		5.859375
7485		3.906250
7486		5.859375
7487		3.906250
7488		7.812500
7489		5.859375
7490		9.765625
7491		5.859375
7492		9.765625
7493		7.812500
7494		9.765625
7495		9.765625
7496		11.718750
7497		9.765625
7498		13.671875
7499		11.718750
7500		13.671875
7501		11.718750
7502		15.625000
7503		13.671875
7504		15.625000
7505		13.671875
7506		17.578125
7507		15.625000
7508		19.531250
7509		15.625000
7510		19.531250
7511		17.578125
7512		21.484375
7513		17.578125
7514		21.484375
7515		19.531250
7516		23.437500
7517		19.531250
7518		23.437500
7519		21.484375
7520		25.390625
7521		21.484375
7522		25.390625
7523		23.437500
7524		27.343750
7525		23.437500
7526		27.343750
7527		25.390625
7528		27.343750
7529		25.390625
7530		29.296875
7531		25.390625
7532		29.296875
7533		27.343750
7534		31.250000
7535		27.343750
7536		31.250000
7537		27.343750
7538		31.250000
7539		29.296875
7540		31.250000
7541		29.296875
7542		33.203125
7543		29.296875
7544		33.203125
7545		31.250000
7546		33.203125
7547		31.250000
7548		33.203125
7549		31.250000
7550		33.203125
7551		31.250000
7552		35.156250
7553		31.250000
7554		33.203125
7555		31.250000
7556		35.156250
7557		31.250000
7558		33.203125
7559		31.250000
7560		35.156250
7561		31.250000
7562		33.203125
7563		29.296875
7564		33.203125
7565		31.250000
7566		33.203125
7567		31.250000
7568		33.203125
7569		31.250000
7570		33.203125
7571		29.296875
7572		33.203125
7573		29.296875
7574		33.203125
7575		29.296875
7576		33.203125
7577		29.296875
7578		31.250000
7579		29.296875
7580		31.250000
7581		27.343750
7582		33.203125
7583		27.343750
7584		31.250000
7585		25.390625
7586		29.296875
7587		25.390625
7588		29.296875
7589		25.390625
7590		29.296875
7591		23.437500
7592		27.343750
7593		23.437500
7594		27.343750
7595		23.437500
7596		25.390625
7597		21.484375
7598		25.390625
7599		21.484375
7600		23.437500
7601		19.531250
7602		23.437500
7603		17.578125
7604		21.484375
7605		17.578125
7606		21.484375
7607		17.578125
7608		19.531250
7609		15.625000
7610		19.531250
7611		13.671875
7612		17.578125
7613		13.671875
7614		15.625000
7615		11.718750
7616		15.625000
7617		11.718750
7618		15.625000
7619		9.765625
7620		13.671875
7621		7.812500
7622		11.718750
7623		7.812500
7624		11.718750
7625		5.859375
7626		9.765625
7627		5.859375
7628		7.812500
7629		3.906250
7630		7.812500
7631		1.953125
7632		5.859375
7633		1.953125
7634		5.859375
7635		0.000000
7636		3.906250
7637		0.000000
7638		3.906250
7639		-1.953125
7640		1.953125
7641		-1.953125
7642		0.000000
7643		-3.906250
7644		1.953125
7645		-3.906250
7646		-1.953125
7647		-5.859375
7648		-1.953125
7649		-5.859375
7650		-1.953125
7651		-5.859375
7652		-3.906250
7653		-7.812500
7654		-3.906250
7655		-7.812500
7656		-5.859375
7657		-9.765625
7658		-5.859375
7659		-9.765625
7660		-5.859375
7661		-9.765625
7662		-7.812500
7663		-9.765625
7664		-7.812500
7665		-11.718750
7666		-7.812500
7667		-11.718750
7668		-7.812500
7669		-11.718750
7670		-9.765625
7671		-13.671875
7672		-9.765625
7673		-13.671875
7674		-9.765625
7675		-13.671875
7676		-9.765625
7677		-13.671875
7678		-9.765625
7679		-13.671875
7680		-11.718750
7681		-13.671875
7682		-9.765625
7683		-13.671875
7684		-9.765625
7685		-13.671875
7686		-9.765625
7687		-13.671875
7688		-11.718750
7689		-13.671875
7690		-9.765625
7691		-13.671875
7692		-9.765625
7693		-13.671875
7694		-9.765625
7695		-11.718750
7696		-9.765625
7697		-11.718750
7698		-9.765625
7699		-13.671875
7700		-9.765625
7701		-11.718750
7702		-9.765625
7703		-11.718750
7704		-7.812500
7705		-9.765625
7706		-7.812500
7707		-9.765625
7708		-5.859375
7709		-9.765625
7710		-5.859375
7711		-7.812500
7712		-5.859375
7713		-7.812500
7714		-5.859375
7715		-7.812500
7716		-3.906250
7717		-5.859375
7718		-1.953125
7719		-5.859375
7720		-1.953125
7721		-3.906250
7722		0.000000
7723		-3.906250
7724		0.000000
7725		-1.953125
7726		0.000000
7727		-1.953125
7728		1.953125
7729		0.000000
7730		1.953125
7731		0.000000
7732		3.906250
7733		1.953125
7734		5.859375
7735		1.953125
7736		5.859375
7737		3.906250
7738		7.812500
7739		3.906250
7740		7.812500
7741		5.859375
7742		9.765625
7743		5.859375
7744		11.718750
7745		7.812500
7746		11.718750
7747		9.765625
7748		13.671875
7749		9.765625
7750		13.671875
7751		11.718750
7752		15.625000
7753		11.718750
7754		15.625000
7755		13.671875
7756		17.578125
7757		13.671875
7758		19.531250
7759		15.625000
7760		19.531250
7761		15.625000
7762		19.531250
7763		17.578125
7764		21.484375
7765		19.531250
7766		23.437500
7767		19.531250
7768		23.437500
7769		21.484375
7770		25.390625
7771		21.484375
7772		25.390625
7773		21.484375
7774		25.390625
7775		23.437500
7776		27.343750
7777		25.390625
7778		29.296875
7779		25.390625
7780		27.343750
7781		25.390625
7782		29.296875
7783		25.390625
7784		29.296875
7785		27.343750
7786		31.250000
7787		27.343750
7788		31.250000
7789		29.296875
7790		31.250000
7791		29.296875
7792		33.203125
7793		29.296875
7794		33.203125
7795		29.296875
7796		33.203125
7797		31.250000
7798		33.203125
7799		29.296875
7800		33.203125
7801		31.250000
7802		33.203125
7803		31.250000
7804		33.203125
7805		31.250000
7806		35.156250
7807		31.250000
7808		33.203125
7809		31.250000
7810		35.156250
7811		31.250000
7812		35.156250
7813		31.250000
7814		33.203125
7815		31.250000
7816		33.203125
7817		29.296875
7818		35.156250
7819		31.250000
7820		33.203125
7821		31.250000
7822		33.203125
7823		29.296875
7824		33.203125
7825		29.296875
7826		33.203125
7827		27.343750
7828		31.250000
7829		29.296875
7830		31.250000
7831		29.296875
7832		31.250000
7833		27.343750
7834		31.250000
7835		27.343750
7836		29.296875
7837		25.390625
7838		29.296875
7839		25.390625
7840		27.343750
7841		23.437500
7842		27.343750
7843		23.437500
7844		27.343750
7845		23.437500
7846		27.343750
7847		21.484375
7848		25.390625
7849		19.531250
7850		23.437500
7851		19.531250
7852		23.437500
7853		19.531250
7854		23.437500
7855		17.578125
7856		21.484375
7857		17.578125
7858		19.531250
7859		15.625000
7860		19.531250
7861		15.625000
7862		19.531250
7863		13.671875
7864		17.578125
7865		13.671875
7866		15.625000
7867		11.718750
7868		15.625000
7869		9.765625
7870		13.671875
7871		9.765625
7872		11.718750
7873		7.812500
7874		11.718750
7875		7.812500
7876		9.765625
7877		5.859375
7878		9.765625
7879		3.906250
7880		7.812500
7881		3.906250
7882		5.859375
7883		1.953125
7884		5.859375
7885		1.953125
7886		5.859375
7887		0.000000
7888		3.906250
7889		0.000000
7890		1.953125
7891		-1.953125
7892		1.953125
7893		-1.953125
7894		0.000000
7895		-5.859375
7896		0.000000
7897		-3.906250
7898		-1.953125
7899		-5.859375
7900		-1.953125
7901		-7.812500
7902		-3.906250
7903		-7.812500
7904		-3.906250
7905		-7.812500
7906		-3.906250
7907		-7.812500
7908		-5.859375
7909		-9.765625
7910		-5.859375
7911		-9.765625
7912		-5.859375
7913		-9.765625
7914		-7.812500
7915		-9.765625
7916		-7.812500
7917		-11.718750
7918		-7.812500
7919		-11.718750
7920		-9.765625
7921		-11.718750
7922		-9.765625
7923		-11.718750
7924		-9.765625
7925		-13.671875
7926		-9.765625
7927		-13.671875
7928		-11.718750
7929		-13.671875
7930		-9.765625
7931		-13.671875
7932		-11.718750
7933		-15.625000
7934		-9.765625
7935		-13.671875
7936		-9.765625
7937		-13.671875
7938		-9.765625
7939		-13.671875
7940		-9.765625
7941		-13.671875
7942		-9.765625
7943		-13.671875
7944		-9.765625
7945		-13.671875
7946		-9.765625
7947		-11.718750
7948		-9.765625
7949		-11.718750
7950		-9.765625
7951		-11.718750
7952		-7.812500
7953		-11.718750
7954		-7.812500
7955		-9.765625
7956		-7.812500
7957		-9.765625
7958		-5.859375
7959		-9.765625
7960		-5.859375
7961		-7.812500
7962		-5.859375
7963		-9.765625
7964		-5.859375
7965		-7.812500
7966		-3.906250
7967		-5.859375
7968		-1.953125
7969		-5.859375
7970		-1.953125
7971		-3.906250
7972		-1.953125
7973		-3.906250
7974		0.000000
7975		-3.906250
7976		0.000000
7977		-1.953125
7978		1.953125
7979		-1.953125
7980		1.953125
7981		0.000000
7982		3.906250
7983		1.953125
7984		5.859375
7985		1.953125
7986		5.859375
7987		3.906250
7988		5.859375
7989		3.906250
7990		7.812500
7991		5.859375
7992		9.765625
7993		5.859375
7994		9.765625
7995		7.812500
7996		11.718750
7997		9.765625
7998		11.718750
7999		9.765625
8000		13.671875
8001		9.765625
8002		15.625000
8003		11.718750
8004		15.625000
8005		13.671875
8006		17.578125
8007		15.625000
8008		17.578125
8009		15.625000
8010		19.531250
8011		17.578125
8012		19.531250
8013		17.578125
8014		21.484375
8015		19.531250
8016		21.484375
8017		19.531250
8018		23.437500
8019		19.531250
8020		23.437500
8021		21.484375
8022		25.390625
8023		23.437500
8024		25.390625
8025		23.437500
8026		27.343750
8027		23.437500
8028		27.343750
8029		25.390625
8030		29.296875
8031		25.390625
8032		29.296875
8033		27.343750
8034		29.296875
8035		27.343750
8036		31.250000
8037		27.343750
8038		31.250000
8039		29.296875
8040		31.250000
8041		29.296875
8042		33.203125
8043		29.296875
8044		33.203125
8045		29.296875
8046		33.203125
8047		29.296875
8048		33.203125
8049		31.250000
8050		33.203125
8051		29.296875
8052		35.156250
8053		31.250000
8054		35.156250
8055		31.250000
8056		35.156250
8057		31.250000
8058		35.156250
8059		31.250000
8060		35.156250
8061		31.250000
8062		35.156250
8063		31.250000
8064		35.156250
8065		31.250000
8066		33.203125
8067		31.250000
8068		35.156250
8069		31.250000
8070		35.156250
8071		29.296875
8072		33.203125
8073		29.296875
8074		33.203125
8075		29.296875
8076		33.203125
8077		29.296875
8078		33.203125
8079		27.343750
8080		31.250000
8081		29.296875
8082		31.250000
8083		27.343750
8084		31.250000
8085		27.343750
8086		31.250000
8087		25.390625
8088		29.296875
8089		25.390625
8090		29.296875
8091		25.390625
8092		29.296875
8093		23.437500
8094		27.343750
8095		23.437500
8096		27.343750
8097		21.484375
8098		25.390625
8099		21.484375
8100		23.437500
8101		19.531250
8102		23.437500
8103		19.531250
8104		23.437500
8105		17.578125
8106		21.484375
8107		17.578125
8108		19.531250
8109		15.625000
8110		19.531250
8111		15.625000
8112		19.531250
8113		13.671875
8114		17.578125
8115		13.671875
8116		15.625000
8117		11.718750
8118		15.625000
8119		11.718750
8120		13.671875
8121		9.765625
8122		13.671875
8123		9.765625
8124		11.718750
8125		7.812500
8126		9.765625
8127		5.859375
8128		9.765625
8129		5.859375
8130		7.812500
8131		3.906250
8132		7.812500
8133		3.906250
8134		5.859375
8135		0.000000
8136		5.859375
8137		1.953125
8138		3.906250
8139		0.000000
8140		3.906250
8141		-1.953125
8142		1.953125
8143		-1.953125
8144		0.000000
8145		-3.906250
8146		0.000000
8147		-3.906250
8148		0.000000
8149		-3.906250
8150		-1.953125
8151		-5.859375
8152		-1.953125
8153		-7.812500
8154		-3.906250
8155		-7.812500
8156		-3.906250
8157		-7.812500
8158		-5.859375
8159		-9.765625
8160		-5.859375
8161		-9.765625
8162		-5.859375
8163		-11.718750
8164		-7.812500
8165		-11.718750
8166		-7.812500
8167		-11.718750
8168		-9.765625
8169		-11.718750
8170		-9.765625
8171		-11.718750
8172		-9.765625
8173		-13.671875
8174		-9.765625
8175		-13.671875
8176		-9.765625
8177		-13.671875
8178		-9.765625
8179		-13.671875
8180		-11.718750
8181		-13.671875
8182		-9.765625
8183		-13.671875
8184		-11.718750
8185		-15.625000
8186		-11.718750
8187		-13.671875
8188		-11.718750
8189		-13.671875
8190		-11.718750
8191		-13.671875
8192		-9.765625
8193		-13.671875
8194		-9.765625
8195		-13.671875
8196		-9.765625
8197		-13.671875
8198		-9.765625
8199		-11.718750
8200		-9.765625
8201		-11.718750
8202		-9.765625
8203		-11.718750
8204		-7.812500
8205		-11.718750
8206		-7.812500
8207		-11.718750
8208		-7.812500
8209		-9.765625
8210		-5.859375
8211		-9.765625
8212		-5.859375
8213		-7.812500
8214		-5.859375
8215		-7.812500
8216		-5.859375
8217		-7.812500
8218		-3.906250
8219		-5.859375
8220		-1.953125
8221		-5.859375
8222		-1.953125
8223		-3.906250
8224		-1.953125
8225		-3.906250
8226		0.000000
8227		-1.953125
8228		0.000000
8229		-1.953125
8230		1.953125
8231		-1.953125
8232		3.906250
8233		0.000000
8234		3.906250
8235		1.953125
8236		3.906250
8237		1.953125
8238		5.859375
8239		3.906250
8240		7.812500
8241		3.906250
8242		7.812500
8243		5.859375
8244		9.765625
8245		7.812500
8246		9.765625
8247		7.812500
8248		11.718750
8249		9.765625
8250		11.718750
8251		11.718750
8252		13.671875
8253		11.718750
8254		15.625000
8255		11.718750
8256		15.625000
8257		13.671875
8258		17.578125
8259		13.671875
8260		17.578125
8261		15.625000
8262		19.531250
8263		17.578125
8264		21.484375
8265		17.578125
8266		21.484375
8267		19.531250
8268		21.484375
8269		19.531250
8270		23.437500
8271		21.484375
8272		25.390625
8273		21.484375
8274		25.390625
8275		21.484375
8276		25.390625
8277		23.437500
8278		27.343750
8279		25.390625
8280		27.343750
8281		25.390625
8282		29.296875
8283		25.390625
8284		29.296875
8285		27.343750
8286		29.296875
8287		27.343750
8288		31.250000
8289		27.343750
8290		31.250000
8291		29.296875
8292		31.250000
8293		29.296875
8294		31.250000
8295		29.296875
8296		33.203125
8297		29.296875
8298		33.203125
8299		29.296875
8300		33.203125
8301		31.250000
8302		33.203125
8303		29.296875
8304		35.156250
8305		31.250000
8306		33.203125
8307		31.250000
8308		35.156250
8309		31.250000
8310		35.156250
8311		31.250000
8312		35.156250
8313		31.250000
8314		35.156250
8315		31.250000
8316		35.156250
8317		31.250000
8318		33.203125
8319		31.250000
8320		33.203125
8321		29.296875
8322		33.203125
8323		29.296875
8324		33.203125
8325		29.296875
8326		33.203125
8327		29.296875
8328		33.203125
8329		29.296875
8330		31.250000
8331		29.296875
8332		31.250000
8333		27.343750
8334		31.250000
8335		27.343750
8336		29.296875
8337		25.390625
8338		29.296875
8339		25.390625
8340		29.296875
8341		25.390625
8342		27.343750
8343		25.390625
8344		27.343750
8345		23.437500
8346		27.343750
8347		23.437500
8348		27.343750
8349		21.484375
8350		25.390625
8351		21.484375
8352		23.437500
8353		19.531250
8354		23.437500
8355		19.531250
8356		21.484375
8357		17.578125
8358		21.484375
8359		17.578125
8360		21.484375
8361		15.625000
8362		19.531250
8363		13.671875
8364		17.578125
8365		13.671875
8366		17.578125
8367		13.671875
8368		15.625000
8369		11.718750
8370		15.625000
8371		9.765625
8372		13.671875
8373		9.765625
8374		11.718750
8375		7.812500
8376		11.718750
8377		5.859375
8378		9.765625
8379		5.859375
8380		9.765625
8381		3.906250
8382		7.812500
8383		3.906250
8384		7.812500
8385		1.953125
8386		5.859375
8387		1.953125
8388		3.906250
8389		0.000000
8390		3.906250
8391		-1.953125
8392		1.953125
8393		-1.953125
8394		1.953125
8395		-1.953125
8396		0.000000
8397		-3.906250
8398		0.000000
8399		-3.906250
8400		0.000000
8401		-5.859375
8402		-1.953125
8403		-5.859375
8404		-3.906250
8405		-7.812500
8406		-3.906250
8407		-7.812500
8408		-3.906250
8409		-9.765625
8410		-5.859375
8411		-9.765625
8412		-5.859375
8413		-9.765625
8414		-7.812500
8415		-9.765625
8416		-7.812500
8417		-11.718750
8418		-7.812500
8419		-11.718750
8420		-9.765625
8421		-11.718750
8422		-7.812500
8423		-13.671875
8424		-9.765625
8425		-13.671875
8426		-9.765625
8427		-13.671875
8428		-9.765625
8429		-13.671875
8430		-9.765625
8431		-13.671875
8432		-9.765625
8433		-13.671875
8434		-9.765625
8435		-13.671875
8436		-11.718750
8437		-13.671875
8438		-9.765625
8439		-13.671875
8440		-9.765625
8441		-13.671875
8442		-11.718750
8443		-13.671875
8444		-9.765625
8445		-13.671875
8446		-9.765625
8447		-13.671875
8448		-9.765625
8449		-13.671875
8450		-9.765625
8451		-11.718750
8452		-9.765625
8453		-11.718750
8454		-9.765625
8455		-11.718750
8456		-7.812500
8457		-11.718750
8458		-7.812500
8459		-9.765625
8460		-7.812500
8461		-9.765625
8462		-5.859375
8463		-9.765625
8464		-5.859375
8465		-7.812500
8466		-5.859375
8467		-7.812500
8468		-3.906250
8469		-5.859375
8470		-3.906250
8471		-5.859375
8472		-1.953125
8473		-3.906250
8474		-1.953125
8475		-3.906250
8476		0.000000
8477		-1.953125
8478		0.000000
8479		-1.953125
8480		1.953125
8481		0.000000
8482		1.953125
8483		0.000000
8484		3.906250
8485		1.953125
8486		3.906250
8487		1.953125
8488		5.859375
8489		1.953125
8490		7.812500
8491		3.906250
8492		7.812500
8493		5.859375
8494		7.812500
8495		7.812500
8496		9.765625
8497		7.812500
8498		11.718750
8499		9.765625
8500		11.718750
8501		7.812500
8502		13.671875
8503		11.718750
8504		13.671875
8505		11.718750
8506		15.625000
8507		13.671875
8508		17.578125
8509		15.625000
8510		17.578125
8511		15.625000
8512		19.531250
8513		17.578125
8514		19.531250
8515		17.578125
8516		21.484375
8517		17.578125
8518		23.437500
8519		19.531250
8520		23.437500
8521		21.484375
8522		25.390625
8523		21.484375
8524		25.390625
8525		23.437500
8526		25.390625
8527		23.437500
8528		25.390625
8529		23.437500
8530		27.343750
8531		25.390625
8532		29.296875
8533		25.390625
8534		29.296875
8535		27.343750
8536		29.296875
8537		27.343750
8538		29.296875
8539		27.343750
8540		31.250000
8541		27.343750
8542		31.250000
8543		29.296875
8544		31.250000
8545		29.296875
8546		33.203125
8547		29.296875
8548		33.203125
8549		29.296875
8550		33.203125
8551		31.250000
8552		33.203125
8553		31.250000
8554		33.203125
8555		31.250000
8556		35.156250
8557		31.250000
8558		33.203125
8559		31.250000
8560		35.156250
8561		31.250000
8562		33.203125
8563		31.250000
8564		35.156250
8565		31.250000
8566		33.203125
8567		29.296875
8568		33.203125
8569		31.250000
8570		33.203125
8571		31.250000
8572		33.203125
8573		29.296875
8574		33.203125
8575		29.296875
8576		33.203125
8577		29.296875
8578		33.203125
8579		29.296875
8580		31.250000
8581		29.296875
8582		31.250000
8583		27.343750
8584		31.250000
8585		27.343750
8586		31.250000
8587		27.343750
8588		29.296875
8589		25.390625
8590		29.296875
8591		25.390625
8592		29.296875
8593		25.390625
8594		27.343750
8595		23.437500
8596		27.343750
8597		23.437500
8598		25.390625
8599		21.484375
8600		25.390625
8601		21.484375
8602		25.390625
8603		21.484375
8604		23.437500
8605		17.578125
8606		21.484375
8607		17.578125
8608		21.484375
8609		17.578125
8610		19.531250
8611		15.625000
8612		19.531250
8613		15.625000
8614		17.578125
8615		13.671875
8616		17.578125
8617		13.671875
8618		17.578125
8619		11.718750
8620		15.625000
8621		9.765625
8622		13.671875
8623		9.765625
8624		13.671875
8625		7.812500
8626		11.718750
8627		7.812500
8628		9.765625
8629		5.859375
8630		9.765625
8631		3.906250
8632		7.812500
8633		3.906250
8634		7.812500
8635		1.953125
8636		5.859375
8637		1.953125
8638		3.906250
8639		0.000000
8640		3.906250
8641		0.000000
8642		3.906250
8643		-1.953125
8644		1.953125
8645		-3.906250
8646		0.000000
8647		-3.906250
8648		0.000000
8649		-3.906250
8650		-1.953125
8651		-5.859375
8652		-1.953125
8653		-5.859375
8654		-3.906250
8655		-7.812500
8656		-3.906250
8657		-7.812500
8658		-3.906250
8659		-7.812500
8660		-5.859375
8661		-9.765625
8662		-5.859375
8663		-9.765625
8664		-7.812500
8665		-11.718750
8666		-7.812500
8667		-11.718750
8668		-7.812500
8669		-11.718750
8670		-7.812500
8671		-11.718750
8672		-9.765625
8673		-13.671875
8674		-9.765625
8675		-13.671875
8676		-9.765625
8677		-13.671875
8678		-9.765625
8679		-13.671875
8680		-9.765625
8681		-13.671875
8682		-9.765625
8683		-13.671875
8684		-11.718750
8685		-13.671875
8686		-9.765625
8687		-13.671875
8688		-11.718750
8689		-15.625000
8690		-9.765625
8691		-13.671875
8692		-11.718750
8693		-13.671875
8694		-11.718750
8695		-13.671875
8696		-9.765625
8697		-13.671875
8698		-9.765625
8699		-13.671875
8700		-9.765625
8701		-13.671875
8702		-9.765625
8703		-11.718750
8704		-9.765625
8705		-11.718750
8706		-9.765625
8707		-11.718750
8708		-7.812500
8709		-11.718750
8710		-7.812500
8711		-9.765625
8712		-5.859375
8713		-9.765625
8714		-5.859375
8715		-7.812500
8716		-5.859375
8717		-7.812500
8718		-5.859375
8719		-7.812500
8720		-3.906250
8721		-5.859375
8722		-3.906250
8723		-5.859375
8724		-1.953125
8725		-3.906250
8726		-1.953125
8727		-3.906250
8728		0.000000
8729		-1.953125
8730		0.000000
8731		-1.953125
8732		1.953125
8733		0.000000
8734		1.953125
8735		0.000000
8736		3.906250
8737		1.953125
8738		3.906250
8739		3.906250
8740		5.859375
8741		1.953125
8742		7.812500
8743		3.906250
8744		7.812500
8745		5.859375
8746		9.765625
8747		7.812500
8748		9.765625
8749		7.812500
8750		11.718750
8751		9.765625
8752		11.718750
8753		9.765625
8754		13.671875
8755		11.718750
8756		15.625000
8757		11.718750
8758		15.625000
8759		13.671875
8760		17.578125
8761		15.625000
8762		17.578125
8763		15.625000
8764		19.531250
8765		17.578125
8766		19.531250
8767		17.578125
8768		21.484375
8769		19.531250
8770		23.437500
8771		19.531250
8772		23.437500
8773		21.484375
8774		25.390625
8775		21.484375
8776		25.390625
8777		23.437500
8778		25.390625
8779		23.437500
8780		27.343750
8781		23.437500
8782		27.343750
8783		25.390625
8784		27.343750
8785		25.390625
8786		31.250000
8787		27.343750
8788		29.296875
8789		27.343750
8790		29.296875
8791		27.343750
8792		31.250000
8793		29.296875
8794		31.250000
8795		29.296875
8796		31.250000
8797		29.296875
8798		33.203125
8799		29.296875
8800		33.203125
8801		29.296875
8802		33.203125
8803		29.296875
8804		35.156250
8805		31.250000
8806		33.203125
8807		29.296875
8808		35.156250
8809		31.250000
8810		33.203125
8811		31.250000
8812		33.203125
8813		31.250000
8814		35.156250
8815		31.250000
8816		35.156250
8817		31.250000
8818		33.203125
8819		31.250000
8820		35.156250
8821		31.250000
8822		33.203125
8823		31.250000
8824		33.203125
8825		29.296875
8826		33.203125
8827		29.296875
8828		33.203125
8829		29.296875
8830		33.203125
8831		27.343750
8832		31.250000
8833		27.343750
8834		31.250000
8835		27.343750
8836		31.250000
8837		27.343750
8838		29.296875
8839		25.390625
8840		29.296875
8841		25.390625
8842		29.296875
8843		25.390625
8844		27.343750
8845		23.437500
8846		27.343750
8847		23.437500
8848		25.390625
8849		21.484375
8850		25.390625
8851		21.484375
8852		25.390625
8853		19.531250
8854		23.437500
8855		19.531250
8856		21.484375
8857		19.531250
8858		21.484375
8859		17.578125
8860		21.484375
8861		15.625000
8862		19.531250
8863		15.625000
8864		19.531250
8865		13.671875
8866		17.578125
8867		13.671875
8868		15.625000
8869		11.718750
8870		15.625000
8871		11.718750
8872		13.671875
8873		9.765625
8874		13.671875
8875		7.812500
8876		11.718750
8877		7.812500
8878		11.718750
8879		5.859375
8880		9.765625
8881		5.859375
8882		9.765625
8883		3.906250
8884		7.812500
8885		1.953125
8886		5.859375
8887		1.953125
8888		5.859375
8889		1.953125
8890		3.906250
8891		-1.953125
8892		3.906250
8893		-1.953125
8894		1.953125
8895		-1.953125
8896		1.953125
8897		-3.906250
8898		0.000000
8899		-3.906250
8900		0.000000
8901		-3.906250
8902		-1.953125
8903		-7.812500
8904		-1.953125
8905		-5.859375
8906		-3.906250
8907		-7.812500
8908		-3.906250
8909		-7.812500
8910		-3.906250
8911		-9.765625
8912		-5.859375
8913		-9.765625
8914		-5.859375
8915		-9.765625
8916		-7.812500
8917		-11.718750
8918		-7.812500
8919		-11.718750
8920		-7.812500
8921		-13.671875
8922		-7.812500
8923		-11.718750
8924		-9.765625
8925		-13.671875
8926		-9.765625
8927		-13.671875
8928		-9.765625
8929		-13.671875
8930		-9.765625
8931		-13.671875
8932		-9.765625
8933		-13.671875
8934		-9.765625
8935		-13.671875
8936		-11.718750
8937		-13.671875
8938		-9.765625
8939		-13.671875
8940		-11.718750
8941		-13.671875
8942		-11.718750
8943		-13.671875
8944		-9.765625
8945		-13.671875
8946		-9.765625
8947		-13.671875
8948		-9.765625
8949		-13.671875
8950		-9.765625
8951		-13.671875
8952		-9.765625
8953		-11.718750
8954		-9.765625
8955		-11.718750
8956		-7.812500
8957		-11.718750
8958		-7.812500
8959		-11.718750
8960		-7.812500
8961		-11.718750
8962		-5.859375
8963		-9.765625
8964		-5.859375
8965		-9.765625
8966		-5.859375
8967		-7.812500
8968		-5.859375
8969		-7.812500
8970		-1.953125
8971		-5.859375
8972		-3.906250
8973		-5.859375
8974		-3.906250
8975		-5.859375
8976		-1.953125
8977		-3.906250
8978		0.000000
8979		-3.906250
8980		1.953125
8981		-1.953125
8982		0.000000
8983		0.000000
8984		1.953125
8985		0.000000
8986		3.906250
8987		0.000000
8988		5.859375
8989		1.953125
8990		5.859375
8991		3.906250
8992		5.859375
8993		1.953125
8994		9.765625
8995		3.906250
8996		9.765625
8997		5.859375
8998		11.718750
8999		5.859375
9000		13.671875
9001		5.859375
9002		13.671875
9003		9.765625
9004		15.625000
9005		9.765625
9006		15.625000
9007		11.718750
9008		15.625000
9009		13.671875
9010		17.578125
9011		11.718750
9012		19.531250
9013		13.671875
9014		21.484375
9015		15.625000
9016		21.484375
9017		15.625000
9018		23.437500
9019		17.578125
9020		23.437500
9021		19.531250
9022		23.437500
9023		21.484375
9024		23.437500
9025		21.484375
9026		25.390625
9027		21.484375
9028		27.343750
9029		21.484375
9030		29.296875
9031		21.484375
9032		29.296875
9033		23.437500
9034		29.296875
9035		23.437500
9036		31.250000
9037		23.437500
9038		31.250000
9039		27.343750
9040		31.250000
9041		27.343750
9042		31.250000
9043		27.343750
9044		33.203125
9045		27.343750
9046		33.203125
9047		27.343750
9048		33.203125
9049		27.343750
9050		33.203125
9051		27.343750
9052		35.156250
9053		29.296875
9054		35.156250
9055		29.296875
9056		35.156250
9057		31.250000
9058		33.203125
9059		29.296875
9060		35.156250
9061		29.296875
9062		35.156250
9063		29.296875
9064		35.156250
9065		29.296875
9066		35.156250
9067		29.296875
9068		35.156250
9069		29.296875
9070		35.156250
9071		29.296875
9072		35.156250
9073		31.250000
9074		33.203125
9075		31.250000
9076		33.203125
9077		27.343750
9078		35.156250
9079		27.343750
9080		35.156250
9081		27.343750
9082		33.203125
9083		27.343750
9084		33.203125
9085		25.390625
9086		33.203125
9087		25.390625
9088		33.203125
9089		25.390625
9090		31.250000
9091		25.390625
9092		29.296875
9093		23.437500
9094		29.296875
9095		21.484375
9096		29.296875
9097		21.484375
9098		29.296875
9099		21.484375
9100		27.343750
9101		19.531250
9102		27.343750
9103		19.531250
9104		25.390625
9105		17.578125
9106		25.390625
9107		19.531250
9108		21.484375
9109		15.625000
9110		21.484375
9111		15.625000
9112		21.484375
9113		13.671875
9114		21.484375
9115		11.718750
9116		19.531250
9117		11.718750
9118		19.531250
9119		9.765625
9120		17.578125
9121		9.765625
9122		17.578125
9123		9.765625
9124		15.625000
9125		9.765625
9126		11.718750
9127		5.859375
9128		13.671875
9129		5.859375
9130		11.718750
9131		3.906250
9132		11.718750
9133		1.953125
9134		9.765625
9135		1.953125
9136		7.812500
9137		0.000000
9138		7.812500
9139		0.000000
9140		5.859375
9141		0.000000
9142		3.906250
9143		-1.953125
9144		3.906250
9145		-3.906250
9146		3.906250
9147		-5.859375
9148		1.953125
9149		-5.859375
9150		1.953125
9151		-5.859375
9152		0.000000
9153		-7.812500
9154		0.000000
9155		-9.765625
9156		-1.953125
9157		-7.812500
9158		-3.906250
9159		-7.812500
9160		-5.859375
9161		-11.718750
9162		-3.906250
9163		-11.718750
9164		-3.906250
9165		-11.718750
9166		-5.859375
9167		-13.671875
9168		-5.859375
9169		-13.671875
9170		-5.859375
9171		-13.671875
9172		-7.812500
9173		-13.671875
9174		-7.812500
9175		-13.671875
9176		-9.765625
9177		-15.625000
9178		-9.765625
9179		-15.625000
9180		-9.765625
9181		-15.625000
9182		-9.765625
9183		-15.625000
9184		-9.765625
9185		-15.625000
9186		-9.765625
9187		-15.625000
9188		-9.765625
9189		-15.625000
9190		-9.765625
9191		-13.671875
9192		-11.718750
9193		-13.671875
9194		-11.718750
9195		-15.625000
9196		-9.765625
9197		-15.625000
9198		-9.765625
9199		-15.625000
9200		-9.765625
9201		-15.625000
9202		-7.812500
9203		-15.625000
9204		-7.812500
9205		-13.671875
9206		-7.812500
9207		-13.671875
9208		-7.812500
9209		-11.718750
9210		-7.812500
9211		-11.718750
9212		-5.859375
9213		-11.718750
9214		-5.859375
9215		-11.718750
9216		-3.906250
9217		-11.718750
9218		-3.906250
9219		-9.765625
9220		-1.953125
9221		-9.765625
9222		-1.953125
9223		-7.812500
9224		-1.953125
9225		-5.859375
9226		-1.953125
9227		-5.859375
9228		0.000000
9229		-5.859375
9230		1.953125
9231		-3.906250
9232		1.953125
9233		-3.906250
9234		3.906250
9235		-3.906250
9236		3.906250
9237		-1.953125
9238		5.859375
9239		0.000000
9240		5.859375
9241		1.953125
9242		5.859375
9243		3.906250
9244		5.859375
9245		3.906250
9246		9.765625
9247		3.906250
9248		11.718750
9249		3.906250
9250		11.718750
9251		5.859375
9252		13.671875
9253		7.812500
9254		15.625000
9255		7.812500
9256		15.625000
9257		9.765625
9258		15.625000
9259		13.671875
9260		15.625000
9261		13.671875
9262		19.531250
9263		11.718750
9264		19.531250
9265		13.671875
9266		21.484375
9267		15.625000
9268		21.484375
9269		15.625000
9270		23.437500
9271		17.578125
9272		23.437500
9273		17.578125
9274		23.437500
9275		21.484375
9276		23.437500
9277		21.484375
9278		25.390625
9279		19.531250
9280		27.343750
9281		21.484375
9282		29.296875
9283		21.484375
9284		29.296875
9285		23.437500
9286		29.296875
9287		23.437500
9288		31.250000
9289		23.437500
9290		31.250000
9291		25.390625
9292		31.250000
9293		27.343750
9294		31.250000
9295		27.343750
9296		33.203125
9297		27.343750
9298		33.203125
9299		27.343750
9300		33.203125
9301		27.343750
9302		35.156250
9303		27.343750
9304		35.156250
9305		27.343750
9306		35.156250
9307		29.296875
9308		35.156250
9309		31.250000
9310		33.203125
9311		29.296875
9312		33.203125
9313		29.296875
9314		35.156250
9315		29.296875
9316		35.156250
9317		29.296875
9318		35.156250
9319		27.343750
9320		35.156250
9321		29.296875
9322		35.156250
9323		27.343750
9324		35.156250
9325		31.250000
9326		33.203125
9327		29.296875
9328		31.250000
9329		27.343750
9330		35.156250
9331		27.343750
9332		33.203125
9333		25.390625
9334		33.203125
9335		25.390625
9336		33.203125
9337		25.390625
9338		33.203125
9339		25.390625
9340		31.250000
9341		23.437500
9342		31.250000
9343		25.390625
9344		27.343750
9345		23.437500
9346		29.296875
9347		21.484375
9348		29.296875
9349		21.484375
9350		27.343750
9351		19.531250
9352		27.343750
9353		19.531250
9354		25.390625
9355		17.578125
9356		25.390625
9357		17.578125
9358		23.437500
9359		17.578125
9360		21.484375
9361		17.578125
9362		19.531250
9363		13.671875
9364		21.484375
9365		13.671875
9366		19.531250
9367		11.718750
9368		19.531250
9369		9.765625
9370		17.578125
9371		9.765625
9372		17.578125
9373		7.812500
9374		15.625000
9375		7.812500
9376		13.671875
9377		7.812500
9378		11.718750
9379		5.859375
9380		11.718750
9381		3.906250
9382		11.718750
9383		3.906250
9384		9.765625
9385		1.953125
9386		9.765625
9387		0.000000
9388		7.812500
9389		0.000000
9390		7.812500
9391		-1.953125
9392		5.859375
9393		0.000000
9394		1.953125
9395		-1.953125
9396		1.953125
9397		-3.906250
9398		1.953125
9399		-5.859375
9400		1.953125
9401		-5.859375
9402		0.000000
9403		-7.812500
9404		0.000000
9405		-7.812500
9406		-1.953125
9407		-9.765625
9408		-1.953125
9409		-7.812500
9410		-5.859375
9411		-7.812500
9412		-5.859375
9413		-11.718750
9414		-5.859375
9415		-11.718750
9416		-5.859375
9417		-13.671875
9418		-5.859375
9419		-13.671875
9420		-5.859375
9421		-13.671875
9422		-7.812500
9423		-13.671875
9424		-7.812500
9425		-15.625000
9426		-7.812500
9427		-13.671875
9428		-11.718750
9429		-15.625000
9430		-9.765625
9431		-15.625000
9432		-9.765625
9433		-15.625000
9434		-9.765625
9435		-15.625000
9436		-9.765625
9437		-17.578125
9438		-9.765625
9439		-17.578125
9440		-9.765625
9441		-15.625000
9442		-9.765625
9443		-13.671875
9444		-11.718750
9445		-13.671875
9446		-11.718750
9447		-15.625000
9448		-9.765625
9449		-15.625000
9450		-9.765625
9451		-15.625000
9452		-7.812500
9453		-15.625000
9454		-7.812500
9455		-15.625000
9456		-7.812500
9457		-13.671875
9458		-7.812500
9459		-13.671875
9460		-7.812500
9461		-11.718750
9462		-7.812500
9463		-11.718750
9464		-5.859375
9465		-11.718750
9466		-5.859375
9467		-11.718750
9468		-3.906250
9469		-9.765625
9470		-3.906250
9471		-9.765625
9472		-1.953125
9473		-9.765625
9474		-1.953125
9475		-7.812500
9476		-1.953125
9477		-5.859375
9478		-1.953125
9479		-3.906250
9480		-1.953125
9481		-5.859375
9482		1.953125
9483		-3.906250
9484		1.953125
9485		-3.906250
9486		3.906250
9487		-1.953125
9488		3.906250
9489		-1.953125
9490		5.859375
9491		0.000000
9492		7.812500
9493		3.906250
9494		5.859375
9495		3.906250
9496		7.812500
9497		1.953125
9498		9.765625
9499		3.906250
9500		11.718750
9501		5.859375
9502		11.718750
9503		5.859375
9504		13.671875
9505		7.812500
9506		15.625000
9507		9.765625
9508		15.625000
9509		9.765625
9510		15.625000
9511		13.671875
9512		15.625000
9513		11.718750
9514		19.531250
9515		13.671875
9516		21.484375
9517		13.671875
9518		21.484375
9519		15.625000
9520		23.437500
9521		15.625000
9522		23.437500
9523		17.578125
9524		25.390625
9525		17.578125
9526		25.390625
9527		21.484375
9528		23.437500
9529		23.437500
9530		25.390625
9531		21.484375
9532		27.343750
9533		21.484375
9534		29.296875
9535		21.484375
9536		29.296875
9537		23.437500
9538		31.250000
9539		23.437500
9540		31.250000
9541		25.390625
9542		31.250000
9543		25.390625
9544		31.250000
9545		27.343750
9546		31.250000
9547		27.343750
9548		33.203125
9549		27.343750
9550		33.203125
9551		27.343750
9552		35.156250
9553		27.343750
9554		35.156250
9555		27.343750
9556		35.156250
9557		27.343750
9558		35.156250
9559		27.343750
9560		35.156250
9561		31.250000
9562		33.203125
9563		31.250000
9564		33.203125
9565		29.296875
9566		35.156250
9567		29.296875
9568		35.156250
9569		27.343750
9570		35.156250
9571		27.343750
9572		35.156250
9573		27.343750
9574		35.156250
9575		27.343750
9576		35.156250
9577		29.296875
9578		33.203125
9579		29.296875
9580		31.250000
9581		27.343750
9582		33.203125
9583		25.390625
9584		33.203125
9585		25.390625
9586		33.203125
9587		25.390625
9588		33.203125
9589		25.390625
9590		31.250000
9591		23.437500
9592		31.250000
9593		23.437500
9594		29.296875
9595		25.390625
9596		27.343750
9597		23.437500
9598		27.343750
9599		21.484375
9600		27.343750
9601		19.531250
9602		27.343750
9603		19.531250
9604		27.343750
9605		17.578125
9606		25.390625
9607		17.578125
9608		25.390625
9609		15.625000
9610		23.437500
9611		17.578125
9612		19.531250
9613		17.578125
9614		19.531250
9615		13.671875
9616		19.531250
9617		11.718750
9618		19.531250
9619		9.765625
9620		17.578125
9621		9.765625
9622		17.578125
9623		9.765625
9624		15.625000
9625		7.812500
9626		15.625000
9627		7.812500
9628		13.671875
9629		7.812500
9630		9.765625
9631		3.906250
9632		11.718750
9633		3.906250
9634		9.765625
9635		1.953125
9636		9.765625
9637		0.000000
9638		7.812500
9639		0.000000
9640		7.812500
9641		-1.953125
9642		5.859375
9643		-1.953125
9644		3.906250
9645		-1.953125
9646		1.953125
9647		-1.953125
9648		0.000000
9649		-5.859375
9650		1.953125
9651		-5.859375
9652		1.953125
9653		-7.812500
9654		0.000000
9655		-7.812500
9656		-1.953125
9657		-9.765625
9658		-1.953125
9659		-9.765625
9660		-1.953125
9661		-7.812500
9662		-5.859375
9663		-9.765625
9664		-5.859375
9665		-11.718750
9666		-5.859375
9667		-11.718750
9668		-5.859375
9669		-13.671875
9670		-5.859375
9671		-13.671875
9672		-7.812500
9673		-13.671875
9674		-7.812500
9675		-15.625000
9676		-7.812500
9677		-15.625000
9678		-9.765625
9679		-13.671875
9680		-11.718750
9681		-13.671875
9682		-9.765625
9683		-15.625000
9684		-9.765625
9685		-17.578125
9686		-9.765625
9687		-15.625000
9688		-9.765625
9689		-17.578125
9690		-9.765625
9691		-17.578125
9692		-9.765625
9693		-17.578125
9694		-9.765625
9695		-13.671875
9696		-11.718750
9697		-13.671875
9698		-11.718750
9699		-15.625000
9700		-9.765625
9701		-15.625000
9702		-9.765625
9703		-15.625000
9704		-7.812500
9705		-15.625000
9706		-7.812500
9707		-13.671875
9708		-7.812500
9709		-13.671875
9710		-7.812500
9711		-13.671875
9712		-7.812500
9713		-9.765625
9714		-7.812500
9715		-11.718750
9716		-5.859375
9717		-11.718750
9718		-5.859375
9719		-11.718750
9720		-3.906250
9721		-9.765625
9722		-3.906250
9723		-9.765625
9724		-1.953125
9725		-7.812500
9726		-1.953125
9727		-7.812500
9728		-1.953125
9729		-3.906250
9730		-1.953125
9731		-3.906250
9732		-1.953125
9733		-5.859375
9734		1.953125
9735		-3.906250
9736		3.906250
9737		-1.953125
9738		3.906250
9739		-1.953125
9740		5.859375
9741		0.000000
9742		5.859375
9743		0.000000
9744		7.812500
9745		1.953125
9746		7.812500
9747		3.906250
9748		7.812500
9749		3.906250
9750		9.765625
9751		5.859375
9752		11.718750
9753		5.859375
9754		13.671875
9755		7.812500
9756		13.671875
9757		7.812500
9758		15.625000
9759		9.765625
9760		15.625000
9761		9.765625
9762		17.578125
9763		13.671875
9764		15.625000
9765		13.671875
9766		19.531250
9767		13.671875
9768		21.484375
9769		15.625000
9770		21.484375
9771		15.625000
9772		23.437500
9773		17.578125
9774		23.437500
9775		17.578125
9776		25.390625
9777		19.531250
9778		25.390625
9779		21.484375
9780		25.390625
9781		23.437500
9782		25.390625
9783		21.484375
9784		27.343750
9785		21.484375
9786		29.296875
9787		23.437500
9788		29.296875
9789		23.437500
9790		31.250000
9791		23.437500
9792		31.250000
9793		25.390625
9794		31.250000
9795		25.390625
9796		31.250000
9797		29.296875
9798		31.250000
9799		27.343750
9800		33.203125
9801		27.343750
9802		33.203125
9803		27.343750
9804		33.203125
9805		27.343750
9806		35.156250
9807		27.343750
9808		35.156250
9809		27.343750
9810		35.156250
9811		29.296875
9812		35.156250
9813		31.250000
9814		33.203125
9815		31.250000
9816		33.203125
9817		29.296875
9818		35.156250
9819		29.296875
9820		35.156250
9821		29.296875
9822		35.156250
9823		27.343750
9824		35.156250
9825		27.343750
9826		35.156250
9827		27.343750
9828		35.156250
9829		27.343750
9830		35.156250
9831		29.296875
9832		31.250000
9833		25.390625
9834		33.203125
9835		25.390625
9836		33.203125
9837		25.390625
9838		33.203125
9839		27.343750
9840		29.296875
9841		23.437500
9842		31.250000
9843		23.437500
9844		29.296875
9845		23.437500
9846		29.296875
9847		25.390625
9848		27.343750
9849		21.484375
9850		27.343750
9851		19.531250
9852		27.343750
9853		19.531250
9854		25.390625
9855		21.484375
9856		23.437500
9857		19.531250
9858		23.437500
9859		17.578125
9860		23.437500
9861		15.625000
9862		21.484375
9863		17.578125
9864		19.531250
9865		15.625000
9866		19.531250
9867		13.671875
9868		17.578125
9869		11.718750
9870		19.531250
9871		11.718750
9872		15.625000
9873		11.718750
9874		13.671875
9875		9.765625
9876		15.625000
9877		7.812500
9878		13.671875
9879		7.812500
9880		11.718750
9881		7.812500
9882		9.765625
9883		3.906250
9884		9.765625
9885		3.906250
9886		9.765625
9887		3.906250
9888		7.812500
9889		1.953125
9890		5.859375
9891		0.000000
9892		5.859375
9893		0.000000
9894		3.906250
9895		-1.953125
9896		3.906250
9897		-1.953125
9898		1.953125
9899		-1.953125
9900		0.000000
9901		-3.906250
9902		0.000000
9903		-3.906250
9904		0.000000
9905		-5.859375
9906		-1.953125
9907		-7.812500
9908		-3.906250
9909		-7.812500
9910		-3.906250
9911		-7.812500
9912		-5.859375
9913		-9.765625
9914		-5.859375
9915		-9.765625
9916		-7.812500
9917		-9.765625
9918		-7.812500
9919		-11.718750
9920		-7.812500
9921		-11.718750
9922		-7.812500
9923		-11.718750
9924		-9.765625
9925		-13.671875
9926		-9.765625
9927		-13.671875
9928		-9.765625
9929		-13.671875
9930		-9.765625
9931		-13.671875
9932		-11.718750
9933		-15.625000
9934		-11.718750
9935		-13.671875
9936		-11.718750
9937		-13.671875
9938		-11.718750
9939		-15.625000
9940		-11.718750
9941		-13.671875
9942		-11.718750
9943		-15.625000
9944		-11.718750
9945		-15.625000
9946		-11.718750
9947		-13.671875
9948		-11.718750
9949		-13.671875
9950		-11.718750
9951		-15.625000
9952		-11.718750
9953		-13.671875
9954		-11.718750
9955		-13.671875
9956		-9.765625
9957		-13.671875
9958		-9.765625
9959		-11.718750
9960		-9.765625
9961		-11.718750
9962		-9.765625
9963		-13.671875
9964		-7.812500
9965		-9.765625
9966		-7.812500
9967		-9.765625
9968		-5.859375
9969		-9.765625
9970		-5.859375
9971		-7.812500
9972		-5.859375
9973		-7.812500
9974		-5.859375
9975		-7.812500
9976		-3.906250
9977		-5.859375
9978		-1.953125
9979		-5.859375
9980		-1.953125
9981		-3.906250
9982		-1.953125
9983		-1.953125
9984		0.000000
9985		-3.906250
9986		1.953125
9987		-1.953125
9988		1.953125
9989		0.000000
9990		3.906250
9991		1.953125
9992		3.906250
9993		1.953125
9994		3.906250
9995		1.953125
9996		5.859375
9997		3.906250
9998		7.812500
9999		5.859375
10000		7.812500
