Channel              :		CH1
Frequency            :		  ?
Period               :		  ?
PK-PK                :		23.44mV
Probe attenuation    :		1X
Voltage per ADC value:		0.122070mV
Time interval        :		2.00000us

index		CH1_Voltage(mV)
1		9.765625
2		9.765625
3		7.812500
4		9.765625
5		5.859375
6		9.765625
7		7.812500
8		9.765625
9		7.812500
10		11.718750
11		7.812500
12		11.718750
13		7.812500
14		11.718750
15		9.765625
16		11.718750
17		9.765625
18		11.718750
19		9.765625
20		11.718750
21		9.765625
22		11.718750
23		9.765625
24		13.671875
25		9.765625
26		13.671875
27		11.718750
28		13.671875
29		11.718750
30		13.671875
31		11.718750
32		15.625000
33		11.718750
34		15.625000
35		11.718750
36		15.625000
37		13.671875
38		15.625000
39		11.718750
40		15.625000
41		13.671875
42		15.625000
43		13.671875
44		15.625000
45		13.671875
46		15.625000
47		13.671875
48		17.578125
49		13.671875
50		17.578125
51		13.671875
52		17.578125
53		13.671875
54		17.578125
55		15.625000
56		17.578125
57		13.671875
58		17.578125
59		15.625000
60		17.578125
61		15.625000
62		17.578125
63		15.625000
64		17.578125
65		13.671875
66		17.578125
67		15.625000
68		17.578125
69		15.625000
70		19.531250
71		15.625000
72		17.578125
73		15.625000
74		19.531250
75		15.625000
76		19.531250
77		15.625000
78		17.578125
79		15.625000
80		19.531250
81		15.625000
82		19.531250
83		15.625000
84		17.578125
85		15.625000
86		19.531250
87		15.625000
88		17.578125
89		13.671875
90		17.578125
91		15.625000
92		17.578125
93		15.625000
94		17.578125
95		13.671875
96		17.578125
97		15.625000
98		17.578125
99		13.671875
100		17.578125
101		13.671875
102		17.578125
103		13.671875
104		17.578125
105		13.671875
106		15.625000
107		11.718750
108		17.578125
109		13.671875
110		15.625000
111		13.671875
112		17.578125
113		13.671875
114		15.625000
115		11.718750
116		15.625000
117		11.718750
118		15.625000
119		11.718750
120		15.625000
121		11.718750
122		15.625000
123		11.718750
124		15.625000
125		11.718750
126		13.671875
127		11.718750
128		13.671875
129		11.718750
130		13.671875
131		9.765625
132		13.671875
133		9.765625
134		13.671875
135		9.765625
136		13.671875
137		9.765625
138		11.718750
139		9.765625
140		11.718750
141		9.765625
142		11.718750
143		7.812500
144		11.718750
145		7.812500
146		11.718750
147		7.812500
148		11.718750
149		7.812500
150		9.765625
151		5.859375
152		11.718750
153		5.859375
154		9.765625
155		5.859375
156		9.765625
157		5.859375
158		9.765625
159		5.859375
160		9.765625
161		5.859375
162		7.812500
163		5.859375
164		7.812500
165		3.906250
166		7.812500
167		3.906250
168		7.812500
169		3.906250
170		7.812500
171		3.906250
172		5.859375
173		3.906250
174		7.812500
175		3.906250
176		5.859375
177		3.906250
178		5.859375
179		3.906250
180		5.859375
181		3.906250
182		5.859375
183		3.906250
184		5.859375
185		1.953125
186		5.859375
187		3.906250
188		5.859375
189		1.953125
190		5.859375
191		1.953125
192		5.859375
193		1.953125
194		5.859375
195		1.953125
196		5.859375
197		1.953125
198		5.859375
199		1.953125
200		5.859375
201		1.953125
202		5.859375
203		0.000000
204		5.859375
205		1.953125
206		3.906250
207		1.953125
208		3.906250
209		1.953125
210		5.859375
211		1.953125
212		5.859375
213		1.953125
214		3.906250
215		1.953125
216		5.859375
217		1.953125
218		5.859375
219		1.953125
220		5.859375
221		3.906250
222		5.859375
223		1.953125
224		5.859375
225		1.953125
226		5.859375
227		1.953125
228		5.859375
229		3.906250
230		5.859375
231		3.906250
232		5.859375
233		3.906250
234		5.859375
235		3.906250
236		7.812500
237		3.906250
238		7.812500
239		5.859375
240		7.812500
241		3.906250
242		7.812500
243		5.859375
244		7.812500
245		5.859375
246		7.812500
247		5.859375
248		9.765625
249		5.859375
250		9.765625
251		5.859375
252		9.765625
253		5.859375
254		9.765625
255		7.812500
256		9.765625
257		7.812500
258		11.718750
259		7.812500
260		11.718750
261		7.812500
262		11.718750
263		7.812500
264		11.718750
265		9.765625
266		11.718750
267		9.765625
268		13.671875
269		9.765625
270		13.671875
271		9.765625
272		11.718750
273		9.765625
274		13.671875
275		9.765625
276		13.671875
277		9.765625
278		13.671875
279		11.718750
280		13.671875
281		11.718750
282		15.625000
283		11.718750
284		15.625000
285		11.718750
286		15.625000
287		11.718750
288		15.625000
289		13.671875
290		15.625000
291		11.718750
292		15.625000
293		13.671875
294		15.625000
295		13.671875
296		17.578125
297		13.671875
298		17.578125
299		13.671875
300		17.578125
301		13.671875
302		17.578125
303		13.671875
304		17.578125
305		15.625000
306		17.578125
307		15.625000
308		17.578125
309		13.671875
310		19.531250
311		15.625000
312		17.578125
313		15.625000
314		17.578125
315		15.625000
316		17.578125
317		15.625000
318		19.531250
319		15.625000
320		19.531250
321		13.671875
322		19.531250
323		15.625000
324		17.578125
325		15.625000
326		19.531250
327		15.625000
328		19.531250
329		15.625000
330		19.531250
331		15.625000
332		19.531250
333		15.625000
334		19.531250
335		15.625000
336		19.531250
337		15.625000
338		19.531250
339		15.625000
340		17.578125
341		15.625000
342		17.578125
343		15.625000
344		17.578125
345		15.625000
346		19.531250
347		13.671875
348		17.578125
349		15.625000
350		17.578125
351		13.671875
352		17.578125
353		13.671875
354		17.578125
355		15.625000
356		17.578125
357		13.671875
358		17.578125
359		13.671875
360		17.578125
361		13.671875
362		17.578125
363		13.671875
364		15.625000
365		13.671875
366		15.625000
367		11.718750
368		15.625000
369		13.671875
370		15.625000
371		11.718750
372		15.625000
373		11.718750
374		15.625000
375		11.718750
376		15.625000
377		11.718750
378		13.671875
379		11.718750
380		13.671875
381		9.765625
382		13.671875
383		9.765625
384		13.671875
385		9.765625
386		13.671875
387		9.765625
388		13.671875
389		9.765625
390		11.718750
391		9.765625
392		11.718750
393		7.812500
394		11.718750
395		7.812500
396		11.718750
397		7.812500
398		11.718750
399		7.812500
400		11.718750
401		7.812500
402		9.765625
403		7.812500
404		9.765625
405		5.859375
406		9.765625
407		5.859375
408		9.765625
409		5.859375
410		9.765625
411		5.859375
412		9.765625
413		5.859375
414		9.765625
415		5.859375
416		7.812500
417		3.906250
418		7.812500
419		3.906250
420		7.812500
421		3.906250
422		7.812500
423		3.906250
424		5.859375
425		3.906250
426		7.812500
427		1.953125
428		7.812500
429		3.906250
430		5.859375
431		1.953125
432		5.859375
433		1.953125
434		5.859375
435		1.953125
436		5.859375
437		1.953125
438		5.859375
439		3.906250
440		5.859375
441		1.953125
442		5.859375
443		1.953125
444		5.859375
445		1.953125
446		5.859375
447		1.953125
448		5.859375
449		1.953125
450		5.859375
451		1.953125
452		5.859375
453		1.953125
454		3.906250
455		0.000000
456		5.859375
457		1.953125
458		3.906250
459		1.953125
460		5.859375
461		1.953125
462		5.859375
463		1.953125
464		5.859375
465		1.953125
466		5.859375
467		1.953125
468		5.859375
469		1.953125
470		5.859375
471		1.953125
472		5.859375
473		3.906250
474		5.859375
475		3.906250
476		5.859375
477		1.953125
478		5.859375
479		3.906250
480		7.812500
481		3.906250
482		5.859375
483		3.906250
484		7.812500
485		3.906250
486		7.812500
487		3.906250
488		7.812500
489		3.906250
490		7.812500
491		5.859375
492		7.812500
493		5.859375
494		7.812500
495		5.859375
496		7.812500
497		5.859375
498		7.812500
499		5.859375
500		7.812500
501		5.859375
502		9.765625
503		5.859375
504		9.765625
505		5.859375
506		9.765625
507		7.812500
508		9.765625
509		7.812500
510		9.765625
511		7.812500
512		11.718750
513		7.812500
514		11.718750
515		9.765625
516		11.718750
517		9.765625
518		11.718750
519		9.765625
520		11.718750
521		9.765625
522		13.671875
523		9.765625
524		13.671875
525		9.765625
526		13.671875
527		9.765625
528		13.671875
529		11.718750
530		13.671875
531		11.718750
532		13.671875
533		11.718750
534		15.625000
535		11.718750
536		15.625000
537		11.718750
538		15.625000
539		11.718750
540		15.625000
541		13.671875
542		15.625000
543		13.671875
544		15.625000
545		13.671875
546		17.578125
547		13.671875
548		15.625000
549		13.671875
550		17.578125
551		13.671875
552		17.578125
553		13.671875
554		17.578125
555		13.671875
556		17.578125
557		15.625000
558		17.578125
559		15.625000
560		17.578125
561		13.671875
562		17.578125
563		15.625000
564		17.578125
565		15.625000
566		19.531250
567		15.625000
568		17.578125
569		15.625000
570		19.531250
571		15.625000
572		19.531250
573		13.671875
574		19.531250
575		15.625000
576		17.578125
577		13.671875
578		19.531250
579		15.625000
580		17.578125
581		15.625000
582		19.531250
583		15.625000
584		19.531250
585		15.625000
586		19.531250
587		15.625000
588		17.578125
589		15.625000
590		19.531250
591		15.625000
592		17.578125
593		15.625000
594		17.578125
595		13.671875
596		19.531250
597		15.625000
598		17.578125
599		15.625000
600		17.578125
601		13.671875
602		17.578125
603		13.671875
604		17.578125
605		13.671875
606		17.578125
607		13.671875
608		17.578125
609		13.671875
610		15.625000
611		13.671875
612		17.578125
613		13.671875
614		17.578125
615		13.671875
616		17.578125
617		13.671875
618		15.625000
619		11.718750
620		15.625000
621		11.718750
622		15.625000
623		11.718750
624		15.625000
625		11.718750
626		13.671875
627		11.718750
628		15.625000
629		11.718750
630		13.671875
631		9.765625
632		13.671875
633		9.765625
634		13.671875
635		9.765625
636		13.671875
637		9.765625
638		13.671875
639		9.765625
640		13.671875
641		9.765625
642		11.718750
643		9.765625
644		11.718750
645		7.812500
646		11.718750
647		7.812500
648		11.718750
649		7.812500
650		11.718750
651		7.812500
652		9.765625
653		7.812500
654		9.765625
655		7.812500
656		9.765625
657		5.859375
658		9.765625
659		5.859375
660		7.812500
661		5.859375
662		9.765625
663		5.859375
664		7.812500
665		5.859375
666		7.812500
667		5.859375
668		7.812500
669		3.906250
670		7.812500
671		3.906250
672		7.812500
673		3.906250
674		7.812500
675		3.906250
676		5.859375
677		3.906250
678		5.859375
679		3.906250
680		7.812500
681		3.906250
682		5.859375
683		1.953125
684		5.859375
685		1.953125
686		5.859375
687		1.953125
688		5.859375
689		1.953125
690		5.859375
691		1.953125
692		5.859375
693		1.953125
694		5.859375
695		1.953125
696		5.859375
697		1.953125
698		5.859375
699		1.953125
700		3.906250
701		1.953125
702		5.859375
703		1.953125
704		5.859375
705		1.953125
706		3.906250
707		1.953125
708		5.859375
709		1.953125
710		3.906250
711		0.000000
712		5.859375
713		1.953125
714		5.859375
715		1.953125
716		5.859375
717		1.953125
718		5.859375
719		1.953125
720		5.859375
721		1.953125
722		5.859375
723		1.953125
724		5.859375
725		1.953125
726		5.859375
727		3.906250
728		5.859375
729		1.953125
730		5.859375
731		3.906250
732		5.859375
733		3.906250
734		5.859375
735		3.906250
736		7.812500
737		3.906250
738		7.812500
739		3.906250
740		7.812500
741		3.906250
742		7.812500
743		5.859375
744		7.812500
745		3.906250
746		7.812500
747		3.906250
748		7.812500
749		5.859375
750		7.812500
751		5.859375
752		9.765625
753		5.859375
754		9.765625
755		5.859375
756		9.765625
757		5.859375
758		9.765625
759		7.812500
760		9.765625
761		7.812500
762		9.765625
763		7.812500
764		11.718750
765		7.812500
766		11.718750
767		9.765625
768		11.718750
769		9.765625
770		11.718750
771		9.765625
772		11.718750
773		9.765625
774		13.671875
775		9.765625
776		13.671875
777		9.765625
778		13.671875
779		9.765625
780		13.671875
781		11.718750
782		13.671875
783		11.718750
784		13.671875
785		11.718750
786		15.625000
787		11.718750
788		15.625000
789		11.718750
790		15.625000
791		13.671875
792		15.625000
793		13.671875
794		15.625000
795		13.671875
796		17.578125
797		13.671875
798		15.625000
799		13.671875
800		15.625000
801		13.671875
802		17.578125
803		13.671875
804		17.578125
805		15.625000
806		17.578125
807		13.671875
808		17.578125
809		15.625000
810		17.578125
811		15.625000
812		17.578125
813		15.625000
814		17.578125
815		15.625000
816		17.578125
817		15.625000
818		17.578125
819		15.625000
820		19.531250
821		15.625000
822		19.531250
823		15.625000
824		17.578125
825		13.671875
826		19.531250
827		15.625000
828		17.578125
829		15.625000
830		19.531250
831		15.625000
832		19.531250
833		15.625000
834		19.531250
835		15.625000
836		19.531250
837		15.625000
838		19.531250
839		15.625000
840		19.531250
841		15.625000
842		19.531250
843		15.625000
844		17.578125
845		15.625000
846		17.578125
847		13.671875
848		17.578125
849		15.625000
850		17.578125
851		15.625000
852		17.578125
853		13.671875
854		17.578125
855		13.671875
856		17.578125
857		13.671875
858		17.578125
859		15.625000
860		17.578125
861		13.671875
862		15.625000
863		13.671875
864		17.578125
865		13.671875
866		15.625000
867		13.671875
868		15.625000
869		13.671875
870		15.625000
871		13.671875
872		15.625000
873		11.718750
874		15.625000
875		11.718750
876		15.625000
877		11.718750
878		13.671875
879		11.718750
880		15.625000
881		11.718750
882		13.671875
883		9.765625
884		13.671875
885		9.765625
886		13.671875
887		9.765625
888		13.671875
889		9.765625
890		13.671875
891		7.812500
892		11.718750
893		9.765625
894		11.718750
895		9.765625
896		11.718750
897		7.812500
898		11.718750
899		7.812500
900		11.718750
901		7.812500
902		11.718750
903		7.812500
904		9.765625
905		5.859375
906		9.765625
907		7.812500
908		9.765625
909		5.859375
910		9.765625
911		5.859375
912		9.765625
913		5.859375
914		9.765625
915		5.859375
916		9.765625
917		5.859375
918		7.812500
919		5.859375
920		7.812500
921		3.906250
922		7.812500
923		3.906250
924		7.812500
925		3.906250
926		7.812500
927		3.906250
928		5.859375
929		3.906250
930		5.859375
931		1.953125
932		7.812500
933		3.906250
934		5.859375
935		3.906250
936		5.859375
937		3.906250
938		5.859375
939		1.953125
940		5.859375
941		1.953125
942		5.859375
943		1.953125
944		5.859375
945		1.953125
946		5.859375
947		1.953125
948		5.859375
949		1.953125
950		5.859375
951		1.953125
952		5.859375
953		1.953125
954		5.859375
955		1.953125
956		3.906250
957		1.953125
958		5.859375
959		1.953125
960		5.859375
961		1.953125
962		3.906250
963		1.953125
964		5.859375
965		1.953125
966		5.859375
967		1.953125
968		5.859375
969		1.953125
970		5.859375
971		1.953125
972		5.859375
973		1.953125
974		5.859375
975		1.953125
976		5.859375
977		3.906250
978		5.859375
979		3.906250
980		5.859375
981		1.953125
982		7.812500
983		3.906250
984		5.859375
985		3.906250
986		7.812500
987		3.906250
988		7.812500
989		3.906250
990		7.812500
991		3.906250
992		7.812500
993		3.906250
994		7.812500
995		5.859375
996		7.812500
997		5.859375
998		9.765625
999		5.859375
1000		7.812500
1001		5.859375
1002		9.765625
1003		5.859375
1004		9.765625
1005		5.859375
1006		9.765625
1007		7.812500
1008		9.765625
1009		7.812500
1010		11.718750
1011		7.812500
1012		9.765625
1013		7.812500
1014		11.718750
1015		7.812500
1016		11.718750
1017		9.765625
1018		11.718750
1019		9.765625
1020		11.718750
1021		9.765625
1022		13.671875
1023		9.765625
1024		13.671875
1025		9.765625
1026		13.671875
1027		9.765625
1028		13.671875
1029		11.718750
1030		13.671875
1031		11.718750
1032		15.625000
1033		11.718750
1034		13.671875
1035		11.718750
1036		15.625000
1037		11.718750
1038		15.625000
1039		11.718750
1040		15.625000
1041		11.718750
1042		15.625000
1043		11.718750
1044		15.625000
1045		13.671875
1046		15.625000
1047		13.671875
1048		15.625000
1049		13.671875
1050		17.578125
1051		13.671875
1052		17.578125
1053		13.671875
1054		17.578125
1055		13.671875
1056		17.578125
1057		13.671875
1058		17.578125
1059		15.625000
1060		17.578125
1061		15.625000
1062		17.578125
1063		15.625000
1064		17.578125
1065		13.671875
1066		19.531250
1067		15.625000
1068		17.578125
1069		15.625000
1070		17.578125
1071		15.625000
1072		17.578125
1073		15.625000
1074		19.531250
1075		15.625000
1076		19.531250
1077		15.625000
1078		19.531250
1079		15.625000
1080		17.578125
1081		15.625000
1082		19.531250
1083		15.625000
1084		19.531250
1085		15.625000
1086		19.531250
1087		15.625000
1088		19.531250
1089		15.625000
1090		19.531250
1091		15.625000
1092		19.531250
1093		15.625000
1094		19.531250
1095		15.625000
1096		17.578125
1097		15.625000
1098		19.531250
1099		15.625000
1100		19.531250
1101		15.625000
1102		19.531250
1103		15.625000
1104		17.578125
1105		15.625000
1106		17.578125
1107		13.671875
1108		17.578125
1109		13.671875
1110		17.578125
1111		13.671875
1112		17.578125
1113		13.671875
1114		17.578125
1115		11.718750
1116		17.578125
1117		11.718750
1118		15.625000
1119		13.671875
1120		15.625000
1121		13.671875
1122		15.625000
1123		11.718750
1124		15.625000
1125		11.718750
1126		15.625000
1127		11.718750
1128		15.625000
1129		11.718750
1130		13.671875
1131		11.718750
1132		13.671875
1133		11.718750
1134		13.671875
1135		9.765625
1136		13.671875
1137		9.765625
1138		13.671875
1139		9.765625
1140		13.671875
1141		9.765625
1142		13.671875
1143		9.765625
1144		13.671875
1145		9.765625
1146		11.718750
1147		9.765625
1148		11.718750
1149		7.812500
1150		11.718750
1151		7.812500
1152		11.718750
1153		7.812500
1154		9.765625
1155		7.812500
1156		9.765625
1157		5.859375
1158		9.765625
1159		7.812500
1160		9.765625
1161		5.859375
1162		9.765625
1163		5.859375
1164		9.765625
1165		5.859375
1166		9.765625
1167		5.859375
1168		7.812500
1169		5.859375
1170		7.812500
1171		5.859375
1172		7.812500
1173		3.906250
1174		7.812500
1175		3.906250
1176		7.812500
1177		3.906250
1178		7.812500
1179		3.906250
1180		5.859375
1181		3.906250
1182		5.859375
1183		3.906250
1184		7.812500
1185		3.906250
1186		5.859375
1187		1.953125
1188		5.859375
1189		1.953125
1190		5.859375
1191		1.953125
1192		5.859375
1193		1.953125
1194		5.859375
1195		1.953125
1196		5.859375
1197		1.953125
1198		5.859375
1199		1.953125
1200		5.859375
1201		1.953125
1202		5.859375
1203		1.953125
1204		5.859375
1205		1.953125
1206		5.859375
1207		1.953125
1208		5.859375
1209		1.953125
1210		5.859375
1211		1.953125
1212		5.859375
1213		1.953125
1214		3.906250
1215		1.953125
1216		5.859375
1217		1.953125
1218		5.859375
1219		1.953125
1220		5.859375
1221		1.953125
1222		5.859375
1223		1.953125
1224		5.859375
1225		1.953125
1226		5.859375
1227		1.953125
1228		5.859375
1229		1.953125
1230		5.859375
1231		3.906250
1232		5.859375
1233		3.906250
1234		5.859375
1235		3.906250
1236		5.859375
1237		3.906250
1238		7.812500
1239		3.906250
1240		7.812500
1241		3.906250
1242		7.812500
1243		3.906250
1244		7.812500
1245		3.906250
1246		7.812500
1247		5.859375
1248		7.812500
1249		5.859375
1250		7.812500
1251		5.859375
1252		9.765625
1253		5.859375
1254		9.765625
1255		5.859375
1256		9.765625
1257		7.812500
1258		9.765625
1259		7.812500
1260		9.765625
1261		7.812500
1262		11.718750
1263		7.812500
1264		9.765625
1265		7.812500
1266		9.765625
1267		7.812500
1268		11.718750
1269		9.765625
1270		11.718750
1271		9.765625
1272		11.718750
1273		9.765625
1274		11.718750
1275		9.765625
1276		13.671875
1277		9.765625
1278		13.671875
1279		11.718750
1280		13.671875
1281		11.718750
1282		13.671875
1283		11.718750
1284		15.625000
1285		11.718750
1286		13.671875
1287		11.718750
1288		15.625000
1289		11.718750
1290		15.625000
1291		11.718750
1292		15.625000
1293		11.718750
1294		15.625000
1295		11.718750
1296		17.578125
1297		13.671875
1298		15.625000
1299		13.671875
1300		15.625000
1301		13.671875
1302		17.578125
1303		13.671875
1304		17.578125
1305		13.671875
1306		17.578125
1307		13.671875
1308		19.531250
1309		13.671875
1310		17.578125
1311		15.625000
1312		17.578125
1313		13.671875
1314		17.578125
1315		15.625000
1316		17.578125
1317		15.625000
1318		19.531250
1319		15.625000
1320		19.531250
1321		15.625000
1322		19.531250
1323		15.625000
1324		19.531250
1325		15.625000
1326		19.531250
1327		15.625000
1328		19.531250
1329		15.625000
1330		19.531250
1331		15.625000
1332		17.578125
1333		15.625000
1334		19.531250
1335		15.625000
1336		19.531250
1337		15.625000
1338		19.531250
1339		15.625000
1340		19.531250
1341		15.625000
1342		19.531250
1343		15.625000
1344		19.531250
1345		15.625000
1346		17.578125
1347		15.625000
1348		17.578125
1349		15.625000
1350		17.578125
1351		13.671875
1352		19.531250
1353		13.671875
1354		17.578125
1355		15.625000
1356		17.578125
1357		15.625000
1358		17.578125
1359		13.671875
1360		17.578125
1361		13.671875
1362		17.578125
1363		13.671875
1364		17.578125
1365		13.671875
1366		15.625000
1367		11.718750
1368		17.578125
1369		13.671875
1370		15.625000
1371		11.718750
1372		15.625000
1373		13.671875
1374		15.625000
1375		11.718750
1376		15.625000
1377		11.718750
1378		15.625000
1379		9.765625
1380		15.625000
1381		11.718750
1382		13.671875
1383		11.718750
1384		13.671875
1385		9.765625
1386		13.671875
1387		9.765625
1388		13.671875
1389		9.765625
1390		13.671875
1391		9.765625
1392		13.671875
1393		9.765625
1394		11.718750
1395		9.765625
1396		11.718750
1397		7.812500
1398		11.718750
1399		9.765625
1400		11.718750
1401		7.812500
1402		11.718750
1403		7.812500
1404		11.718750
1405		7.812500
1406		9.765625
1407		7.812500
1408		11.718750
1409		5.859375
1410		9.765625
1411		5.859375
1412		9.765625
1413		5.859375
1414		9.765625
1415		5.859375
1416		7.812500
1417		3.906250
1418		7.812500
1419		5.859375
1420		7.812500
1421		3.906250
1422		7.812500
1423		3.906250
1424		7.812500
1425		3.906250
1426		7.812500
1427		3.906250
1428		7.812500
1429		1.953125
1430		7.812500
1431		3.906250
1432		5.859375
1433		3.906250
1434		5.859375
1435		3.906250
1436		5.859375
1437		3.906250
1438		5.859375
1439		1.953125
1440		5.859375
1441		3.906250
1442		5.859375
1443		1.953125
1444		5.859375
1445		1.953125
1446		5.859375
1447		1.953125
1448		5.859375
1449		1.953125
1450		3.906250
1451		1.953125
1452		5.859375
1453		1.953125
1454		5.859375
1455		1.953125
1456		5.859375
1457		1.953125
1458		5.859375
1459		1.953125
1460		5.859375
1461		1.953125
1462		5.859375
1463		1.953125
1464		5.859375
1465		1.953125
1466		3.906250
1467		1.953125
1468		3.906250
1469		1.953125
1470		5.859375
1471		1.953125
1472		5.859375
1473		1.953125
1474		5.859375
1475		1.953125
1476		5.859375
1477		1.953125
1478		5.859375
1479		1.953125
1480		5.859375
1481		1.953125
1482		5.859375
1483		3.906250
1484		5.859375
1485		1.953125
1486		7.812500
1487		3.906250
1488		5.859375
1489		3.906250
1490		5.859375
1491		3.906250
1492		7.812500
1493		3.906250
1494		7.812500
1495		5.859375
1496		7.812500
1497		3.906250
1498		7.812500
1499		5.859375
1500		7.812500
1501		5.859375
1502		9.765625
1503		5.859375
1504		9.765625
1505		5.859375
1506		9.765625
1507		5.859375
1508		9.765625
1509		7.812500
1510		9.765625
1511		7.812500
1512		9.765625
1513		7.812500
1514		11.718750
1515		7.812500
1516		11.718750
1517		9.765625
1518		11.718750
1519		7.812500
1520		11.718750
1521		9.765625
1522		11.718750
1523		9.765625
1524		11.718750
1525		9.765625
1526		13.671875
1527		9.765625
1528		13.671875
1529		9.765625
1530		13.671875
1531		9.765625
1532		13.671875
1533		11.718750
1534		13.671875
1535		9.765625
1536		15.625000
1537		11.718750
1538		15.625000
1539		11.718750
1540		15.625000
1541		11.718750
1542		15.625000
1543		11.718750
1544		15.625000
1545		13.671875
1546		15.625000
1547		13.671875
1548		15.625000
1549		13.671875
1550		15.625000
1551		13.671875
1552		15.625000
1553		13.671875
1554		17.578125
1555		13.671875
1556		17.578125
1557		13.671875
1558		17.578125
1559		13.671875
1560		17.578125
1561		13.671875
1562		17.578125
1563		13.671875
1564		19.531250
1565		13.671875
1566		17.578125
1567		15.625000
1568		17.578125
1569		13.671875
1570		19.531250
1571		15.625000
1572		17.578125
1573		15.625000
1574		19.531250
1575		15.625000
1576		19.531250
1577		15.625000
1578		19.531250
1579		15.625000
1580		19.531250
1581		15.625000
1582		19.531250
1583		15.625000
1584		17.578125
1585		15.625000
1586		17.578125
1587		15.625000
1588		19.531250
1589		15.625000
1590		19.531250
1591		15.625000
1592		19.531250
1593		15.625000
1594		19.531250
1595		15.625000
1596		17.578125
1597		15.625000
1598		19.531250
1599		15.625000
1600		17.578125
1601		15.625000
1602		17.578125
1603		13.671875
1604		17.578125
1605		13.671875
1606		17.578125
1607		15.625000
1608		17.578125
1609		13.671875
1610		17.578125
1611		13.671875
1612		17.578125
1613		13.671875
1614		17.578125
1615		13.671875
1616		17.578125
1617		13.671875
1618		15.625000
1619		11.718750
1620		17.578125
1621		13.671875
1622		15.625000
1623		11.718750
1624		15.625000
1625		11.718750
1626		15.625000
1627		11.718750
1628		15.625000
1629		11.718750
1630		15.625000
1631		11.718750
1632		15.625000
1633		11.718750
1634		13.671875
1635		11.718750
1636		13.671875
1637		9.765625
1638		13.671875
1639		9.765625
1640		13.671875
1641		9.765625
1642		11.718750
1643		9.765625
1644		11.718750
1645		9.765625
1646		11.718750
1647		9.765625
1648		11.718750
1649		7.812500
1650		11.718750
1651		7.812500
1652		11.718750
1653		7.812500
1654		11.718750
1655		7.812500
1656		11.718750
1657		7.812500
1658		9.765625
1659		7.812500
1660		9.765625
1661		5.859375
1662		9.765625
1663		5.859375
1664		9.765625
1665		5.859375
1666		9.765625
1667		5.859375
1668		7.812500
1669		5.859375
1670		7.812500
1671		3.906250
1672		9.765625
1673		3.906250
1674		7.812500
1675		3.906250
1676		7.812500
1677		3.906250
1678		7.812500
1679		3.906250
1680		5.859375
1681		3.906250
1682		7.812500
1683		3.906250
1684		5.859375
1685		3.906250
1686		5.859375
1687		1.953125
1688		5.859375
1689		3.906250
1690		5.859375
1691		1.953125
1692		5.859375
1693		1.953125
1694		5.859375
1695		1.953125
1696		5.859375
1697		1.953125
1698		5.859375
1699		1.953125
1700		5.859375
1701		1.953125
1702		3.906250
1703		1.953125
1704		5.859375
1705		1.953125
1706		5.859375
1707		1.953125
1708		5.859375
1709		1.953125
1710		5.859375
1711		1.953125
1712		3.906250
1713		1.953125
1714		5.859375
1715		1.953125
1716		5.859375
1717		1.953125
1718		3.906250
1719		1.953125
1720		3.906250
1721		1.953125
1722		5.859375
1723		1.953125
1724		5.859375
1725		1.953125
1726		5.859375
1727		1.953125
1728		5.859375
1729		1.953125
1730		5.859375
1731		3.906250
1732		5.859375
1733		1.953125
1734		5.859375
1735		3.906250
1736		5.859375
1737		3.906250
1738		7.812500
1739		3.906250
1740		7.812500
1741		3.906250
1742		7.812500
1743		3.906250
1744		7.812500
1745		3.906250
1746		7.812500
1747		5.859375
1748		7.812500
1749		5.859375
1750		7.812500
1751		5.859375
1752		7.812500
1753		5.859375
1754		7.812500
1755		3.906250
1756		9.765625
1757		5.859375
1758		9.765625
1759		5.859375
1760		9.765625
1761		5.859375
1762		9.765625
1763		7.812500
1764		11.718750
1765		7.812500
1766		11.718750
1767		7.812500
1768		11.718750
1769		9.765625
1770		11.718750
1771		7.812500
1772		11.718750
1773		9.765625
1774		11.718750
1775		9.765625
1776		11.718750
1777		9.765625
1778		13.671875
1779		9.765625
1780		13.671875
1781		9.765625
1782		13.671875
1783		9.765625
1784		13.671875
1785		11.718750
1786		13.671875
1787		9.765625
1788		15.625000
1789		11.718750
1790		15.625000
1791		11.718750
1792		15.625000
1793		11.718750
1794		15.625000
1795		11.718750
1796		15.625000
1797		13.671875
1798		15.625000
1799		13.671875
1800		17.578125
1801		13.671875
1802		15.625000
1803		13.671875
1804		15.625000
1805		13.671875
1806		17.578125
1807		13.671875
1808		17.578125
1809		13.671875
1810		17.578125
1811		13.671875
1812		17.578125
1813		15.625000
1814		17.578125
1815		15.625000
1816		17.578125
1817		15.625000
1818		17.578125
1819		15.625000
1820		17.578125
1821		13.671875
1822		17.578125
1823		15.625000
1824		17.578125
1825		13.671875
1826		19.531250
1827		15.625000
1828		17.578125
1829		15.625000
1830		19.531250
1831		15.625000
1832		19.531250
1833		15.625000
1834		19.531250
1835		15.625000
1836		19.531250
1837		15.625000
1838		17.578125
1839		15.625000
1840		19.531250
1841		15.625000
1842		19.531250
1843		15.625000
1844		19.531250
1845		15.625000
1846		17.578125
1847		15.625000
1848		17.578125
1849		15.625000
1850		17.578125
1851		13.671875
1852		17.578125
1853		15.625000
1854		17.578125
1855		13.671875
1856		17.578125
1857		13.671875
1858		17.578125
1859		13.671875
1860		17.578125
1861		13.671875
1862		17.578125
1863		13.671875
1864		17.578125
1865		13.671875
1866		17.578125
1867		13.671875
1868		17.578125
1869		13.671875
1870		15.625000
1871		13.671875
1872		15.625000
1873		11.718750
1874		15.625000
1875		11.718750
1876		15.625000
1877		11.718750
1878		15.625000
1879		11.718750
1880		15.625000
1881		11.718750
1882		15.625000
1883		11.718750
1884		15.625000
1885		11.718750
1886		13.671875
1887		11.718750
1888		13.671875
1889		9.765625
1890		13.671875
1891		9.765625
1892		13.671875
1893		9.765625
1894		13.671875
1895		9.765625
1896		11.718750
1897		9.765625
1898		11.718750
1899		7.812500
1900		11.718750
1901		7.812500
1902		11.718750
1903		7.812500
1904		9.765625
1905		7.812500
1906		11.718750
1907		7.812500
1908		9.765625
1909		7.812500
1910		9.765625
1911		5.859375
1912		9.765625
1913		5.859375
1914		9.765625
1915		5.859375
1916		9.765625
1917		5.859375
1918		9.765625
1919		5.859375
1920		7.812500
1921		5.859375
1922		7.812500
1923		3.906250
1924		9.765625
1925		3.906250
1926		7.812500
1927		3.906250
1928		7.812500
1929		3.906250
1930		7.812500
1931		3.906250
1932		7.812500
1933		3.906250
1934		5.859375
1935		3.906250
1936		7.812500
1937		3.906250
1938		5.859375
1939		3.906250
1940		5.859375
1941		1.953125
1942		5.859375
1943		1.953125
1944		5.859375
1945		1.953125
1946		5.859375
1947		1.953125
1948		5.859375
1949		1.953125
1950		5.859375
1951		1.953125
1952		5.859375
1953		1.953125
1954		3.906250
1955		0.000000
1956		5.859375
1957		1.953125
1958		5.859375
1959		1.953125
1960		3.906250
1961		1.953125
1962		5.859375
1963		1.953125
1964		5.859375
1965		1.953125
1966		5.859375
1967		1.953125
1968		5.859375
1969		1.953125
1970		3.906250
1971		1.953125
1972		3.906250
1973		1.953125
1974		5.859375
1975		1.953125
1976		5.859375
1977		1.953125
1978		5.859375
1979		1.953125
1980		5.859375
1981		1.953125
1982		5.859375
1983		3.906250
1984		5.859375
1985		1.953125
1986		5.859375
1987		3.906250
1988		5.859375
1989		3.906250
1990		7.812500
1991		3.906250
1992		7.812500
1993		3.906250
1994		7.812500
1995		3.906250
1996		7.812500
1997		3.906250
1998		7.812500
1999		3.906250
2000		7.812500
2001		3.906250
2002		7.812500
2003		5.859375
2004		7.812500
2005		5.859375
2006		7.812500
2007		5.859375
2008		9.765625
2009		5.859375
2010		9.765625
2011		5.859375
2012		9.765625
2013		7.812500
2014		9.765625
2015		7.812500
2016		11.718750
2017		7.812500
2018		11.718750
2019		7.812500
2020		11.718750
2021		7.812500
2022		11.718750
2023		7.812500
2024		11.718750
2025		9.765625
2026		11.718750
2027		9.765625
2028		13.671875
2029		9.765625
2030		13.671875
2031		9.765625
2032		13.671875
2033		9.765625
2034		13.671875
2035		11.718750
2036		13.671875
2037		11.718750
2038		13.671875
2039		11.718750
2040		15.625000
2041		11.718750
2042		15.625000
2043		11.718750
2044		15.625000
2045		13.671875
2046		15.625000
2047		11.718750
2048		15.625000
2049		13.671875
2050		15.625000
2051		13.671875
2052		15.625000
2053		13.671875
2054		15.625000
2055		13.671875
2056		15.625000
2057		13.671875
2058		17.578125
2059		13.671875
2060		17.578125
2061		13.671875
2062		17.578125
2063		13.671875
2064		17.578125
2065		15.625000
2066		17.578125
2067		15.625000
2068		17.578125
2069		15.625000
2070		19.531250
2071		15.625000
2072		17.578125
2073		15.625000
2074		19.531250
2075		15.625000
2076		17.578125
2077		15.625000
2078		19.531250
2079		15.625000
2080		17.578125
2081		15.625000
2082		19.531250
2083		15.625000
2084		19.531250
2085		15.625000
2086		19.531250
2087		15.625000
2088		17.578125
2089		15.625000
2090		17.578125
2091		13.671875
2092		19.531250
2093		15.625000
2094		19.531250
2095		15.625000
2096		17.578125
2097		15.625000
2098		19.531250
2099		15.625000
2100		17.578125
2101		15.625000
2102		17.578125
2103		15.625000
2104		19.531250
2105		15.625000
2106		17.578125
2107		13.671875
2108		17.578125
2109		13.671875
2110		17.578125
2111		13.671875
2112		17.578125
2113		13.671875
2114		17.578125
2115		13.671875
2116		17.578125
2117		13.671875
2118		17.578125
2119		13.671875
2120		17.578125
2121		13.671875
2122		15.625000
2123		11.718750
2124		15.625000
2125		11.718750
2126		15.625000
2127		11.718750
2128		15.625000
2129		11.718750
2130		15.625000
2131		11.718750
2132		15.625000
2133		11.718750
2134		13.671875
2135		9.765625
2136		13.671875
2137		11.718750
2138		13.671875
2139		11.718750
2140		13.671875
2141		9.765625
2142		13.671875
2143		9.765625
2144		11.718750
2145		9.765625
2146		11.718750
2147		7.812500
2148		13.671875
2149		7.812500
2150		11.718750
2151		7.812500
2152		11.718750
2153		7.812500
2154		11.718750
2155		7.812500
2156		9.765625
2157		5.859375
2158		11.718750
2159		7.812500
2160		9.765625
2161		7.812500
2162		9.765625
2163		5.859375
2164		9.765625
2165		5.859375
2166		9.765625
2167		5.859375
2168		9.765625
2169		5.859375
2170		9.765625
2171		5.859375
2172		7.812500
2173		5.859375
2174		7.812500
2175		3.906250
2176		7.812500
2177		3.906250
2178		7.812500
2179		3.906250
2180		7.812500
2181		3.906250
2182		7.812500
2183		3.906250
2184		5.859375
2185		3.906250
2186		5.859375
2187		1.953125
2188		5.859375
2189		3.906250
2190		5.859375
2191		1.953125
2192		5.859375
2193		1.953125
2194		5.859375
2195		1.953125
2196		5.859375
2197		1.953125
2198		5.859375
2199		1.953125
2200		5.859375
2201		1.953125
2202		3.906250
2203		1.953125
2204		5.859375
2205		1.953125
2206		3.906250
2207		1.953125
2208		3.906250
2209		1.953125
2210		5.859375
2211		1.953125
2212		3.906250
2213		1.953125
2214		3.906250
2215		1.953125
2216		5.859375
2217		1.953125
2218		5.859375
2219		1.953125
2220		5.859375
2221		1.953125
2222		3.906250
2223		1.953125
2224		3.906250
2225		1.953125
2226		5.859375
2227		1.953125
2228		5.859375
2229		1.953125
2230		5.859375
2231		1.953125
2232		5.859375
2233		1.953125
2234		5.859375
2235		3.906250
2236		5.859375
2237		3.906250
2238		5.859375
2239		3.906250
2240		5.859375
2241		1.953125
2242		7.812500
2243		3.906250
2244		7.812500
2245		3.906250
2246		7.812500
2247		3.906250
2248		7.812500
2249		3.906250
2250		7.812500
2251		5.859375
2252		7.812500
2253		5.859375
2254		7.812500
2255		5.859375
2256		7.812500
2257		5.859375
2258		7.812500
2259		5.859375
2260		9.765625
2261		5.859375
2262		9.765625
2263		5.859375
2264		9.765625
2265		7.812500
2266		9.765625
2267		7.812500
2268		9.765625
2269		7.812500
2270		11.718750
2271		7.812500
2272		11.718750
2273		7.812500
2274		11.718750
2275		7.812500
2276		11.718750
2277		9.765625
2278		11.718750
2279		9.765625
2280		13.671875
2281		9.765625
2282		13.671875
2283		9.765625
2284		13.671875
2285		9.765625
2286		13.671875
2287		9.765625
2288		13.671875
2289		11.718750
2290		13.671875
2291		11.718750
2292		13.671875
2293		11.718750
2294		15.625000
2295		11.718750
2296		15.625000
2297		11.718750
2298		15.625000
2299		13.671875
2300		15.625000
2301		13.671875
2302		15.625000
2303		13.671875
2304		17.578125
2305		13.671875
2306		17.578125
2307		13.671875
2308		15.625000
2309		13.671875
2310		17.578125
2311		13.671875
2312		17.578125
2313		15.625000
2314		17.578125
2315		13.671875
2316		17.578125
2317		13.671875
2318		17.578125
2319		13.671875
2320		17.578125
2321		13.671875
2322		19.531250
2323		15.625000
2324		17.578125
2325		13.671875
2326		19.531250
2327		15.625000
2328		17.578125
2329		15.625000
2330		17.578125
2331		15.625000
2332		17.578125
2333		15.625000
2334		19.531250
2335		15.625000
2336		19.531250
2337		13.671875
2338		19.531250
2339		15.625000
2340		17.578125
2341		15.625000
2342		17.578125
2343		15.625000
2344		17.578125
2345		15.625000
2346		17.578125
2347		15.625000
2348		17.578125
2349		15.625000
2350		17.578125
2351		13.671875
2352		17.578125
2353		15.625000
2354		17.578125
2355		13.671875
2356		17.578125
2357		15.625000
2358		17.578125
2359		13.671875
2360		17.578125
2361		13.671875
2362		17.578125
2363		13.671875
2364		17.578125
2365		13.671875
2366		17.578125
2367		11.718750
2368		17.578125
2369		13.671875
2370		17.578125
2371		11.718750
2372		17.578125
2373		13.671875
2374		15.625000
2375		13.671875
2376		15.625000
2377		11.718750
2378		15.625000
2379		11.718750
2380		15.625000
2381		11.718750
2382		15.625000
2383		11.718750
2384		15.625000
2385		11.718750
2386		13.671875
2387		9.765625
2388		13.671875
2389		9.765625
2390		13.671875
2391		9.765625
2392		13.671875
2393		9.765625
2394		13.671875
2395		7.812500
2396		13.671875
2397		7.812500
2398		11.718750
2399		7.812500
2400		11.718750
2401		7.812500
2402		11.718750
2403		7.812500
2404		11.718750
2405		5.859375
2406		11.718750
2407		7.812500
2408		9.765625
2409		5.859375
2410		9.765625
2411		5.859375
2412		11.718750
2413		5.859375
2414		9.765625
2415		5.859375
2416		9.765625
2417		5.859375
2418		9.765625
2419		3.906250
2420		9.765625
2421		3.906250
2422		9.765625
2423		5.859375
2424		7.812500
2425		3.906250
2426		7.812500
2427		3.906250
2428		7.812500
2429		3.906250
2430		7.812500
2431		1.953125
2432		7.812500
2433		1.953125
2434		7.812500
2435		1.953125
2436		7.812500
2437		1.953125
2438		5.859375
2439		1.953125
2440		5.859375
2441		3.906250
2442		5.859375
2443		1.953125
2444		5.859375
2445		1.953125
2446		5.859375
2447		1.953125
2448		5.859375
2449		1.953125
2450		5.859375
2451		1.953125
2452		5.859375
2453		0.000000
2454		5.859375
2455		1.953125
2456		5.859375
2457		1.953125
2458		3.906250
2459		1.953125
2460		3.906250
2461		0.000000
2462		5.859375
2463		0.000000
2464		5.859375
2465		0.000000
2466		5.859375
2467		0.000000
2468		5.859375
2469		1.953125
2470		5.859375
2471		0.000000
2472		5.859375
2473		0.000000
2474		5.859375
2475		1.953125
2476		3.906250
2477		1.953125
2478		5.859375
2479		1.953125
2480		3.906250
2481		1.953125
2482		5.859375
2483		1.953125
2484		5.859375
2485		3.906250
2486		5.859375
2487		3.906250
2488		5.859375
2489		1.953125
2490		5.859375
2491		3.906250
2492		5.859375
2493		3.906250
2494		5.859375
2495		3.906250
2496		5.859375
2497		3.906250
2498		7.812500
2499		3.906250
2500		7.812500
2501		5.859375
2502		7.812500
2503		5.859375
2504		7.812500
2505		5.859375
2506		7.812500
2507		5.859375
2508		7.812500
2509		5.859375
2510		7.812500
2511		5.859375
2512		7.812500
2513		7.812500
2514		9.765625
2515		7.812500
2516		9.765625
2517		7.812500
2518		9.765625
2519		7.812500
2520		9.765625
2521		7.812500
2522		9.765625
2523		7.812500
2524		9.765625
2525		9.765625
2526		11.718750
2527		9.765625
2528		11.718750
2529		9.765625
2530		11.718750
2531		9.765625
2532		11.718750
2533		9.765625
2534		11.718750
2535		9.765625
2536		13.671875
2537		11.718750
2538		13.671875
2539		11.718750
2540		13.671875
2541		11.718750
2542		13.671875
2543		11.718750
2544		13.671875
2545		11.718750
2546		13.671875
2547		11.718750
2548		13.671875
2549		13.671875
2550		15.625000
2551		13.671875
2552		15.625000
2553		13.671875
2554		15.625000
2555		13.671875
2556		15.625000
2557		13.671875
2558		15.625000
2559		13.671875
2560		15.625000
2561		13.671875
2562		17.578125
2563		13.671875
2564		17.578125
2565		13.671875
2566		17.578125
2567		15.625000
2568		17.578125
2569		15.625000
2570		17.578125
2571		15.625000
2572		17.578125
2573		15.625000
2574		17.578125
2575		15.625000
2576		17.578125
2577		13.671875
2578		19.531250
2579		13.671875
2580		19.531250
2581		11.718750
2582		21.484375
2583		13.671875
2584		21.484375
2585		15.625000
2586		17.578125
2587		15.625000
2588		17.578125
2589		15.625000
2590		17.578125
2591		15.625000
2592		17.578125
2593		15.625000
2594		17.578125
2595		11.718750
2596		21.484375
2597		11.718750
2598		21.484375
2599		11.718750
2600		19.531250
2601		15.625000
2602		17.578125
2603		15.625000
2604		17.578125
2605		15.625000
2606		17.578125
2607		13.671875
2608		17.578125
2609		15.625000
2610		17.578125
2611		11.718750
2612		19.531250
2613		11.718750
2614		19.531250
2615		11.718750
2616		19.531250
2617		11.718750
2618		19.531250
2619		13.671875
2620		15.625000
2621		13.671875
2622		15.625000
2623		13.671875
2624		15.625000
2625		13.671875
2626		15.625000
2627		11.718750
2628		13.671875
2629		7.812500
2630		17.578125
2631		7.812500
2632		17.578125
2633		7.812500
2634		17.578125
2635		11.718750
2636		13.671875
2637		11.718750
2638		13.671875
2639		9.765625
2640		13.671875
2641		9.765625
2642		11.718750
2643		9.765625
2644		11.718750
2645		5.859375
2646		15.625000
2647		5.859375
2648		15.625000
2649		5.859375
2650		15.625000
2651		7.812500
2652		11.718750
2653		7.812500
2654		9.765625
2655		7.812500
2656		9.765625
2657		7.812500
2658		9.765625
2659		7.812500
2660		9.765625
2661		3.906250
2662		11.718750
2663		3.906250
2664		11.718750
2665		3.906250
2666		11.718750
2667		3.906250
2668		11.718750
2669		5.859375
2670		7.812500
2671		5.859375
2672		7.812500
2673		5.859375
2674		7.812500
2675		5.859375
2676		7.812500
2677		3.906250
2678		5.859375
2679		0.000000
2680		9.765625
2681		0.000000
2682		9.765625
2683		0.000000
2684		9.765625
2685		3.906250
2686		5.859375
2687		3.906250
2688		5.859375
2689		3.906250
2690		5.859375
2691		3.906250
2692		5.859375
2693		1.953125
2694		5.859375
2695		-1.953125
2696		7.812500
2697		-1.953125
2698		7.812500
2699		-1.953125
2700		7.812500
2701		-1.953125
2702		7.812500
2703		1.953125
2704		3.906250
2705		1.953125
2706		3.906250
2707		1.953125
2708		3.906250
2709		1.953125
2710		3.906250
2711		1.953125
2712		3.906250
2713		-1.953125
2714		7.812500
2715		-1.953125
2716		7.812500
2717		-1.953125
2718		7.812500
2719		1.953125
2720		3.906250
2721		1.953125
2722		3.906250
2723		1.953125
2724		3.906250
2725		1.953125
2726		3.906250
2727		1.953125
2728		3.906250
2729		-1.953125
2730		7.812500
2731		-1.953125
2732		7.812500
2733		0.000000
2734		9.765625
2735		1.953125
2736		5.859375
2737		1.953125
2738		5.859375
2739		3.906250
2740		5.859375
2741		3.906250
2742		5.859375
2743		3.906250
2744		5.859375
2745		1.953125
2746		9.765625
2747		0.000000
2748		9.765625
2749		1.953125
2750		9.765625
2751		0.000000
2752		11.718750
2753		3.906250
2754		7.812500
2755		5.859375
2756		7.812500
2757		5.859375
2758		7.812500
2759		5.859375
2760		7.812500
2761		5.859375
2762		7.812500
2763		5.859375
2764		7.812500
2765		3.906250
2766		11.718750
2767		3.906250
2768		11.718750
2769		7.812500
2770		9.765625
2771		7.812500
2772		9.765625
2773		7.812500
2774		9.765625
2775		7.812500
2776		9.765625
2777		9.765625
2778		11.718750
2779		9.765625
2780		11.718750
2781		7.812500
2782		15.625000
2783		7.812500
2784		15.625000
2785		9.765625
2786		11.718750
2787		9.765625
2788		13.671875
2789		11.718750
2790		13.671875
2791		11.718750
2792		13.671875
2793		11.718750
2794		13.671875
2795		11.718750
2796		13.671875
2797		11.718750
2798		15.625000
2799		11.718750
2800		15.625000
2801		11.718750
2802		15.625000
2803		13.671875
2804		15.625000
2805		13.671875
2806		15.625000
2807		13.671875
2808		15.625000
2809		13.671875
2810		15.625000
2811		13.671875
2812		15.625000
2813		13.671875
2814		15.625000
2815		13.671875
2816		17.578125
2817		13.671875
2818		17.578125
2819		15.625000
2820		17.578125
2821		15.625000
2822		17.578125
2823		15.625000
2824		17.578125
2825		15.625000
2826		17.578125
2827		15.625000
2828		17.578125
2829		15.625000
2830		17.578125
2831		15.625000
2832		17.578125
2833		15.625000
2834		17.578125
2835		15.625000
2836		17.578125
2837		15.625000
2838		17.578125
2839		15.625000
2840		17.578125
2841		15.625000
2842		17.578125
2843		15.625000
2844		17.578125
2845		15.625000
2846		17.578125
2847		15.625000
2848		17.578125
2849		15.625000
2850		17.578125
2851		15.625000
2852		17.578125
2853		15.625000
2854		17.578125
2855		15.625000
2856		17.578125
2857		13.671875
2858		17.578125
2859		13.671875
2860		17.578125
2861		13.671875
2862		17.578125
2863		13.671875
2864		17.578125
2865		13.671875
2866		17.578125
2867		13.671875
2868		15.625000
2869		13.671875
2870		15.625000
2871		11.718750
2872		15.625000
2873		13.671875
2874		15.625000
2875		13.671875
2876		15.625000
2877		11.718750
2878		15.625000
2879		11.718750
2880		13.671875
2881		11.718750
2882		15.625000
2883		11.718750
2884		15.625000
2885		11.718750
2886		13.671875
2887		9.765625
2888		13.671875
2889		9.765625
2890		13.671875
2891		9.765625
2892		11.718750
2893		9.765625
2894		11.718750
2895		9.765625
2896		11.718750
2897		7.812500
2898		11.718750
2899		7.812500
2900		11.718750
2901		7.812500
2902		11.718750
2903		7.812500
2904		11.718750
2905		7.812500
2906		11.718750
2907		7.812500
2908		9.765625
2909		7.812500
2910		9.765625
2911		7.812500
2912		9.765625
2913		5.859375
2914		9.765625
2915		5.859375
2916		9.765625
2917		5.859375
2918		9.765625
2919		5.859375
2920		7.812500
2921		3.906250
2922		7.812500
2923		3.906250
2924		7.812500
2925		5.859375
2926		7.812500
2927		3.906250
2928		7.812500
2929		3.906250
2930		5.859375
2931		3.906250
2932		7.812500
2933		3.906250
2934		7.812500
2935		3.906250
2936		5.859375
2937		1.953125
2938		5.859375
2939		1.953125
2940		5.859375
2941		1.953125
2942		5.859375
2943		1.953125
2944		3.906250
2945		1.953125
2946		5.859375
2947		0.000000
2948		5.859375
2949		1.953125
2950		5.859375
2951		1.953125
2952		3.906250
2953		1.953125
2954		3.906250
2955		1.953125
2956		3.906250
2957		1.953125
2958		3.906250
2959		1.953125
2960		3.906250
2961		1.953125
2962		3.906250
2963		1.953125
2964		3.906250
2965		0.000000
2966		5.859375
2967		0.000000
2968		3.906250
2969		1.953125
2970		3.906250
2971		1.953125
2972		3.906250
2973		1.953125
2974		5.859375
2975		1.953125
2976		3.906250
2977		1.953125
2978		3.906250
2979		1.953125
2980		3.906250
2981		0.000000
2982		5.859375
2983		1.953125
2984		5.859375
2985		1.953125
2986		3.906250
2987		1.953125
2988		5.859375
2989		1.953125
2990		5.859375
2991		3.906250
2992		5.859375
2993		3.906250
2994		5.859375
2995		3.906250
2996		5.859375
2997		3.906250
2998		7.812500
2999		3.906250
3000		7.812500
3001		3.906250
3002		7.812500
3003		3.906250
3004		7.812500
3005		3.906250
3006		7.812500
3007		3.906250
3008		7.812500
3009		5.859375
3010		7.812500
3011		5.859375
3012		7.812500
3013		5.859375
3014		7.812500
3015		5.859375
3016		11.718750
3017		5.859375
3018		9.765625
3019		7.812500
3020		9.765625
3021		7.812500
3022		9.765625
3023		7.812500
3024		11.718750
3025		7.812500
3026		9.765625
3027		7.812500
3028		11.718750
3029		9.765625
3030		11.718750
3031		7.812500
3032		11.718750
3033		9.765625
3034		13.671875
3035		9.765625
3036		11.718750
3037		9.765625
3038		11.718750
3039		9.765625
3040		13.671875
3041		9.765625
3042		13.671875
3043		11.718750
3044		13.671875
3045		11.718750
3046		13.671875
3047		11.718750
3048		13.671875
3049		11.718750
3050		13.671875
3051		11.718750
3052		15.625000
3053		13.671875
3054		15.625000
3055		11.718750
3056		15.625000
3057		13.671875
3058		15.625000
3059		13.671875
3060		15.625000
3061		13.671875
3062		15.625000
3063		13.671875
3064		15.625000
3065		13.671875
3066		15.625000
3067		13.671875
3068		17.578125
3069		13.671875
3070		17.578125
3071		15.625000
3072		17.578125
3073		15.625000
3074		17.578125
3075		15.625000
3076		17.578125
3077		15.625000
3078		17.578125
3079		15.625000
3080		17.578125
3081		15.625000
3082		17.578125
3083		15.625000
3084		17.578125
3085		15.625000
3086		17.578125
3087		15.625000
3088		17.578125
3089		15.625000
3090		17.578125
3091		15.625000
3092		17.578125
3093		15.625000
3094		17.578125
3095		15.625000
3096		17.578125
3097		15.625000
3098		17.578125
3099		15.625000
3100		17.578125
3101		15.625000
3102		17.578125
3103		15.625000
3104		17.578125
3105		15.625000
3106		17.578125
3107		13.671875
3108		17.578125
3109		13.671875
3110		17.578125
3111		13.671875
3112		15.625000
3113		13.671875
3114		15.625000
3115		13.671875
3116		15.625000
3117		13.671875
3118		15.625000
3119		13.671875
3120		15.625000
3121		13.671875
3122		15.625000
3123		13.671875
3124		15.625000
3125		13.671875
3126		15.625000
3127		11.718750
3128		15.625000
3129		11.718750
3130		15.625000
3131		11.718750
3132		13.671875
3133		11.718750
3134		13.671875
3135		11.718750
3136		13.671875
3137		11.718750
3138		13.671875
3139		11.718750
3140		13.671875
3141		9.765625
3142		13.671875
3143		9.765625
3144		11.718750
3145		9.765625
3146		11.718750
3147		9.765625
3148		11.718750
3149		9.765625
3150		11.718750
3151		7.812500
3152		11.718750
3153		7.812500
3154		11.718750
3155		7.812500
3156		9.765625
3157		7.812500
3158		9.765625
3159		7.812500
3160		9.765625
3161		5.859375
3162		9.765625
3163		5.859375
3164		9.765625
3165		5.859375
3166		9.765625
3167		5.859375
3168		9.765625
3169		5.859375
3170		7.812500
3171		5.859375
3172		7.812500
3173		5.859375
3174		7.812500
3175		3.906250
3176		7.812500
3177		3.906250
3178		7.812500
3179		3.906250
3180		5.859375
3181		3.906250
3182		5.859375
3183		1.953125
3184		5.859375
3185		3.906250
3186		5.859375
3187		3.906250
3188		5.859375
3189		3.906250
3190		5.859375
3191		1.953125
3192		5.859375
3193		1.953125
3194		5.859375
3195		1.953125
3196		3.906250
3197		1.953125
3198		3.906250
3199		0.000000
3200		5.859375
3201		0.000000
3202		5.859375
3203		1.953125
3204		3.906250
3205		1.953125
3206		3.906250
3207		1.953125
3208		3.906250
3209		1.953125
3210		3.906250
3211		1.953125
3212		3.906250
3213		1.953125
3214		3.906250
3215		1.953125
3216		3.906250
3217		0.000000
3218		5.859375
3219		0.000000
3220		5.859375
3221		1.953125
3222		3.906250
3223		1.953125
3224		3.906250
3225		1.953125
3226		3.906250
3227		1.953125
3228		3.906250
3229		1.953125
3230		3.906250
3231		1.953125
3232		3.906250
3233		0.000000
3234		5.859375
3235		1.953125
3236		5.859375
3237		1.953125
3238		3.906250
3239		1.953125
3240		5.859375
3241		3.906250
3242		5.859375
3243		3.906250
3244		5.859375
3245		3.906250
3246		5.859375
3247		3.906250
3248		5.859375
3249		3.906250
3250		5.859375
3251		1.953125
3252		7.812500
3253		1.953125
3254		7.812500
3255		3.906250
3256		7.812500
3257		5.859375
3258		7.812500
3259		5.859375
3260		7.812500
3261		5.859375
3262		7.812500
3263		5.859375
3264		7.812500
3265		5.859375
3266		7.812500
3267		3.906250
3268		9.765625
3269		5.859375
3270		9.765625
3271		7.812500
3272		9.765625
3273		7.812500
3274		9.765625
3275		7.812500
3276		9.765625
3277		7.812500
3278		11.718750
3279		9.765625
3280		11.718750
3281		9.765625
3282		11.718750
3283		7.812500
3284		13.671875
3285		7.812500
3286		13.671875
3287		7.812500
3288		13.671875
3289		9.765625
3290		11.718750
3291		11.718750
3292		13.671875
3293		11.718750
3294		13.671875
3295		11.718750
3296		13.671875
3297		11.718750
3298		13.671875
3299		11.718750
3300		13.671875
3301		9.765625
3302		17.578125
3303		9.765625
3304		17.578125
3305		13.671875
3306		15.625000
3307		13.671875
3308		15.625000
3309		13.671875
3310		15.625000
3311		13.671875
3312		15.625000
3313		13.671875
3314		15.625000
3315		13.671875
3316		15.625000
3317		11.718750
3318		17.578125
3319		13.671875
3320		19.531250
3321		13.671875
3322		17.578125
3323		13.671875
3324		17.578125
3325		13.671875
3326		17.578125
3327		15.625000
3328		17.578125
3329		15.625000
3330		17.578125
3331		15.625000
3332		17.578125
3333		15.625000
3334		17.578125
3335		13.671875
3336		19.531250
3337		13.671875
3338		19.531250
3339		15.625000
3340		17.578125
3341		15.625000
3342		17.578125
3343		15.625000
3344		17.578125
3345		15.625000
3346		17.578125
3347		15.625000
3348		17.578125
3349		15.625000
3350		17.578125
3351		13.671875
3352		19.531250
3353		13.671875
3354		19.531250
3355		15.625000
3356		17.578125
3357		15.625000
3358		17.578125
3359		13.671875
3360		17.578125
3361		13.671875
3362		15.625000
3363		13.671875
3364		15.625000
3365		13.671875
3366		15.625000
3367		11.718750
3368		17.578125
3369		11.718750
3370		17.578125
3371		11.718750
3372		17.578125
3373		13.671875
3374		15.625000
3375		13.671875
3376		15.625000
3377		13.671875
3378		15.625000
3379		11.718750
3380		13.671875
3381		11.718750
3382		15.625000
3383		11.718750
3384		13.671875
3385		9.765625
3386		13.671875
3387		11.718750
3388		13.671875
3389		9.765625
3390		13.671875
3391		9.765625
3392		11.718750
3393		9.765625
3394		13.671875
3395		9.765625
3396		11.718750
3397		9.765625
3398		11.718750
3399		9.765625
3400		11.718750
3401		7.812500
3402		11.718750
3403		7.812500
3404		9.765625
3405		7.812500
3406		9.765625
3407		7.812500
3408		9.765625
3409		7.812500
3410		9.765625
3411		7.812500
3412		9.765625
3413		7.812500
3414		9.765625
3415		5.859375
3416		9.765625
3417		5.859375
3418		7.812500
3419		5.859375
3420		9.765625
3421		5.859375
3422		7.812500
3423		5.859375
3424		7.812500
3425		5.859375
3426		7.812500
3427		3.906250
3428		7.812500
3429		3.906250
3430		5.859375
3431		3.906250
3432		5.859375
3433		3.906250
3434		5.859375
3435		3.906250
3436		5.859375
3437		3.906250
3438		5.859375
3439		3.906250
3440		5.859375
3441		1.953125
3442		5.859375
3443		1.953125
3444		3.906250
3445		1.953125
3446		3.906250
3447		1.953125
3448		3.906250
3449		1.953125
3450		3.906250
3451		1.953125
3452		3.906250
3453		1.953125
3454		3.906250
3455		1.953125
3456		3.906250
3457		1.953125
3458		3.906250
3459		1.953125
3460		3.906250
3461		1.953125
3462		3.906250
3463		1.953125
3464		3.906250
3465		1.953125
3466		3.906250
3467		1.953125
3468		3.906250
3469		1.953125
3470		3.906250
3471		1.953125
3472		3.906250
3473		1.953125
3474		3.906250
3475		1.953125
3476		3.906250
3477		1.953125
3478		3.906250
3479		1.953125
3480		3.906250
3481		1.953125
3482		3.906250
3483		1.953125
3484		3.906250
3485		1.953125
3486		3.906250
3487		1.953125
3488		5.859375
3489		1.953125
3490		3.906250
3491		1.953125
3492		3.906250
3493		3.906250
3494		5.859375
3495		3.906250
3496		5.859375
3497		3.906250
3498		5.859375
3499		3.906250
3500		5.859375
3501		3.906250
3502		5.859375
3503		3.906250
3504		5.859375
3505		3.906250
3506		5.859375
3507		3.906250
3508		7.812500
3509		5.859375
3510		7.812500
3511		5.859375
3512		7.812500
3513		5.859375
3514		7.812500
3515		5.859375
3516		7.812500
3517		5.859375
3518		7.812500
3519		5.859375
3520		9.765625
3521		7.812500
3522		9.765625
3523		7.812500
3524		9.765625
3525		7.812500
3526		9.765625
3527		7.812500
3528		9.765625
3529		7.812500
3530		9.765625
3531		7.812500
3532		11.718750
3533		9.765625
3534		11.718750
3535		7.812500
3536		11.718750
3537		9.765625
3538		11.718750
3539		9.765625
3540		11.718750
3541		9.765625
3542		11.718750
3543		11.718750
3544		13.671875
3545		11.718750
3546		13.671875
3547		11.718750
3548		13.671875
3549		11.718750
3550		13.671875
3551		11.718750
3552		13.671875
3553		11.718750
3554		13.671875
3555		11.718750
3556		13.671875
3557		13.671875
3558		15.625000
3559		11.718750
3560		15.625000
3561		13.671875
3562		15.625000
3563		13.671875
3564		15.625000
3565		13.671875
3566		15.625000
3567		13.671875
3568		15.625000
3569		13.671875
3570		15.625000
3571		13.671875
3572		17.578125
3573		13.671875
3574		15.625000
3575		15.625000
3576		17.578125
3577		13.671875
3578		17.578125
3579		15.625000
3580		17.578125
3581		15.625000
3582		17.578125
3583		15.625000
3584		17.578125
3585		15.625000
3586		17.578125
3587		15.625000
3588		17.578125
3589		15.625000
3590		17.578125
3591		15.625000
3592		17.578125
3593		15.625000
3594		17.578125
3595		13.671875
3596		17.578125
3597		15.625000
3598		17.578125
3599		15.625000
3600		17.578125
3601		15.625000
3602		17.578125
3603		15.625000
3604		17.578125
3605		13.671875
3606		17.578125
3607		13.671875
3608		17.578125
3609		13.671875
3610		15.625000
3611		13.671875
3612		17.578125
3613		13.671875
3614		15.625000
3615		13.671875
3616		15.625000
3617		13.671875
3618		15.625000
3619		13.671875
3620		15.625000
3621		13.671875
3622		15.625000
3623		13.671875
3624		15.625000
3625		13.671875
3626		15.625000
3627		11.718750
3628		15.625000
3629		11.718750
3630		13.671875
3631		11.718750
3632		15.625000
3633		11.718750
3634		13.671875
3635		11.718750
3636		13.671875
3637		11.718750
3638		13.671875
3639		11.718750
3640		13.671875
3641		9.765625
3642		13.671875
3643		9.765625
3644		11.718750
3645		9.765625
3646		11.718750
3647		9.765625
3648		11.718750
3649		9.765625
3650		11.718750
3651		9.765625
3652		11.718750
3653		7.812500
3654		11.718750
3655		7.812500
3656		9.765625
3657		7.812500
3658		9.765625
3659		7.812500
3660		9.765625
3661		7.812500
3662		9.765625
3663		7.812500
3664		9.765625
3665		5.859375
3666		9.765625
3667		5.859375
3668		7.812500
3669		5.859375
3670		7.812500
3671		5.859375
3672		7.812500
3673		5.859375
3674		7.812500
3675		5.859375
3676		7.812500
3677		3.906250
3678		7.812500
3679		3.906250
3680		5.859375
3681		3.906250
3682		5.859375
3683		3.906250
3684		5.859375
3685		3.906250
3686		5.859375
3687		3.906250
3688		5.859375
3689		1.953125
3690		5.859375
3691		1.953125
3692		5.859375
3693		1.953125
3694		3.906250
3695		1.953125
3696		3.906250
3697		1.953125
3698		3.906250
3699		1.953125
3700		3.906250
3701		1.953125
3702		3.906250
3703		1.953125
3704		3.906250
3705		1.953125
3706		3.906250
3707		1.953125
3708		3.906250
3709		1.953125
3710		3.906250
3711		1.953125
3712		3.906250
3713		1.953125
3714		3.906250
3715		1.953125
3716		3.906250
3717		1.953125
3718		3.906250
3719		1.953125
3720		3.906250
3721		1.953125
3722		3.906250
3723		1.953125
3724		3.906250
3725		0.000000
3726		3.906250
3727		1.953125
3728		3.906250
3729		1.953125
3730		3.906250
3731		1.953125
3732		3.906250
3733		1.953125
3734		3.906250
3735		1.953125
3736		3.906250
3737		1.953125
3738		3.906250
3739		1.953125
3740		3.906250
3741		1.953125
3742		3.906250
3743		1.953125
3744		3.906250
3745		1.953125
3746		5.859375
3747		3.906250
3748		5.859375
3749		1.953125
3750		5.859375
3751		3.906250
3752		5.859375
3753		3.906250
3754		5.859375
3755		3.906250
3756		7.812500
3757		3.906250
3758		7.812500
3759		3.906250
3760		7.812500
3761		3.906250
3762		7.812500
3763		5.859375
3764		7.812500
3765		5.859375
3766		7.812500
3767		5.859375
3768		7.812500
3769		5.859375
3770		7.812500
3771		5.859375
3772		9.765625
3773		5.859375
3774		9.765625
3775		7.812500
3776		9.765625
3777		7.812500
3778		9.765625
3779		7.812500
3780		9.765625
3781		7.812500
3782		9.765625
3783		7.812500
3784		11.718750
3785		9.765625
3786		11.718750
3787		9.765625
3788		11.718750
3789		9.765625
3790		11.718750
3791		9.765625
3792		11.718750
3793		9.765625
3794		11.718750
3795		9.765625
3796		13.671875
3797		11.718750
3798		13.671875
3799		11.718750
3800		13.671875
3801		11.718750
3802		13.671875
3803		11.718750
3804		13.671875
3805		11.718750
3806		13.671875
3807		11.718750
3808		15.625000
3809		13.671875
3810		15.625000
3811		13.671875
3812		15.625000
3813		13.671875
3814		15.625000
3815		13.671875
3816		15.625000
3817		13.671875
3818		15.625000
3819		13.671875
3820		17.578125
3821		13.671875
3822		15.625000
3823		13.671875
3824		15.625000
3825		13.671875
3826		15.625000
3827		13.671875
3828		15.625000
3829		15.625000
3830		17.578125
3831		13.671875
3832		17.578125
3833		15.625000
3834		17.578125
3835		15.625000
3836		17.578125
3837		15.625000
3838		17.578125
3839		15.625000
3840		17.578125
3841		15.625000
3842		17.578125
3843		15.625000
3844		17.578125
3845		15.625000
3846		17.578125
3847		15.625000
3848		17.578125
3849		15.625000
3850		17.578125
3851		15.625000
3852		17.578125
3853		13.671875
3854		17.578125
3855		13.671875
3856		17.578125
3857		15.625000
3858		17.578125
3859		13.671875
3860		17.578125
3861		13.671875
3862		15.625000
3863		13.671875
3864		15.625000
3865		13.671875
3866		15.625000
3867		13.671875
3868		15.625000
3869		13.671875
3870		15.625000
3871		13.671875
3872		15.625000
3873		13.671875
3874		15.625000
3875		13.671875
3876		15.625000
3877		11.718750
3878		15.625000
3879		11.718750
3880		13.671875
3881		11.718750
3882		13.671875
3883		11.718750
3884		13.671875
3885		11.718750
3886		13.671875
3887		11.718750
3888		13.671875
3889		9.765625
3890		13.671875
3891		9.765625
3892		13.671875
3893		9.765625
3894		11.718750
3895		9.765625
3896		11.718750
3897		9.765625
3898		11.718750
3899		7.812500
3900		11.718750
3901		9.765625
3902		11.718750
3903		7.812500
3904		11.718750
3905		7.812500
3906		9.765625
3907		7.812500
3908		9.765625
3909		7.812500
3910		9.765625
3911		5.859375
3912		9.765625
3913		5.859375
3914		9.765625
3915		5.859375
3916		9.765625
3917		5.859375
3918		7.812500
3919		5.859375
3920		7.812500
3921		5.859375
3922		7.812500
3923		3.906250
3924		7.812500
3925		5.859375
3926		7.812500
3927		3.906250
3928		5.859375
3929		3.906250
3930		5.859375
3931		3.906250
3932		5.859375
3933		3.906250
3934		5.859375
3935		1.953125
3936		5.859375
3937		3.906250
3938		5.859375
3939		3.906250
3940		5.859375
3941		3.906250
3942		5.859375
3943		1.953125
3944		3.906250
3945		1.953125
3946		3.906250
3947		1.953125
3948		5.859375
3949		1.953125
3950		3.906250
3951		1.953125
3952		3.906250
3953		1.953125
3954		3.906250
3955		1.953125
3956		3.906250
3957		1.953125
3958		3.906250
3959		1.953125
3960		3.906250
3961		1.953125
3962		3.906250
3963		1.953125
3964		3.906250
3965		1.953125
3966		3.906250
3967		1.953125
3968		3.906250
3969		0.000000
3970		3.906250
3971		1.953125
3972		3.906250
3973		1.953125
3974		3.906250
3975		1.953125
3976		3.906250
3977		1.953125
3978		3.906250
3979		1.953125
3980		3.906250
3981		0.000000
3982		3.906250
3983		1.953125
3984		3.906250
3985		1.953125
3986		3.906250
3987		0.000000
3988		5.859375
3989		1.953125
3990		3.906250
3991		1.953125
3992		3.906250
3993		1.953125
3994		3.906250
3995		1.953125
3996		3.906250
3997		3.906250
3998		5.859375
3999		3.906250
4000		5.859375
4001		3.906250
4002		5.859375
4003		1.953125
4004		5.859375
4005		3.906250
4006		5.859375
4007		3.906250
4008		5.859375
4009		3.906250
4010		5.859375
4011		5.859375
4012		7.812500
4013		5.859375
4014		7.812500
4015		5.859375
4016		7.812500
4017		5.859375
4018		7.812500
4019		5.859375
4020		7.812500
4021		5.859375
4022		7.812500
4023		5.859375
4024		9.765625
4025		7.812500
4026		9.765625
4027		5.859375
4028		9.765625
4029		7.812500
4030		9.765625
4031		7.812500
4032		9.765625
4033		7.812500
4034		11.718750
4035		9.765625
4036		11.718750
4037		9.765625
4038		11.718750
4039		9.765625
4040		11.718750
4041		9.765625
4042		11.718750
4043		9.765625
4044		11.718750
4045		9.765625
4046		11.718750
4047		11.718750
4048		13.671875
4049		11.718750
4050		13.671875
4051		11.718750
4052		13.671875
4053		11.718750
4054		13.671875
4055		11.718750
4056		13.671875
4057		11.718750
4058		15.625000
4059		13.671875
4060		15.625000
4061		11.718750
4062		15.625000
4063		13.671875
4064		15.625000
4065		13.671875
4066		15.625000
4067		13.671875
4068		15.625000
4069		13.671875
4070		15.625000
4071		13.671875
4072		15.625000
4073		13.671875
4074		17.578125
4075		13.671875
4076		15.625000
4077		13.671875
4078		15.625000
4079		13.671875
4080		17.578125
4081		15.625000
4082		17.578125
4083		13.671875
4084		17.578125
4085		13.671875
4086		17.578125
4087		15.625000
4088		17.578125
4089		15.625000
4090		17.578125
4091		15.625000
4092		17.578125
4093		15.625000
4094		17.578125
4095		13.671875
4096		17.578125
4097		15.625000
4098		17.578125
4099		15.625000
4100		17.578125
4101		15.625000
4102		17.578125
4103		15.625000
4104		17.578125
4105		13.671875
4106		17.578125
4107		13.671875
4108		17.578125
4109		13.671875
4110		15.625000
4111		13.671875
4112		15.625000
4113		13.671875
4114		15.625000
4115		13.671875
4116		15.625000
4117		13.671875
4118		15.625000
4119		13.671875
4120		15.625000
4121		13.671875
4122		15.625000
4123		13.671875
4124		15.625000
4125		13.671875
4126		15.625000
4127		11.718750
4128		15.625000
4129		11.718750
4130		15.625000
4131		11.718750
4132		15.625000
4133		11.718750
4134		13.671875
4135		11.718750
4136		13.671875
4137		11.718750
4138		13.671875
4139		11.718750
4140		13.671875
4141		9.765625
4142		13.671875
4143		9.765625
4144		11.718750
4145		9.765625
4146		11.718750
4147		9.765625
4148		11.718750
4149		9.765625
4150		11.718750
4151		9.765625
4152		11.718750
4153		7.812500
4154		11.718750
4155		7.812500
4156		9.765625
4157		7.812500
4158		9.765625
4159		7.812500
4160		9.765625
4161		7.812500
4162		9.765625
4163		5.859375
4164		9.765625
4165		5.859375
4166		9.765625
4167		5.859375
4168		7.812500
4169		5.859375
4170		7.812500
4171		5.859375
4172		7.812500
4173		5.859375
4174		7.812500
4175		3.906250
4176		7.812500
4177		3.906250
4178		7.812500
4179		3.906250
4180		5.859375
4181		3.906250
4182		5.859375
4183		3.906250
4184		5.859375
4185		3.906250
4186		5.859375
4187		1.953125
4188		5.859375
4189		3.906250
4190		5.859375
4191		1.953125
4192		5.859375
4193		1.953125
4194		5.859375
4195		1.953125
4196		3.906250
4197		1.953125
4198		3.906250
4199		1.953125
4200		3.906250
4201		1.953125
4202		3.906250
4203		1.953125
4204		3.906250
4205		1.953125
4206		3.906250
4207		1.953125
4208		3.906250
4209		0.000000
4210		3.906250
4211		1.953125
4212		3.906250
4213		1.953125
4214		3.906250
4215		1.953125
4216		3.906250
4217		1.953125
4218		3.906250
4219		0.000000
4220		3.906250
4221		1.953125
4222		3.906250
4223		1.953125
4224		3.906250
4225		0.000000
4226		3.906250
4227		1.953125
4228		3.906250
4229		0.000000
4230		5.859375
4231		1.953125
4232		3.906250
4233		0.000000
4234		5.859375
4235		1.953125
4236		3.906250
4237		1.953125
4238		3.906250
4239		1.953125
4240		3.906250
4241		1.953125
4242		3.906250
4243		1.953125
4244		3.906250
4245		0.000000
4246		5.859375
4247		1.953125
4248		5.859375
4249		1.953125
4250		5.859375
4251		1.953125
4252		7.812500
4253		1.953125
4254		7.812500
4255		3.906250
4256		5.859375
4257		3.906250
4258		5.859375
4259		3.906250
4260		7.812500
4261		3.906250
4262		5.859375
4263		1.953125
4264		7.812500
4265		3.906250
4266		7.812500
4267		1.953125
4268		7.812500
4269		5.859375
4270		7.812500
4271		3.906250
4272		9.765625
4273		5.859375
4274		7.812500
4275		5.859375
4276		9.765625
4277		5.859375
4278		9.765625
4279		5.859375
4280		11.718750
4281		5.859375
4282		11.718750
4283		7.812500
4284		11.718750
4285		5.859375
4286		13.671875
4287		5.859375
4288		13.671875
4289		9.765625
4290		11.718750
4291		9.765625
4292		11.718750
4293		9.765625
4294		13.671875
4295		7.812500
4296		15.625000
4297		7.812500
4298		13.671875
4299		9.765625
4300		13.671875
4301		9.765625
4302		15.625000
4303		11.718750
4304		13.671875
4305		9.765625
4306		17.578125
4307		11.718750
4308		15.625000
4309		11.718750
4310		15.625000
4311		9.765625
4312		17.578125
4313		11.718750
4314		15.625000
4315		11.718750
4316		15.625000
4317		9.765625
4318		17.578125
4319		11.718750
4320		19.531250
4321		9.765625
4322		17.578125
4323		13.671875
4324		15.625000
4325		13.671875
4326		15.625000
4327		13.671875
4328		17.578125
4329		11.718750
4330		19.531250
4331		13.671875
4332		17.578125
4333		13.671875
4334		17.578125
4335		11.718750
4336		19.531250
4337		9.765625
4338		21.484375
4339		15.625000
4340		17.578125
4341		13.671875
4342		17.578125
4343		13.671875
4344		19.531250
4345		11.718750
4346		19.531250
4347		11.718750
4348		17.578125
4349		15.625000
4350		17.578125
4351		11.718750
4352		19.531250
4353		11.718750
4354		21.484375
4355		11.718750
4356		21.484375
4357		13.671875
4358		17.578125
4359		13.671875
4360		17.578125
4361		11.718750
4362		19.531250
4363		11.718750
4364		19.531250
4365		11.718750
4366		17.578125
4367		11.718750
4368		17.578125
4369		9.765625
4370		19.531250
4371		9.765625
4372		19.531250
4373		13.671875
4374		15.625000
4375		13.671875
4376		15.625000
4377		11.718750
4378		15.625000
4379		9.765625
4380		17.578125
4381		11.718750
4382		15.625000
4383		11.718750
4384		13.671875
4385		7.812500
4386		17.578125
4387		7.812500
4388		17.578125
4389		9.765625
4390		15.625000
4391		9.765625
4392		13.671875
4393		9.765625
4394		13.671875
4395		5.859375
4396		15.625000
4397		7.812500
4398		13.671875
4399		9.765625
4400		11.718750
4401		5.859375
4402		13.671875
4403		5.859375
4404		15.625000
4405		3.906250
4406		13.671875
4407		7.812500
4408		11.718750
4409		7.812500
4410		9.765625
4411		5.859375
4412		11.718750
4413		3.906250
4414		11.718750
4415		5.859375
4416		9.765625
4417		5.859375
4418		9.765625
4419		1.953125
4420		11.718750
4421		3.906250
4422		9.765625
4423		5.859375
4424		7.812500
4425		5.859375
4426		7.812500
4427		3.906250
4428		7.812500
4429		1.953125
4430		9.765625
4431		1.953125
4432		7.812500
4433		3.906250
4434		5.859375
4435		1.953125
4436		9.765625
4437		0.000000
4438		9.765625
4439		0.000000
4440		7.812500
4441		1.953125
4442		3.906250
4443		1.953125
4444		3.906250
4445		0.000000
4446		7.812500
4447		-1.953125
4448		7.812500
4449		1.953125
4450		5.859375
4451		0.000000
4452		3.906250
4453		-1.953125
4454		7.812500
4455		0.000000
4456		3.906250
4457		1.953125
4458		3.906250
4459		0.000000
4460		3.906250
4461		0.000000
4462		3.906250
4463		-1.953125
4464		5.859375
4465		-1.953125
4466		3.906250
4467		0.000000
4468		3.906250
4469		-1.953125
4470		5.859375
4471		-1.953125
4472		5.859375
4473		-1.953125
4474		5.859375
4475		0.000000
4476		3.906250
4477		0.000000
4478		3.906250
4479		0.000000
4480		3.906250
4481		-1.953125
4482		5.859375
4483		0.000000
4484		3.906250
4485		0.000000
4486		5.859375
4487		-1.953125
4488		7.812500
4489		-1.953125
4490		5.859375
4491		1.953125
4492		3.906250
4493		1.953125
4494		3.906250
4495		0.000000
4496		5.859375
4497		0.000000
4498		5.859375
4499		1.953125
4500		5.859375
4501		1.953125
4502		5.859375
4503		0.000000
4504		5.859375
4505		0.000000
4506		7.812500
4507		3.906250
4508		5.859375
4509		3.906250
4510		5.859375
4511		3.906250
4512		5.859375
4513		3.906250
4514		5.859375
4515		3.906250
4516		9.765625
4517		5.859375
4518		7.812500
4519		3.906250
4520		9.765625
4521		5.859375
4522		7.812500
4523		5.859375
4524		7.812500
4525		5.859375
4526		9.765625
4527		5.859375
4528		9.765625
4529		7.812500
4530		9.765625
4531		5.859375
4532		11.718750
4533		7.812500
4534		9.765625
4535		7.812500
4536		11.718750
4537		5.859375
4538		11.718750
4539		9.765625
4540		11.718750
4541		9.765625
4542		11.718750
4543		9.765625
4544		11.718750
4545		9.765625
4546		13.671875
4547		9.765625
4548		13.671875
4549		9.765625
4550		13.671875
4551		9.765625
4552		13.671875
4553		11.718750
4554		13.671875
4555		11.718750
4556		13.671875
4557		11.718750
4558		13.671875
4559		11.718750
4560		13.671875
4561		11.718750
4562		15.625000
4563		11.718750
4564		13.671875
4565		13.671875
4566		15.625000
4567		11.718750
4568		15.625000
4569		13.671875
4570		15.625000
4571		13.671875
4572		15.625000
4573		13.671875
4574		15.625000
4575		13.671875
4576		15.625000
4577		13.671875
4578		15.625000
4579		13.671875
4580		17.578125
4581		13.671875
4582		17.578125
4583		13.671875
4584		17.578125
4585		11.718750
4586		17.578125
4587		13.671875
4588		17.578125
4589		13.671875
4590		17.578125
4591		13.671875
4592		17.578125
4593		13.671875
4594		17.578125
4595		13.671875
4596		17.578125
4597		13.671875
4598		17.578125
4599		13.671875
4600		17.578125
4601		11.718750
4602		17.578125
4603		13.671875
4604		17.578125
4605		13.671875
4606		17.578125
4607		13.671875
4608		17.578125
4609		13.671875
4610		15.625000
4611		13.671875
4612		17.578125
4613		11.718750
4614		17.578125
4615		11.718750
4616		17.578125
4617		11.718750
4618		17.578125
4619		11.718750
4620		17.578125
4621		11.718750
4622		17.578125
4623		11.718750
4624		15.625000
4625		11.718750
4626		15.625000
4627		11.718750
4628		13.671875
4629		9.765625
4630		15.625000
4631		11.718750
4632		15.625000
4633		9.765625
4634		15.625000
4635		9.765625
4636		15.625000
4637		9.765625
4638		15.625000
4639		9.765625
4640		13.671875
4641		9.765625
4642		13.671875
4643		9.765625
4644		11.718750
4645		9.765625
4646		11.718750
4647		7.812500
4648		13.671875
4649		7.812500
4650		11.718750
4651		5.859375
4652		13.671875
4653		7.812500
4654		11.718750
4655		7.812500
4656		11.718750
4657		7.812500
4658		11.718750
4659		7.812500
4660		9.765625
4661		7.812500
4662		9.765625
4663		5.859375
4664		9.765625
4665		5.859375
4666		9.765625
4667		5.859375
4668		9.765625
4669		3.906250
4670		9.765625
4671		5.859375
4672		7.812500
4673		3.906250
4674		7.812500
4675		3.906250
4676		7.812500
4677		3.906250
4678		7.812500
4679		3.906250
4680		7.812500
4681		1.953125
4682		5.859375
4683		1.953125
4684		7.812500
4685		1.953125
4686		7.812500
4687		1.953125
4688		5.859375
4689		1.953125
4690		5.859375
4691		1.953125
4692		5.859375
4693		1.953125
4694		3.906250
4695		1.953125
4696		3.906250
4697		0.000000
4698		5.859375
4699		1.953125
4700		3.906250
4701		0.000000
4702		5.859375
4703		-1.953125
4704		5.859375
4705		0.000000
4706		3.906250
4707		0.000000
4708		3.906250
4709		0.000000
4710		3.906250
4711		0.000000
4712		3.906250
4713		0.000000
4714		3.906250
4715		0.000000
4716		3.906250
4717		0.000000
4718		3.906250
4719		-1.953125
4720		5.859375
4721		0.000000
4722		3.906250
4723		0.000000
4724		3.906250
4725		-1.953125
4726		3.906250
4727		0.000000
4728		1.953125
4729		0.000000
4730		3.906250
4731		0.000000
4732		3.906250
4733		0.000000
4734		3.906250
4735		-1.953125
4736		5.859375
4737		0.000000
4738		3.906250
4739		0.000000
4740		3.906250
4741		0.000000
4742		3.906250
4743		1.953125
4744		3.906250
4745		1.953125
4746		3.906250
4747		1.953125
4748		5.859375
4749		1.953125
4750		3.906250
4751		1.953125
4752		5.859375
4753		1.953125
4754		5.859375
4755		1.953125
4756		5.859375
4757		1.953125
4758		5.859375
4759		1.953125
4760		5.859375
4761		3.906250
4762		5.859375
4763		3.906250
4764		7.812500
4765		3.906250
4766		7.812500
4767		3.906250
4768		7.812500
4769		3.906250
4770		7.812500
4771		3.906250
4772		7.812500
4773		3.906250
4774		7.812500
4775		3.906250
4776		7.812500
4777		5.859375
4778		7.812500
4779		5.859375
4780		9.765625
4781		5.859375
4782		9.765625
4783		7.812500
4784		9.765625
4785		7.812500
4786		9.765625
4787		5.859375
4788		11.718750
4789		7.812500
4790		11.718750
4791		7.812500
4792		11.718750
4793		7.812500
4794		11.718750
4795		9.765625
4796		11.718750
4797		7.812500
4798		11.718750
4799		9.765625
4800		13.671875
4801		9.765625
4802		13.671875
4803		9.765625
4804		13.671875
4805		9.765625
4806		13.671875
4807		11.718750
4808		13.671875
4809		11.718750
4810		13.671875
4811		11.718750
4812		13.671875
4813		11.718750
4814		15.625000
4815		11.718750
4816		15.625000
4817		11.718750
4818		15.625000
4819		11.718750
4820		15.625000
4821		13.671875
4822		15.625000
4823		11.718750
4824		15.625000
4825		13.671875
4826		17.578125
4827		13.671875
4828		15.625000
4829		13.671875
4830		15.625000
4831		11.718750
4832		17.578125
4833		13.671875
4834		17.578125
4835		13.671875
4836		17.578125
4837		13.671875
4838		15.625000
4839		13.671875
4840		17.578125
4841		13.671875
4842		17.578125
4843		13.671875
4844		17.578125
4845		13.671875
4846		17.578125
4847		13.671875
4848		17.578125
4849		13.671875
4850		17.578125
4851		13.671875
4852		17.578125
4853		13.671875
4854		15.625000
4855		13.671875
4856		17.578125
4857		13.671875
4858		17.578125
4859		11.718750
4860		17.578125
4861		13.671875
4862		15.625000
4863		13.671875
4864		15.625000
4865		11.718750
4866		17.578125
4867		13.671875
4868		15.625000
4869		13.671875
4870		15.625000
4871		11.718750
4872		15.625000
4873		11.718750
4874		15.625000
4875		11.718750
4876		15.625000
4877		11.718750
4878		15.625000
4879		11.718750
4880		15.625000
4881		11.718750
4882		15.625000
4883		11.718750
4884		13.671875
4885		11.718750
4886		15.625000
4887		11.718750
4888		13.671875
4889		9.765625
4890		13.671875
4891		9.765625
4892		13.671875
4893		9.765625
4894		13.671875
4895		9.765625
4896		11.718750
4897		7.812500
4898		11.718750
4899		9.765625
4900		11.718750
4901		7.812500
4902		11.718750
4903		7.812500
4904		11.718750
4905		7.812500
4906		11.718750
4907		7.812500
4908		11.718750
4909		5.859375
4910		11.718750
4911		7.812500
4912		9.765625
4913		7.812500
4914		9.765625
4915		5.859375
4916		9.765625
4917		5.859375
4918		9.765625
4919		5.859375
4920		9.765625
4921		3.906250
4922		9.765625
4923		3.906250
4924		7.812500
4925		5.859375
4926		7.812500
4927		3.906250
4928		7.812500
4929		3.906250
4930		5.859375
4931		3.906250
4932		7.812500
4933		3.906250
4934		5.859375
4935		3.906250
4936		5.859375
4937		3.906250
4938		5.859375
4939		1.953125
4940		5.859375
4941		1.953125
4942		5.859375
4943		1.953125
4944		5.859375
4945		1.953125
4946		3.906250
4947		1.953125
4948		3.906250
4949		0.000000
4950		5.859375
4951		1.953125
4952		3.906250
4953		0.000000
4954		3.906250
4955		0.000000
4956		3.906250
4957		1.953125
4958		3.906250
4959		0.000000
4960		3.906250
4961		0.000000
4962		3.906250
4963		0.000000
4964		3.906250
4965		0.000000
4966		3.906250
4967		0.000000
4968		3.906250
4969		0.000000
4970		3.906250
4971		0.000000
4972		3.906250
4973		0.000000
4974		3.906250
4975		0.000000
4976		3.906250
4977		0.000000
4978		3.906250
4979		0.000000
4980		3.906250
4981		0.000000
4982		3.906250
4983		0.000000
4984		3.906250
4985		0.000000
4986		3.906250
4987		0.000000
4988		3.906250
4989		0.000000
4990		3.906250
4991		0.000000
4992		3.906250
4993		0.000000
4994		3.906250
4995		1.953125
4996		3.906250
4997		1.953125
4998		3.906250
4999		1.953125
5000		5.859375
5001		1.953125
5002		5.859375
5003		1.953125
5004		5.859375
5005		1.953125
5006		5.859375
5007		1.953125
5008		5.859375
5009		1.953125
5010		5.859375
5011		3.906250
5012		5.859375
5013		3.906250
5014		5.859375
5015		3.906250
5016		7.812500
5017		3.906250
5018		7.812500
5019		3.906250
5020		7.812500
5021		5.859375
5022		7.812500
5023		3.906250
5024		7.812500
5025		5.859375
5026		7.812500
5027		5.859375
5028		9.765625
5029		5.859375
5030		9.765625
5031		7.812500
5032		9.765625
5033		5.859375
5034		9.765625
5035		7.812500
5036		9.765625
5037		7.812500
5038		11.718750
5039		7.812500
5040		11.718750
5041		7.812500
5042		11.718750
5043		7.812500
5044		11.718750
5045		7.812500
5046		11.718750
5047		9.765625
5048		11.718750
5049		9.765625
5050		13.671875
5051		9.765625
5052		13.671875
5053		9.765625
5054		13.671875
5055		11.718750
5056		13.671875
5057		9.765625
5058		13.671875
5059		9.765625
5060		15.625000
5061		11.718750
5062		15.625000
5063		11.718750
5064		13.671875
5065		11.718750
5066		15.625000
5067		11.718750
5068		15.625000
5069		11.718750
5070		15.625000
5071		11.718750
5072		15.625000
5073		11.718750
5074		15.625000
5075		11.718750
5076		15.625000
5077		13.671875
5078		17.578125
5079		13.671875
5080		15.625000
5081		13.671875
5082		15.625000
5083		13.671875
5084		17.578125
5085		13.671875
5086		17.578125
5087		13.671875
5088		17.578125
5089		13.671875
5090		17.578125
5091		13.671875
5092		17.578125
5093		13.671875
5094		17.578125
5095		13.671875
5096		17.578125
5097		13.671875
5098		17.578125
5099		13.671875
5100		17.578125
5101		13.671875
5102		17.578125
5103		13.671875
5104		17.578125
5105		13.671875
5106		17.578125
5107		13.671875
5108		17.578125
5109		13.671875
5110		17.578125
5111		13.671875
5112		17.578125
5113		13.671875
5114		15.625000
5115		13.671875
5116		15.625000
5117		11.718750
5118		17.578125
5119		11.718750
5120		17.578125
5121		13.671875
5122		15.625000
5123		11.718750
5124		15.625000
5125		11.718750
5126		15.625000
5127		11.718750
5128		15.625000
5129		11.718750
5130		15.625000
5131		11.718750
5132		15.625000
5133		11.718750
5134		13.671875
5135		11.718750
5136		15.625000
5137		11.718750
5138		13.671875
5139		11.718750
5140		13.671875
5141		9.765625
5142		13.671875
5143		9.765625
5144		13.671875
5145		9.765625
5146		13.671875
5147		9.765625
5148		11.718750
5149		7.812500
5150		11.718750
5151		9.765625
5152		11.718750
5153		7.812500
5154		11.718750
5155		7.812500
5156		11.718750
5157		7.812500
5158		11.718750
5159		7.812500
5160		9.765625
5161		7.812500
5162		9.765625
5163		7.812500
5164		9.765625
5165		7.812500
5166		9.765625
5167		5.859375
5168		9.765625
5169		5.859375
5170		9.765625
5171		5.859375
5172		9.765625
5173		5.859375
5174		7.812500
5175		3.906250
5176		7.812500
5177		3.906250
5178		7.812500
5179		3.906250
5180		7.812500
5181		3.906250
5182		5.859375
5183		3.906250
5184		7.812500
5185		3.906250
5186		7.812500
5187		1.953125
5188		5.859375
5189		1.953125
5190		5.859375
5191		1.953125
5192		5.859375
5193		1.953125
5194		5.859375
5195		0.000000
5196		5.859375
5197		1.953125
5198		3.906250
5199		1.953125
5200		3.906250
5201		1.953125
5202		5.859375
5203		1.953125
5204		3.906250
5205		0.000000
5206		3.906250
5207		0.000000
5208		3.906250
5209		0.000000
5210		3.906250
5211		0.000000
5212		3.906250
5213		0.000000
5214		3.906250
5215		0.000000
5216		3.906250
5217		0.000000
5218		3.906250
5219		0.000000
5220		3.906250
5221		0.000000
5222		3.906250
5223		0.000000
5224		3.906250
5225		0.000000
5226		3.906250
5227		0.000000
5228		3.906250
5229		0.000000
5230		3.906250
5231		0.000000
5232		1.953125
5233		1.953125
5234		3.906250
5235		0.000000
5236		3.906250
5237		0.000000
5238		3.906250
5239		0.000000
5240		3.906250
5241		0.000000
5242		3.906250
5243		0.000000
5244		3.906250
5245		0.000000
5246		3.906250
5247		1.953125
5248		3.906250
5249		1.953125
5250		3.906250
5251		1.953125
5252		5.859375
5253		1.953125
5254		5.859375
5255		1.953125
5256		5.859375
5257		1.953125
5258		5.859375
5259		1.953125
5260		5.859375
5261		3.906250
5262		5.859375
5263		3.906250
5264		5.859375
5265		3.906250
5266		5.859375
5267		3.906250
5268		7.812500
5269		3.906250
5270		7.812500
5271		3.906250
5272		7.812500
5273		3.906250
5274		7.812500
5275		5.859375
5276		7.812500
5277		5.859375
5278		7.812500
5279		5.859375
5280		9.765625
5281		5.859375
5282		9.765625
5283		7.812500
5284		9.765625
5285		5.859375
5286		9.765625
5287		7.812500
5288		9.765625
5289		7.812500
5290		11.718750
5291		7.812500
5292		11.718750
5293		7.812500
5294		11.718750
5295		7.812500
5296		11.718750
5297		9.765625
5298		13.671875
5299		9.765625
5300		11.718750
5301		9.765625
5302		13.671875
5303		9.765625
5304		13.671875
5305		9.765625
5306		13.671875
5307		11.718750
5308		13.671875
5309		11.718750
5310		13.671875
5311		11.718750
5312		15.625000
5313		11.718750
5314		13.671875
5315		11.718750
5316		13.671875
5317		11.718750
5318		15.625000
5319		11.718750
5320		15.625000
5321		11.718750
5322		15.625000
5323		13.671875
5324		15.625000
5325		11.718750
5326		15.625000
5327		13.671875
5328		15.625000
5329		11.718750
5330		17.578125
5331		13.671875
5332		15.625000
5333		13.671875
5334		15.625000
5335		13.671875
5336		17.578125
5337		13.671875
5338		17.578125
5339		13.671875
5340		17.578125
5341		13.671875
5342		17.578125
5343		13.671875
5344		17.578125
5345		13.671875
5346		17.578125
5347		13.671875
5348		17.578125
5349		13.671875
5350		15.625000
5351		13.671875
5352		17.578125
5353		13.671875
5354		17.578125
5355		13.671875
5356		17.578125
5357		13.671875
5358		17.578125
5359		13.671875
5360		17.578125
5361		13.671875
5362		17.578125
5363		13.671875
5364		17.578125
5365		13.671875
5366		15.625000
5367		13.671875
5368		15.625000
5369		11.718750
5370		17.578125
5371		13.671875
5372		15.625000
5373		13.671875
5374		15.625000
5375		13.671875
5376		15.625000
5377		11.718750
5378		15.625000
5379		11.718750
5380		15.625000
5381		11.718750
5382		15.625000
5383		11.718750
5384		13.671875
5385		11.718750
5386		15.625000
5387		11.718750
5388		13.671875
5389		9.765625
5390		15.625000
5391		11.718750
5392		13.671875
5393		9.765625
5394		13.671875
5395		9.765625
5396		13.671875
5397		9.765625
5398		13.671875
5399		9.765625
5400		11.718750
5401		9.765625
5402		11.718750
5403		7.812500
5404		11.718750
5405		7.812500
5406		11.718750
5407		7.812500
5408		11.718750
5409		7.812500
5410		11.718750
5411		7.812500
5412		9.765625
5413		5.859375
5414		9.765625
5415		5.859375
5416		9.765625
5417		5.859375
5418		9.765625
5419		5.859375
5420		7.812500
5421		5.859375
5422		7.812500
5423		5.859375
5424		7.812500
5425		5.859375
5426		7.812500
5427		5.859375
5428		7.812500
5429		3.906250
5430		7.812500
5431		3.906250
5432		7.812500
5433		3.906250
5434		5.859375
5435		1.953125
5436		5.859375
5437		1.953125
5438		5.859375
5439		1.953125
5440		5.859375
5441		1.953125
5442		5.859375
5443		1.953125
5444		5.859375
5445		1.953125
5446		5.859375
5447		1.953125
5448		5.859375
5449		1.953125
5450		3.906250
5451		1.953125
5452		3.906250
5453		0.000000
5454		3.906250
5455		0.000000
5456		3.906250
5457		1.953125
5458		3.906250
5459		0.000000
5460		3.906250
5461		0.000000
5462		3.906250
5463		0.000000
5464		3.906250
5465		0.000000
5466		3.906250
5467		0.000000
5468		3.906250
5469		0.000000
5470		3.906250
5471		0.000000
5472		3.906250
5473		0.000000
5474		3.906250
5475		0.000000
5476		3.906250
5477		0.000000
5478		3.906250
5479		0.000000
5480		3.906250
5481		0.000000
5482		3.906250
5483		0.000000
5484		3.906250
5485		0.000000
5486		3.906250
5487		0.000000
5488		3.906250
5489		0.000000
5490		3.906250
5491		1.953125
5492		3.906250
5493		0.000000
5494		3.906250
5495		0.000000
5496		3.906250
5497		0.000000
5498		3.906250
5499		1.953125
5500		5.859375
5501		1.953125
5502		3.906250
5503		0.000000
5504		5.859375
5505		1.953125
5506		5.859375
5507		1.953125
5508		5.859375
5509		1.953125
5510		5.859375
5511		1.953125
5512		5.859375
5513		3.906250
5514		7.812500
5515		3.906250
5516		5.859375
5517		3.906250
5518		5.859375
5519		3.906250
5520		7.812500
5521		3.906250
5522		7.812500
5523		3.906250
5524		7.812500
5525		5.859375
5526		7.812500
5527		5.859375
5528		7.812500
5529		5.859375
5530		9.765625
5531		5.859375
5532		9.765625
5533		7.812500
5534		9.765625
5535		7.812500
5536		9.765625
5537		7.812500
5538		11.718750
5539		7.812500
5540		9.765625
5541		7.812500
5542		11.718750
5543		7.812500
5544		11.718750
5545		9.765625
5546		11.718750
5547		7.812500
5548		11.718750
5549		7.812500
5550		11.718750
5551		9.765625
5552		11.718750
5553		9.765625
5554		13.671875
5555		9.765625
5556		13.671875
5557		9.765625
5558		13.671875
5559		9.765625
5560		13.671875
5561		11.718750
5562		15.625000
5563		11.718750
5564		13.671875
5565		11.718750
5566		15.625000
5567		11.718750
5568		15.625000
5569		13.671875
5570		15.625000
5571		11.718750
5572		15.625000
5573		11.718750
5574		15.625000
5575		11.718750
5576		15.625000
5577		13.671875
5578		15.625000
5579		13.671875
5580		15.625000
5581		13.671875
5582		15.625000
5583		13.671875
5584		17.578125
5585		13.671875
5586		15.625000
5587		13.671875
5588		17.578125
5589		13.671875
5590		17.578125
5591		13.671875
5592		17.578125
5593		13.671875
5594		17.578125
5595		13.671875
5596		17.578125
5597		13.671875
5598		17.578125
5599		13.671875
5600		17.578125
5601		13.671875
5602		17.578125
5603		13.671875
5604		17.578125
5605		13.671875
5606		17.578125
5607		13.671875
5608		17.578125
5609		13.671875
5610		17.578125
5611		13.671875
5612		17.578125
5613		13.671875
5614		17.578125
5615		13.671875
5616		17.578125
5617		13.671875
5618		15.625000
5619		13.671875
5620		15.625000
5621		13.671875
5622		15.625000
5623		13.671875
5624		15.625000
5625		11.718750
5626		15.625000
5627		11.718750
5628		15.625000
5629		11.718750
5630		15.625000
5631		11.718750
5632		15.625000
5633		11.718750
5634		15.625000
5635		11.718750
5636		13.671875
5637		9.765625
5638		13.671875
5639		11.718750
5640		13.671875
5641		9.765625
5642		13.671875
5643		9.765625
5644		13.671875
5645		9.765625
5646		13.671875
5647		9.765625
5648		13.671875
5649		9.765625
5650		13.671875
5651		9.765625
5652		11.718750
5653		9.765625
5654		11.718750
5655		7.812500
5656		11.718750
5657		7.812500
5658		11.718750
5659		7.812500
5660		11.718750
5661		7.812500
5662		9.765625
5663		7.812500
5664		9.765625
5665		5.859375
5666		9.765625
5667		5.859375
5668		9.765625
5669		5.859375
5670		7.812500
5671		5.859375
5672		9.765625
5673		5.859375
5674		7.812500
5675		5.859375
5676		7.812500
5677		3.906250
5678		7.812500
5679		5.859375
5680		7.812500
5681		3.906250
5682		7.812500
5683		1.953125
5684		7.812500
5685		3.906250
5686		5.859375
5687		3.906250
5688		5.859375
5689		3.906250
5690		5.859375
5691		1.953125
5692		5.859375
5693		1.953125
5694		5.859375
5695		1.953125
5696		5.859375
5697		1.953125
5698		5.859375
5699		1.953125
5700		5.859375
5701		1.953125
5702		3.906250
5703		1.953125
5704		3.906250
5705		0.000000
5706		3.906250
5707		1.953125
5708		3.906250
5709		0.000000
5710		3.906250
5711		0.000000
5712		3.906250
5713		0.000000
5714		3.906250
5715		0.000000
5716		3.906250
5717		0.000000
5718		3.906250
5719		0.000000
5720		3.906250
5721		0.000000
5722		3.906250
5723		0.000000
5724		3.906250
5725		0.000000
5726		3.906250
5727		0.000000
5728		3.906250
5729		0.000000
5730		3.906250
5731		0.000000
5732		3.906250
5733		0.000000
5734		3.906250
5735		1.953125
5736		3.906250
5737		1.953125
5738		3.906250
5739		0.000000
5740		3.906250
5741		1.953125
5742		3.906250
5743		0.000000
5744		3.906250
5745		1.953125
5746		3.906250
5747		1.953125
5748		3.906250
5749		0.000000
5750		3.906250
5751		0.000000
5752		5.859375
5753		1.953125
5754		5.859375
5755		1.953125
5756		5.859375
5757		1.953125
5758		5.859375
5759		1.953125
5760		5.859375
5761		3.906250
5762		5.859375
5763		3.906250
5764		5.859375
5765		3.906250
5766		7.812500
5767		3.906250
5768		5.859375
5769		3.906250
5770		5.859375
5771		1.953125
5772		7.812500
5773		5.859375
5774		7.812500
5775		3.906250
5776		7.812500
5777		5.859375
5778		7.812500
5779		5.859375
5780		7.812500
5781		5.859375
5782		9.765625
5783		5.859375
5784		9.765625
5785		7.812500
5786		9.765625
5787		7.812500
5788		9.765625
5789		7.812500
5790		11.718750
5791		7.812500
5792		11.718750
5793		7.812500
5794		11.718750
5795		9.765625
5796		11.718750
5797		9.765625
5798		11.718750
5799		9.765625
5800		13.671875
5801		9.765625
5802		13.671875
5803		9.765625
5804		11.718750
5805		9.765625
5806		13.671875
5807		9.765625
5808		13.671875
5809		11.718750
5810		13.671875
5811		11.718750
5812		13.671875
5813		9.765625
5814		13.671875
5815		11.718750
5816		15.625000
5817		11.718750
5818		15.625000
5819		11.718750
5820		15.625000
5821		11.718750
5822		15.625000
5823		11.718750
5824		15.625000
5825		13.671875
5826		15.625000
5827		13.671875
5828		15.625000
5829		13.671875
5830		15.625000
5831		13.671875
5832		15.625000
5833		13.671875
5834		17.578125
5835		13.671875
5836		17.578125
5837		13.671875
5838		15.625000
5839		11.718750
5840		17.578125
5841		13.671875
5842		17.578125
5843		13.671875
5844		17.578125
5845		13.671875
5846		17.578125
5847		13.671875
5848		17.578125
5849		13.671875
5850		17.578125
5851		13.671875
5852		17.578125
5853		13.671875
5854		17.578125
5855		13.671875
5856		17.578125
5857		13.671875
5858		17.578125
5859		13.671875
5860		17.578125
5861		13.671875
5862		17.578125
5863		13.671875
5864		17.578125
5865		13.671875
5866		17.578125
5867		13.671875
5868		17.578125
5869		13.671875
5870		15.625000
5871		13.671875
5872		15.625000
5873		13.671875
5874		17.578125
5875		11.718750
5876		15.625000
5877		11.718750
5878		15.625000
5879		11.718750
5880		15.625000
5881		11.718750
5882		15.625000
5883		11.718750
5884		15.625000
5885		9.765625
5886		15.625000
5887		11.718750
5888		13.671875
5889		11.718750
5890		15.625000
5891		9.765625
5892		13.671875
5893		9.765625
5894		13.671875
5895		9.765625
5896		13.671875
5897		9.765625
5898		13.671875
5899		9.765625
5900		13.671875
5901		9.765625
5902		13.671875
5903		9.765625
5904		11.718750
5905		9.765625
5906		11.718750
5907		7.812500
5908		11.718750
5909		7.812500
5910		11.718750
5911		7.812500
5912		11.718750
5913		7.812500
5914		9.765625
5915		7.812500
5916		9.765625
5917		7.812500
5918		9.765625
5919		5.859375
5920		9.765625
5921		5.859375
5922		7.812500
5923		5.859375
5924		7.812500
5925		5.859375
5926		7.812500
5927		5.859375
5928		7.812500
5929		3.906250
5930		7.812500
5931		3.906250
5932		7.812500
5933		3.906250
5934		7.812500
5935		3.906250
5936		7.812500
5937		3.906250
5938		5.859375
5939		3.906250
5940		5.859375
5941		3.906250
5942		5.859375
5943		1.953125
5944		5.859375
5945		1.953125
5946		5.859375
5947		1.953125
5948		5.859375
5949		1.953125
5950		5.859375
5951		0.000000
5952		3.906250
5953		1.953125
5954		3.906250
5955		1.953125
5956		3.906250
5957		1.953125
5958		3.906250
5959		0.000000
5960		3.906250
5961		0.000000
5962		3.906250
5963		0.000000
5964		3.906250
5965		0.000000
5966		3.906250
5967		0.000000
5968		3.906250
5969		0.000000
5970		3.906250
5971		0.000000
5972		3.906250
5973		0.000000
5974		3.906250
5975		0.000000
5976		3.906250
5977		0.000000
5978		3.906250
5979		0.000000
5980		3.906250
5981		0.000000
5982		3.906250
5983		0.000000
5984		3.906250
5985		0.000000
5986		3.906250
5987		0.000000
5988		3.906250
5989		1.953125
5990		3.906250
5991		0.000000
5992		3.906250
5993		0.000000
5994		3.906250
5995		0.000000
5996		3.906250
5997		1.953125
5998		3.906250
5999		1.953125
6000		3.906250
6001		1.953125
6002		3.906250
6003		1.953125
6004		5.859375
6005		1.953125
6006		3.906250
6007		1.953125
6008		5.859375
6009		1.953125
6010		5.859375
6011		1.953125
6012		5.859375
6013		1.953125
6014		5.859375
6015		1.953125
6016		5.859375
6017		3.906250
6018		7.812500
6019		1.953125
6020		7.812500
6021		3.906250
6022		5.859375
6023		3.906250
6024		7.812500
6025		3.906250
6026		7.812500
6027		5.859375
6028		7.812500
6029		5.859375
6030		7.812500
6031		5.859375
6032		9.765625
6033		5.859375
6034		9.765625
6035		5.859375
6036		9.765625
6037		5.859375
6038		9.765625
6039		7.812500
6040		9.765625
6041		7.812500
6042		9.765625
6043		7.812500
6044		11.718750
6045		7.812500
6046		11.718750
6047		7.812500
6048		11.718750
6049		7.812500
6050		11.718750
6051		9.765625
6052		11.718750
6053		9.765625
6054		13.671875
6055		9.765625
6056		11.718750
6057		9.765625
6058		13.671875
6059		9.765625
6060		13.671875
6061		9.765625
6062		13.671875
6063		11.718750
6064		13.671875
6065		11.718750
6066		13.671875
6067		11.718750
6068		15.625000
6069		11.718750
6070		15.625000
6071		11.718750
6072		15.625000
6073		13.671875
6074		15.625000
6075		11.718750
6076		15.625000
6077		11.718750
6078		15.625000
6079		13.671875
6080		15.625000
6081		13.671875
6082		15.625000
6083		13.671875
6084		15.625000
6085		13.671875
6086		17.578125
6087		11.718750
6088		17.578125
6089		13.671875
6090		15.625000
6091		13.671875
6092		17.578125
6093		13.671875
6094		17.578125
6095		13.671875
6096		17.578125
6097		13.671875
6098		17.578125
6099		13.671875
6100		17.578125
6101		13.671875
6102		17.578125
6103		13.671875
6104		17.578125
6105		13.671875
6106		17.578125
6107		13.671875
6108		15.625000
6109		11.718750
6110		17.578125
6111		13.671875
6112		17.578125
6113		13.671875
6114		17.578125
6115		13.671875
6116		17.578125
6117		13.671875
6118		15.625000
6119		13.671875
6120		17.578125
6121		11.718750
6122		17.578125
6123		13.671875
6124		15.625000
6125		11.718750
6126		15.625000
6127		11.718750
6128		15.625000
6129		13.671875
6130		15.625000
6131		11.718750
6132		15.625000
6133		11.718750
6134		15.625000
6135		11.718750
6136		15.625000
6137		11.718750
6138		15.625000
6139		11.718750
6140		13.671875
6141		9.765625
6142		13.671875
6143		9.765625
6144		13.671875
6145		9.765625
6146		13.671875
6147		9.765625
6148		13.671875
6149		9.765625
6150		13.671875
6151		9.765625
6152		13.671875
6153		7.812500
6154		11.718750
6155		9.765625
6156		11.718750
6157		9.765625
6158		11.718750
6159		7.812500
6160		11.718750
6161		7.812500
6162		11.718750
6163		7.812500
6164		9.765625
6165		7.812500
6166		9.765625
6167		7.812500
6168		9.765625
6169		5.859375
6170		9.765625
6171		5.859375
6172		9.765625
6173		5.859375
6174		9.765625
6175		3.906250
6176		7.812500
6177		3.906250
6178		7.812500
6179		3.906250
6180		7.812500
6181		3.906250
6182		7.812500
6183		3.906250
6184		7.812500
6185		3.906250
6186		5.859375
6187		3.906250
6188		7.812500
6189		3.906250
6190		5.859375
6191		3.906250
6192		5.859375
6193		1.953125
6194		5.859375
6195		1.953125
6196		5.859375
6197		1.953125
6198		5.859375
6199		1.953125
6200		5.859375
6201		1.953125
6202		5.859375
6203		1.953125
6204		5.859375
6205		1.953125
6206		3.906250
6207		1.953125
6208		3.906250
6209		0.000000
6210		3.906250
6211		0.000000
6212		3.906250
6213		1.953125
6214		3.906250
6215		0.000000
6216		3.906250
6217		0.000000
6218		3.906250
6219		0.000000
6220		3.906250
6221		0.000000
6222		3.906250
6223		0.000000
6224		1.953125
6225		0.000000
6226		3.906250
6227		0.000000
6228		3.906250
6229		0.000000
6230		3.906250
6231		0.000000
6232		3.906250
6233		0.000000
6234		3.906250
6235		0.000000
6236		3.906250
6237		0.000000
6238		3.906250
6239		1.953125
6240		3.906250
6241		1.953125
6242		3.906250
6243		0.000000
6244		3.906250
6245		0.000000
6246		3.906250
6247		0.000000
6248		3.906250
6249		1.953125
6250		3.906250
6251		1.953125
6252		3.906250
6253		1.953125
6254		3.906250
6255		1.953125
6256		5.859375
6257		1.953125
6258		3.906250
6259		1.953125
6260		5.859375
6261		3.906250
6262		5.859375
6263		3.906250
6264		5.859375
6265		3.906250
6266		5.859375
6267		3.906250
6268		5.859375
6269		3.906250
6270		5.859375
6271		3.906250
6272		5.859375
6273		3.906250
6274		7.812500
6275		3.906250
6276		7.812500
6277		3.906250
6278		7.812500
6279		3.906250
6280		7.812500
6281		5.859375
6282		7.812500
6283		5.859375
6284		9.765625
6285		5.859375
6286		9.765625
6287		5.859375
6288		9.765625
6289		5.859375
6290		9.765625
6291		7.812500
6292		9.765625
6293		7.812500
6294		11.718750
6295		7.812500
6296		11.718750
6297		7.812500
6298		11.718750
6299		7.812500
6300		11.718750
6301		9.765625
6302		11.718750
6303		9.765625
6304		11.718750
6305		9.765625
6306		13.671875
6307		9.765625
6308		13.671875
6309		9.765625
6310		13.671875
6311		9.765625
6312		13.671875
6313		11.718750
6314		13.671875
6315		11.718750
6316		13.671875
6317		11.718750
6318		13.671875
6319		11.718750
6320		15.625000
6321		11.718750
6322		15.625000
6323		11.718750
6324		15.625000
6325		11.718750
6326		15.625000
6327		11.718750
6328		15.625000
6329		11.718750
6330		15.625000
6331		13.671875
6332		15.625000
6333		13.671875
6334		15.625000
6335		13.671875
6336		15.625000
6337		13.671875
6338		17.578125
6339		13.671875
6340		17.578125
6341		13.671875
6342		15.625000
6343		13.671875
6344		17.578125
6345		13.671875
6346		17.578125
6347		13.671875
6348		17.578125
6349		13.671875
6350		17.578125
6351		13.671875
6352		17.578125
6353		13.671875
6354		17.578125
6355		13.671875
6356		17.578125
6357		13.671875
6358		15.625000
6359		13.671875
6360		17.578125
6361		13.671875
6362		17.578125
6363		13.671875
6364		17.578125
6365		13.671875
6366		17.578125
6367		13.671875
6368		15.625000
6369		13.671875
6370		17.578125
6371		13.671875
6372		15.625000
6373		11.718750
6374		15.625000
6375		13.671875
6376		15.625000
6377		13.671875
6378		15.625000
6379		11.718750
6380		15.625000
6381		11.718750
6382		15.625000
6383		11.718750
6384		15.625000
6385		11.718750
6386		15.625000
6387		11.718750
6388		15.625000
6389		11.718750
6390		15.625000
6391		11.718750
6392		13.671875
6393		9.765625
6394		13.671875
6395		9.765625
6396		13.671875
6397		9.765625
6398		13.671875
6399		9.765625
6400		13.671875
6401		9.765625
6402		11.718750
6403		9.765625
6404		13.671875
6405		9.765625
6406		11.718750
6407		9.765625
6408		11.718750
6409		7.812500
6410		11.718750
6411		7.812500
6412		11.718750
6413		7.812500
6414		9.765625
6415		7.812500
6416		9.765625
6417		7.812500
6418		9.765625
6419		5.859375
6420		9.765625
6421		5.859375
6422		9.765625
6423		5.859375
6424		9.765625
6425		5.859375
6426		7.812500
6427		5.859375
6428		7.812500
6429		3.906250
6430		7.812500
6431		3.906250
6432		7.812500
6433		3.906250
6434		7.812500
6435		3.906250
6436		7.812500
6437		3.906250
6438		7.812500
6439		3.906250
6440		5.859375
6441		3.906250
6442		5.859375
6443		3.906250
6444		5.859375
6445		1.953125
6446		5.859375
6447		1.953125
6448		5.859375
6449		1.953125
6450		5.859375
6451		1.953125
6452		3.906250
6453		1.953125
6454		5.859375
6455		1.953125
6456		5.859375
6457		0.000000
6458		3.906250
6459		1.953125
6460		3.906250
6461		0.000000
6462		3.906250
6463		0.000000
6464		3.906250
6465		0.000000
6466		3.906250
6467		0.000000
6468		3.906250
6469		0.000000
6470		3.906250
6471		0.000000
6472		3.906250
6473		0.000000
6474		3.906250
6475		0.000000
6476		3.906250
6477		0.000000
6478		3.906250
6479		0.000000
6480		3.906250
6481		0.000000
6482		3.906250
6483		0.000000
6484		3.906250
6485		0.000000
6486		3.906250
6487		0.000000
6488		3.906250
6489		0.000000
6490		3.906250
6491		1.953125
6492		3.906250
6493		1.953125
6494		3.906250
6495		0.000000
6496		3.906250
6497		0.000000
6498		3.906250
6499		0.000000
6500		3.906250
6501		1.953125
6502		3.906250
6503		1.953125
6504		3.906250
6505		1.953125
6506		3.906250
6507		1.953125
6508		5.859375
6509		1.953125
6510		5.859375
6511		1.953125
6512		5.859375
6513		1.953125
6514		5.859375
6515		3.906250
6516		5.859375
6517		3.906250
6518		5.859375
6519		3.906250
6520		7.812500
6521		3.906250
6522		7.812500
6523		3.906250
6524		7.812500
6525		5.859375
6526		7.812500
6527		5.859375
6528		7.812500
6529		3.906250
6530		7.812500
6531		5.859375
6532		7.812500
6533		5.859375
6534		9.765625
6535		5.859375
6536		9.765625
6537		5.859375
6538		9.765625
6539		5.859375
6540		9.765625
6541		7.812500
6542		11.718750
6543		7.812500
6544		9.765625
6545		7.812500
6546		11.718750
6547		7.812500
6548		11.718750
6549		7.812500
6550		11.718750
6551		7.812500
6552		11.718750
6553		9.765625
6554		13.671875
6555		9.765625
6556		13.671875
6557		9.765625
6558		13.671875
6559		11.718750
6560		13.671875
6561		11.718750
6562		13.671875
6563		9.765625
6564		15.625000
6565		11.718750
6566		13.671875
6567		11.718750
6568		13.671875
6569		11.718750
6570		15.625000
6571		11.718750
6572		15.625000
6573		11.718750
6574		15.625000
6575		11.718750
6576		15.625000
6577		13.671875
6578		15.625000
6579		11.718750
6580		15.625000
6581		13.671875
6582		15.625000
6583		13.671875
6584		15.625000
6585		13.671875
6586		15.625000
6587		13.671875
6588		17.578125
6589		13.671875
6590		15.625000
6591		13.671875
6592		17.578125
6593		13.671875
6594		17.578125
6595		13.671875
6596		17.578125
6597		13.671875
6598		17.578125
6599		13.671875
6600		17.578125
6601		13.671875
6602		17.578125
6603		13.671875
6604		17.578125
6605		13.671875
6606		17.578125
6607		13.671875
6608		17.578125
6609		13.671875
6610		17.578125
6611		13.671875
6612		15.625000
6613		13.671875
6614		17.578125
6615		13.671875
6616		17.578125
6617		13.671875
6618		17.578125
6619		13.671875
6620		15.625000
6621		13.671875
6622		15.625000
6623		13.671875
6624		15.625000
6625		13.671875
6626		15.625000
6627		13.671875
6628		15.625000
6629		11.718750
6630		15.625000
6631		11.718750
6632		15.625000
6633		11.718750
6634		15.625000
6635		13.671875
6636		15.625000
6637		11.718750
6638		15.625000
6639		11.718750
6640		15.625000
6641		11.718750
6642		13.671875
6643		11.718750
6644		13.671875
6645		9.765625
6646		13.671875
6647		9.765625
6648		13.671875
6649		9.765625
6650		13.671875
6651		9.765625
6652		13.671875
6653		9.765625
6654		11.718750
6655		9.765625
6656		13.671875
6657		9.765625
6658		11.718750
6659		7.812500
6660		11.718750
6661		7.812500
6662		11.718750
6663		7.812500
6664		11.718750
6665		7.812500
6666		11.718750
6667		7.812500
6668		9.765625
6669		7.812500
6670		9.765625
6671		5.859375
6672		9.765625
6673		5.859375
6674		9.765625
6675		5.859375
6676		9.765625
6677		5.859375
6678		7.812500
6679		3.906250
6680		7.812500
6681		3.906250
6682		7.812500
6683		3.906250
6684		7.812500
6685		3.906250
6686		7.812500
6687		3.906250
6688		7.812500
6689		3.906250
6690		7.812500
6691		3.906250
6692		5.859375
6693		3.906250
6694		5.859375
6695		3.906250
6696		5.859375
6697		1.953125
6698		5.859375
6699		1.953125
6700		5.859375
6701		1.953125
6702		5.859375
6703		1.953125
6704		5.859375
6705		1.953125
6706		5.859375
6707		1.953125
6708		3.906250
6709		0.000000
6710		3.906250
6711		1.953125
6712		3.906250
6713		0.000000
6714		3.906250
6715		0.000000
6716		3.906250
6717		0.000000
6718		3.906250
6719		0.000000
6720		3.906250
6721		0.000000
6722		3.906250
6723		0.000000
6724		3.906250
6725		0.000000
6726		3.906250
6727		0.000000
6728		3.906250
6729		0.000000
6730		1.953125
6731		0.000000
6732		3.906250
6733		0.000000
6734		3.906250
6735		0.000000
6736		3.906250
6737		0.000000
6738		3.906250
6739		0.000000
6740		3.906250
6741		0.000000
6742		3.906250
6743		0.000000
6744		3.906250
6745		1.953125
6746		3.906250
6747		0.000000
6748		3.906250
6749		0.000000
6750		3.906250
6751		1.953125
6752		3.906250
6753		1.953125
6754		3.906250
6755		1.953125
6756		5.859375
6757		1.953125
6758		5.859375
6759		1.953125
6760		5.859375
6761		1.953125
6762		5.859375
6763		1.953125
6764		5.859375
6765		1.953125
6766		5.859375
6767		3.906250
6768		5.859375
6769		3.906250
6770		7.812500
6771		3.906250
6772		7.812500
6773		3.906250
6774		7.812500
6775		3.906250
6776		7.812500
6777		5.859375
6778		7.812500
6779		5.859375
6780		7.812500
6781		5.859375
6782		7.812500
6783		5.859375
6784		7.812500
6785		5.859375
6786		9.765625
6787		5.859375
6788		9.765625
6789		7.812500
6790		9.765625
6791		7.812500
6792		9.765625
6793		5.859375
6794		9.765625
6795		7.812500
6796		11.718750
6797		7.812500
6798		11.718750
6799		7.812500
6800		11.718750
6801		9.765625
6802		11.718750
6803		9.765625
6804		11.718750
6805		9.765625
6806		13.671875
6807		9.765625
6808		13.671875
6809		9.765625
6810		13.671875
6811		11.718750
6812		13.671875
6813		11.718750
6814		13.671875
6815		9.765625
6816		15.625000
6817		11.718750
6818		15.625000
6819		11.718750
6820		15.625000
6821		11.718750
6822		15.625000
6823		11.718750
6824		15.625000
6825		11.718750
6826		15.625000
6827		13.671875
6828		15.625000
6829		13.671875
6830		15.625000
6831		11.718750
6832		15.625000
6833		13.671875
6834		15.625000
6835		13.671875
6836		15.625000
6837		13.671875
6838		17.578125
6839		13.671875
6840		17.578125
6841		13.671875
6842		17.578125
6843		11.718750
6844		17.578125
6845		13.671875
6846		15.625000
6847		13.671875
6848		17.578125
6849		13.671875
6850		17.578125
6851		13.671875
6852		17.578125
6853		13.671875
6854		17.578125
6855		13.671875
6856		17.578125
6857		13.671875
6858		17.578125
6859		13.671875
6860		17.578125
6861		13.671875
6862		15.625000
6863		13.671875
6864		17.578125
6865		13.671875
6866		17.578125
6867		13.671875
6868		17.578125
6869		13.671875
6870		15.625000
6871		13.671875
6872		17.578125
6873		13.671875
6874		17.578125
6875		13.671875
6876		15.625000
6877		11.718750
6878		17.578125
6879		13.671875
6880		15.625000
6881		11.718750
6882		15.625000
6883		11.718750
6884		15.625000
6885		11.718750
6886		15.625000
6887		11.718750
6888		15.625000
6889		11.718750
6890		15.625000
6891		11.718750
6892		13.671875
6893		11.718750
6894		15.625000
6895		11.718750
6896		13.671875
6897		11.718750
6898		13.671875
6899		9.765625
6900		13.671875
6901		9.765625
6902		13.671875
6903		9.765625
6904		11.718750
6905		9.765625
6906		11.718750
6907		9.765625
6908		11.718750
6909		9.765625
6910		11.718750
6911		9.765625
6912		11.718750
6913		7.812500
6914		11.718750
6915		7.812500
6916		11.718750
6917		7.812500
6918		11.718750
6919		7.812500
6920		9.765625
6921		5.859375
6922		9.765625
6923		5.859375
6924		9.765625
6925		5.859375
6926		9.765625
6927		5.859375
6928		9.765625
6929		5.859375
6930		7.812500
6931		5.859375
6932		7.812500
6933		3.906250
6934		7.812500
6935		3.906250
6936		7.812500
6937		3.906250
6938		7.812500
6939		3.906250
6940		7.812500
6941		3.906250
6942		7.812500
6943		3.906250
6944		5.859375
6945		3.906250
6946		5.859375
6947		3.906250
6948		5.859375
6949		1.953125
6950		5.859375
6951		1.953125
6952		5.859375
6953		1.953125
6954		5.859375
6955		1.953125
6956		3.906250
6957		1.953125
6958		3.906250
6959		1.953125
6960		3.906250
6961		1.953125
6962		3.906250
6963		1.953125
6964		3.906250
6965		0.000000
6966		3.906250
6967		0.000000
6968		3.906250
6969		1.953125
6970		3.906250
6971		0.000000
6972		3.906250
6973		0.000000
6974		3.906250
6975		0.000000
6976		3.906250
6977		0.000000
6978		3.906250
6979		0.000000
6980		3.906250
6981		1.953125
6982		3.906250
6983		0.000000
6984		3.906250
6985		0.000000
6986		3.906250
6987		0.000000
6988		3.906250
6989		0.000000
6990		3.906250
6991		0.000000
6992		3.906250
6993		0.000000
6994		3.906250
6995		0.000000
6996		3.906250
6997		1.953125
6998		3.906250
6999		1.953125
7000		5.859375
7001		1.953125
7002		3.906250
7003		1.953125
7004		3.906250
7005		1.953125
7006		5.859375
7007		1.953125
7008		5.859375
7009		1.953125
7010		5.859375
7011		1.953125
7012		5.859375
7013		3.906250
7014		5.859375
7015		1.953125
7016		5.859375
7017		3.906250
7018		5.859375
7019		3.906250
7020		7.812500
7021		3.906250
7022		7.812500
7023		3.906250
7024		7.812500
7025		3.906250
7026		7.812500
7027		3.906250
7028		7.812500
7029		5.859375
7030		7.812500
7031		5.859375
7032		7.812500
7033		5.859375
7034		9.765625
7035		5.859375
7036		9.765625
7037		5.859375
7038		9.765625
7039		7.812500
7040		9.765625
7041		5.859375
7042		9.765625
7043		7.812500
7044		11.718750
7045		7.812500
7046		9.765625
7047		7.812500
7048		11.718750
7049		7.812500
7050		11.718750
7051		7.812500
7052		11.718750
7053		9.765625
7054		11.718750
7055		9.765625
7056		11.718750
7057		9.765625
7058		13.671875
7059		9.765625
7060		13.671875
7061		9.765625
7062		13.671875
7063		11.718750
7064		13.671875
7065		11.718750
7066		13.671875
7067		11.718750
7068		13.671875
7069		11.718750
7070		15.625000
7071		11.718750
7072		15.625000
7073		11.718750
7074		15.625000
7075		11.718750
7076		15.625000
7077		13.671875
7078		15.625000
7079		11.718750
7080		15.625000
7081		13.671875
7082		15.625000
7083		13.671875
7084		15.625000
7085		13.671875
7086		15.625000
7087		13.671875
7088		17.578125
7089		13.671875
7090		17.578125
7091		13.671875
7092		17.578125
7093		13.671875
7094		17.578125
7095		13.671875
7096		17.578125
7097		15.625000
7098		17.578125
7099		13.671875
7100		17.578125
7101		13.671875
7102		17.578125
7103		15.625000
7104		17.578125
7105		15.625000
7106		17.578125
7107		15.625000
7108		17.578125
7109		15.625000
7110		17.578125
7111		13.671875
7112		17.578125
7113		13.671875
7114		15.625000
7115		13.671875
7116		15.625000
7117		13.671875
7118		17.578125
7119		13.671875
7120		17.578125
7121		13.671875
7122		17.578125
7123		13.671875
7124		17.578125
7125		13.671875
7126		17.578125
7127		13.671875
7128		15.625000
7129		11.718750
7130		15.625000
7131		13.671875
7132		15.625000
7133		13.671875
7134		17.578125
7135		11.718750
7136		15.625000
7137		11.718750
7138		15.625000
7139		11.718750
7140		15.625000
7141		11.718750
7142		15.625000
7143		11.718750
7144		13.671875
7145		9.765625
7146		15.625000
7147		11.718750
7148		13.671875
7149		11.718750
7150		13.671875
7151		9.765625
7152		13.671875
7153		9.765625
7154		13.671875
7155		9.765625
7156		13.671875
7157		9.765625
7158		11.718750
7159		9.765625
7160		11.718750
7161		9.765625
7162		11.718750
7163		7.812500
7164		11.718750
7165		7.812500
7166		11.718750
7167		7.812500
7168		11.718750
7169		7.812500
7170		11.718750
7171		7.812500
7172		9.765625
7173		7.812500
7174		9.765625
7175		5.859375
7176		9.765625
7177		5.859375
7178		9.765625
7179		5.859375
7180		9.765625
7181		5.859375
7182		7.812500
7183		5.859375
7184		7.812500
7185		3.906250
7186		7.812500
7187		3.906250
7188		7.812500
7189		3.906250
7190		7.812500
7191		3.906250
7192		7.812500
7193		3.906250
7194		5.859375
7195		1.953125
7196		5.859375
7197		1.953125
7198		5.859375
7199		3.906250
7200		5.859375
7201		1.953125
7202		5.859375
7203		1.953125
7204		5.859375
7205		1.953125
7206		5.859375
7207		1.953125
7208		3.906250
7209		1.953125
7210		5.859375
7211		1.953125
7212		3.906250
7213		0.000000
7214		5.859375
7215		1.953125
7216		3.906250
7217		1.953125
7218		3.906250
7219		0.000000
7220		3.906250
7221		1.953125
7222		3.906250
7223		0.000000
7224		3.906250
7225		0.000000
7226		3.906250
7227		0.000000
7228		3.906250
7229		0.000000
7230		3.906250
7231		0.000000
7232		3.906250
7233		0.000000
7234		3.906250
7235		0.000000
7236		3.906250
7237		0.000000
7238		3.906250
7239		0.000000
7240		3.906250
7241		0.000000
7242		3.906250
7243		0.000000
7244		3.906250
7245		0.000000
7246		3.906250
7247		1.953125
7248		3.906250
7249		1.953125
7250		3.906250
7251		0.000000
7252		5.859375
7253		1.953125
7254		3.906250
7255		1.953125
7256		5.859375
7257		1.953125
7258		3.906250
7259		1.953125
7260		5.859375
7261		1.953125
7262		5.859375
7263		1.953125
7264		5.859375
7265		3.906250
7266		5.859375
7267		3.906250
7268		5.859375
7269		3.906250
7270		7.812500
7271		3.906250
7272		7.812500
7273		3.906250
7274		7.812500
7275		3.906250
7276		7.812500
7277		3.906250
7278		7.812500
7279		3.906250
7280		7.812500
7281		3.906250
7282		7.812500
7283		5.859375
7284		7.812500
7285		5.859375
7286		9.765625
7287		5.859375
7288		9.765625
7289		5.859375
7290		9.765625
7291		5.859375
7292		9.765625
7293		7.812500
7294		9.765625
7295		7.812500
7296		11.718750
7297		7.812500
7298		11.718750
7299		9.765625
7300		11.718750
7301		7.812500
7302		11.718750
7303		9.765625
7304		11.718750
7305		9.765625
7306		11.718750
7307		9.765625
7308		13.671875
7309		9.765625
7310		13.671875
7311		9.765625
7312		13.671875
7313		9.765625
7314		13.671875
7315		11.718750
7316		13.671875
7317		11.718750
7318		13.671875
7319		9.765625
7320		15.625000
7321		11.718750
7322		15.625000
7323		11.718750
7324		15.625000
7325		11.718750
7326		15.625000
7327		11.718750
7328		15.625000
7329		13.671875
7330		15.625000
7331		11.718750
7332		15.625000
7333		13.671875
7334		15.625000
7335		13.671875
7336		17.578125
7337		13.671875
7338		17.578125
7339		13.671875
7340		17.578125
7341		13.671875
7342		17.578125
7343		13.671875
7344		17.578125
7345		13.671875
7346		17.578125
7347		13.671875
7348		17.578125
7349		13.671875
7350		17.578125
7351		15.625000
7352		17.578125
7353		13.671875
7354		17.578125
7355		13.671875
7356		17.578125
7357		13.671875
7358		17.578125
7359		13.671875
7360		17.578125
7361		13.671875
7362		17.578125
7363		13.671875
7364		17.578125
7365		13.671875
7366		17.578125
7367		13.671875
7368		17.578125
7369		13.671875
7370		17.578125
7371		13.671875
7372		17.578125
7373		13.671875
7374		17.578125
7375		13.671875
7376		17.578125
7377		13.671875
7378		17.578125
7379		13.671875
7380		15.625000
7381		13.671875
7382		15.625000
7383		13.671875
7384		15.625000
7385		11.718750
7386		17.578125
7387		11.718750
7388		15.625000
7389		11.718750
7390		15.625000
7391		11.718750
7392		15.625000
7393		11.718750
7394		15.625000
7395		11.718750
7396		15.625000
7397		9.765625
7398		15.625000
7399		11.718750
7400		13.671875
7401		11.718750
7402		13.671875
7403		9.765625
7404		13.671875
7405		9.765625
7406		13.671875
7407		9.765625
7408		13.671875
7409		9.765625
7410		11.718750
7411		7.812500
7412		11.718750
7413		9.765625
7414		11.718750
7415		7.812500
7416		11.718750
7417		7.812500
7418		11.718750
7419		7.812500
7420		11.718750
7421		7.812500
7422		9.765625
7423		5.859375
7424		9.765625
7425		7.812500
7426		9.765625
7427		5.859375
7428		9.765625
7429		5.859375
7430		9.765625
7431		5.859375
7432		9.765625
7433		5.859375
7434		7.812500
7435		3.906250
7436		9.765625
7437		3.906250
7438		7.812500
7439		3.906250
7440		7.812500
7441		3.906250
7442		7.812500
7443		3.906250
7444		7.812500
7445		3.906250
7446		7.812500
7447		3.906250
7448		5.859375
7449		1.953125
7450		7.812500
7451		3.906250
7452		5.859375
7453		0.000000
7454		7.812500
7455		1.953125
7456		5.859375
7457		1.953125
7458		5.859375
7459		1.953125
7460		5.859375
7461		1.953125
7462		5.859375
7463		1.953125
7464		3.906250
7465		0.000000
7466		5.859375
7467		1.953125
7468		3.906250
7469		0.000000
7470		3.906250
7471		0.000000
7472		3.906250
7473		0.000000
7474		3.906250
7475		1.953125
7476		3.906250
7477		0.000000
7478		3.906250
7479		0.000000
7480		3.906250
7481		0.000000
7482		3.906250
7483		0.000000
7484		3.906250
7485		0.000000
7486		3.906250
7487		0.000000
7488		3.906250
7489		1.953125
7490		3.906250
7491		0.000000
7492		3.906250
7493		0.000000
7494		3.906250
7495		1.953125
7496		3.906250
7497		1.953125
7498		3.906250
7499		0.000000
7500		5.859375
7501		0.000000
7502		3.906250
7503		0.000000
7504		3.906250
7505		1.953125
7506		3.906250
7507		1.953125
7508		5.859375
7509		1.953125
7510		5.859375
7511		1.953125
7512		5.859375
7513		1.953125
7514		5.859375
7515		1.953125
7516		5.859375
7517		3.906250
7518		5.859375
7519		3.906250
7520		5.859375
7521		3.906250
7522		7.812500
7523		3.906250
7524		7.812500
7525		3.906250
7526		7.812500
7527		3.906250
7528		7.812500
7529		5.859375
7530		7.812500
7531		5.859375
7532		7.812500
7533		3.906250
7534		9.765625
7535		5.859375
7536		7.812500
7537		5.859375
7538		9.765625
7539		5.859375
7540		9.765625
7541		7.812500
7542		9.765625
7543		7.812500
7544		9.765625
7545		7.812500
7546		11.718750
7547		7.812500
7548		11.718750
7549		7.812500
7550		11.718750
7551		9.765625
7552		11.718750
7553		9.765625
7554		11.718750
7555		9.765625
7556		11.718750
7557		9.765625
7558		11.718750
7559		9.765625
7560		13.671875
7561		9.765625
7562		13.671875
7563		9.765625
7564		13.671875
7565		9.765625
7566		13.671875
7567		11.718750
7568		13.671875
7569		11.718750
7570		13.671875
7571		11.718750
7572		15.625000
7573		9.765625
7574		17.578125
7575		11.718750
7576		15.625000
7577		13.671875
7578		15.625000
7579		11.718750
7580		15.625000
7581		11.718750
7582		17.578125
7583		11.718750
7584		17.578125
7585		13.671875
7586		15.625000
7587		11.718750
7588		17.578125
7589		11.718750
7590		19.531250
7591		13.671875
7592		17.578125
7593		13.671875
7594		17.578125
7595		13.671875
7596		17.578125
7597		13.671875
7598		17.578125
7599		11.718750
7600		17.578125
7601		15.625000
7602		17.578125
7603		13.671875
7604		17.578125
7605		13.671875
7606		17.578125
7607		11.718750
7608		19.531250
7609		13.671875
7610		19.531250
7611		13.671875
7612		17.578125
7613		11.718750
7614		19.531250
7615		11.718750
7616		19.531250
7617		13.671875
7618		19.531250
7619		15.625000
7620		17.578125
7621		13.671875
7622		17.578125
7623		11.718750
7624		17.578125
7625		13.671875
7626		17.578125
7627		11.718750
7628		19.531250
7629		11.718750
7630		17.578125
7631		11.718750
7632		17.578125
7633		11.718750
7634		17.578125
7635		13.671875
7636		15.625000
7637		11.718750
7638		17.578125
7639		9.765625
7640		17.578125
7641		9.765625
7642		17.578125
7643		9.765625
7644		17.578125
7645		9.765625
7646		17.578125
7647		9.765625
7648		15.625000
7649		7.812500
7650		15.625000
7651		11.718750
7652		13.671875
7653		11.718750
7654		13.671875
7655		7.812500
7656		15.625000
7657		7.812500
7658		15.625000
7659		7.812500
7660		15.625000
7661		7.812500
7662		13.671875
7663		7.812500
7664		13.671875
7665		7.812500
7666		13.671875
7667		5.859375
7668		11.718750
7669		7.812500
7670		11.718750
7671		5.859375
7672		11.718750
7673		5.859375
7674		11.718750
7675		5.859375
7676		11.718750
7677		3.906250
7678		11.718750
7679		3.906250
7680		11.718750
7681		3.906250
7682		11.718750
7683		3.906250
7684		9.765625
7685		5.859375
7686		7.812500
7687		5.859375
7688		7.812500
7689		1.953125
7690		9.765625
7691		1.953125
7692		9.765625
7693		1.953125
7694		9.765625
7695		1.953125
7696		9.765625
7697		1.953125
7698		7.812500
7699		1.953125
7700		7.812500
7701		1.953125
7702		7.812500
7703		3.906250
7704		5.859375
7705		1.953125
7706		7.812500
7707		0.000000
7708		7.812500
7709		0.000000
7710		7.812500
7711		0.000000
7712		5.859375
7713		0.000000
7714		5.859375
7715		0.000000
7716		5.859375
7717		0.000000
7718		5.859375
7719		1.953125
7720		3.906250
7721		1.953125
7722		3.906250
7723		0.000000
7724		5.859375
7725		0.000000
7726		5.859375
7727		-1.953125
7728		5.859375
7729		-1.953125
7730		5.859375
7731		0.000000
7732		5.859375
7733		-1.953125
7734		5.859375
7735		1.953125
7736		3.906250
7737		1.953125
7738		3.906250
7739		-1.953125
7740		5.859375
7741		0.000000
7742		5.859375
7743		-1.953125
7744		5.859375
7745		-1.953125
7746		5.859375
7747		-1.953125
7748		7.812500
7749		0.000000
7750		5.859375
7751		0.000000
7752		5.859375
7753		1.953125
7754		3.906250
7755		0.000000
7756		5.859375
7757		0.000000
7758		7.812500
7759		0.000000
7760		7.812500
7761		0.000000
7762		7.812500
7763		0.000000
7764		7.812500
7765		0.000000
7766		7.812500
7767		1.953125
7768		7.812500
7769		3.906250
7770		5.859375
7771		3.906250
7772		5.859375
7773		1.953125
7774		7.812500
7775		1.953125
7776		9.765625
7777		1.953125
7778		9.765625
7779		1.953125
7780		9.765625
7781		3.906250
7782		11.718750
7783		3.906250
7784		9.765625
7785		3.906250
7786		9.765625
7787		7.812500
7788		9.765625
7789		5.859375
7790		11.718750
7791		3.906250
7792		11.718750
7793		5.859375
7794		11.718750
7795		3.906250
7796		13.671875
7797		5.859375
7798		13.671875
7799		5.859375
7800		13.671875
7801		5.859375
7802		13.671875
7803		9.765625
7804		11.718750
7805		9.765625
7806		11.718750
7807		7.812500
7808		15.625000
7809		7.812500
7810		15.625000
7811		7.812500
7812		15.625000
7813		7.812500
7814		15.625000
7815		9.765625
7816		15.625000
7817		9.765625
7818		15.625000
7819		11.718750
7820		15.625000
7821		11.718750
7822		13.671875
7823		9.765625
7824		17.578125
7825		9.765625
7826		17.578125
7827		9.765625
7828		17.578125
7829		9.765625
7830		17.578125
7831		9.765625
7832		17.578125
7833		11.718750
7834		17.578125
7835		11.718750
7836		19.531250
7837		13.671875
7838		17.578125
7839		13.671875
7840		19.531250
7841		11.718750
7842		19.531250
7843		11.718750
7844		19.531250
7845		11.718750
7846		19.531250
7847		11.718750
7848		19.531250
7849		11.718750
7850		19.531250
7851		13.671875
7852		19.531250
7853		15.625000
7854		17.578125
7855		15.625000
7856		17.578125
7857		13.671875
7858		19.531250
7859		11.718750
7860		19.531250
7861		13.671875
7862		19.531250
7863		11.718750
7864		19.531250
7865		11.718750
7866		19.531250
7867		13.671875
7868		19.531250
7869		13.671875
7870		19.531250
7871		15.625000
7872		17.578125
7873		11.718750
7874		19.531250
7875		11.718750
7876		19.531250
7877		11.718750
7878		19.531250
7879		11.718750
7880		19.531250
7881		11.718750
7882		19.531250
7883		11.718750
7884		17.578125
7885		11.718750
7886		17.578125
7887		13.671875
7888		15.625000
7889		13.671875
7890		15.625000
7891		9.765625
7892		17.578125
7893		11.718750
7894		17.578125
7895		9.765625
7896		17.578125
7897		9.765625
7898		17.578125
7899		9.765625
7900		15.625000
7901		9.765625
7902		15.625000
7903		11.718750
7904		15.625000
7905		11.718750
7906		13.671875
7907		7.812500
7908		15.625000
7909		7.812500
7910		15.625000
7911		7.812500
7912		13.671875
7913		7.812500
7914		13.671875
7915		5.859375
7916		13.671875
7917		7.812500
7918		13.671875
7919		7.812500
7920		13.671875
7921		7.812500
7922		11.718750
7923		5.859375
7924		11.718750
7925		5.859375
7926		11.718750
7927		5.859375
7928		11.718750
7929		5.859375
7930		11.718750
7931		3.906250
7932		11.718750
7933		3.906250
7934		11.718750
7935		3.906250
7936		9.765625
7937		5.859375
7938		7.812500
7939		5.859375
7940		7.812500
7941		3.906250
7942		9.765625
7943		1.953125
7944		9.765625
7945		1.953125
7946		9.765625
7947		1.953125
7948		9.765625
7949		1.953125
7950		7.812500
7951		1.953125
7952		7.812500
7953		1.953125
7954		7.812500
7955		3.906250
7956		5.859375
7957		1.953125
7958		5.859375
7959		0.000000
7960		7.812500
7961		0.000000
7962		7.812500
7963		0.000000
7964		5.859375
7965		1.953125
7966		5.859375
7967		0.000000
7968		5.859375
7969		1.953125
7970		5.859375
7971		1.953125
7972		3.906250
7973		1.953125
7974		3.906250
7975		1.953125
7976		3.906250
7977		0.000000
7978		5.859375
7979		1.953125
7980		3.906250
7981		1.953125
7982		3.906250
7983		0.000000
7984		3.906250
7985		0.000000
7986		3.906250
7987		0.000000
7988		5.859375
7989		1.953125
7990		3.906250
7991		0.000000
7992		3.906250
7993		0.000000
7994		3.906250
7995		1.953125
7996		3.906250
7997		1.953125
7998		3.906250
7999		1.953125
8000		3.906250
8001		1.953125
8002		5.859375
8003		1.953125
8004		3.906250
8005		1.953125
8006		3.906250
8007		1.953125
8008		5.859375
8009		1.953125
8010		5.859375
8011		1.953125
8012		5.859375
8013		1.953125
8014		5.859375
8015		3.906250
8016		5.859375
8017		1.953125
8018		5.859375
8019		3.906250
8020		5.859375
8021		3.906250
8022		5.859375
8023		3.906250
8024		5.859375
8025		1.953125
8026		7.812500
8027		3.906250
8028		7.812500
8029		3.906250
8030		7.812500
8031		5.859375
8032		7.812500
8033		5.859375
8034		9.765625
8035		5.859375
8036		9.765625
8037		5.859375
8038		9.765625
8039		7.812500
8040		9.765625
8041		7.812500
8042		11.718750
8043		7.812500
8044		9.765625
8045		7.812500
8046		11.718750
8047		7.812500
8048		9.765625
8049		7.812500
8050		11.718750
8051		7.812500
8052		11.718750
8053		7.812500
8054		13.671875
8055		9.765625
8056		11.718750
8057		9.765625
8058		11.718750
8059		9.765625
8060		13.671875
8061		9.765625
8062		13.671875
8063		9.765625
8064		13.671875
8065		9.765625
8066		13.671875
8067		11.718750
8068		13.671875
8069		11.718750
8070		13.671875
8071		11.718750
8072		15.625000
8073		11.718750
8074		15.625000
8075		11.718750
8076		15.625000
8077		13.671875
8078		15.625000
8079		11.718750
8080		15.625000
8081		13.671875
8082		15.625000
8083		13.671875
8084		15.625000
8085		13.671875
8086		17.578125
8087		13.671875
8088		17.578125
8089		13.671875
8090		15.625000
8091		13.671875
8092		17.578125
8093		13.671875
8094		17.578125
8095		13.671875
8096		17.578125
8097		13.671875
8098		17.578125
8099		15.625000
8100		17.578125
8101		13.671875
8102		17.578125
8103		13.671875
8104		17.578125
8105		15.625000
8106		17.578125
8107		15.625000
8108		17.578125
8109		13.671875
8110		17.578125
8111		15.625000
8112		17.578125
8113		15.625000
8114		17.578125
8115		13.671875
8116		17.578125
8117		15.625000
8118		17.578125
8119		13.671875
8120		17.578125
8121		13.671875
8122		17.578125
8123		13.671875
8124		17.578125
8125		13.671875
8126		17.578125
8127		13.671875
8128		17.578125
8129		13.671875
8130		17.578125
8131		13.671875
8132		17.578125
8133		13.671875
8134		17.578125
8135		13.671875
8136		17.578125
8137		13.671875
8138		15.625000
8139		13.671875
8140		15.625000
8141		13.671875
8142		15.625000
8143		11.718750
8144		15.625000
8145		11.718750
8146		15.625000
8147		11.718750
8148		15.625000
8149		11.718750
8150		15.625000
8151		11.718750
8152		15.625000
8153		11.718750
8154		13.671875
8155		11.718750
8156		13.671875
8157		9.765625
8158		13.671875
8159		9.765625
8160		13.671875
8161		9.765625
8162		13.671875
8163		9.765625
8164		11.718750
8165		7.812500
8166		11.718750
8167		7.812500
8168		11.718750
8169		7.812500
8170		11.718750
8171		7.812500
8172		11.718750
8173		7.812500
8174		9.765625
8175		7.812500
8176		11.718750
8177		7.812500
8178		9.765625
8179		5.859375
8180		9.765625
8181		5.859375
8182		9.765625
8183		5.859375
8184		9.765625
8185		5.859375
8186		9.765625
8187		3.906250
8188		9.765625
8189		5.859375
8190		7.812500
8191		5.859375
8192		7.812500
8193		3.906250
8194		7.812500
8195		3.906250
8196		7.812500
8197		3.906250
8198		5.859375
8199		3.906250
8200		7.812500
8201		3.906250
8202		5.859375
8203		3.906250
8204		5.859375
8205		3.906250
8206		7.812500
8207		1.953125
8208		5.859375
8209		1.953125
8210		5.859375
8211		1.953125
8212		5.859375
8213		1.953125
8214		5.859375
8215		1.953125
8216		5.859375
8217		1.953125
8218		5.859375
8219		1.953125
8220		3.906250
8221		1.953125
8222		3.906250
8223		1.953125
8224		3.906250
8225		1.953125
8226		3.906250
8227		0.000000
8228		5.859375
8229		0.000000
8230		3.906250
8231		1.953125
8232		3.906250
8233		1.953125
8234		3.906250
8235		0.000000
8236		3.906250
8237		0.000000
8238		3.906250
8239		0.000000
8240		3.906250
8241		1.953125
8242		3.906250
8243		1.953125
8244		5.859375
8245		1.953125
8246		3.906250
8247		1.953125
8248		3.906250
8249		1.953125
8250		3.906250
8251		1.953125
8252		5.859375
8253		1.953125
8254		5.859375
8255		1.953125
8256		5.859375
8257		1.953125
8258		3.906250
8259		1.953125
8260		5.859375
8261		1.953125
8262		5.859375
8263		1.953125
8264		5.859375
8265		1.953125
8266		5.859375
8267		3.906250
8268		5.859375
8269		3.906250
8270		5.859375
8271		3.906250
8272		7.812500
8273		3.906250
8274		5.859375
8275		3.906250
8276		7.812500
8277		3.906250
8278		7.812500
8279		5.859375
8280		7.812500
8281		5.859375
8282		7.812500
8283		5.859375
8284		9.765625
8285		5.859375
8286		9.765625
8287		5.859375
8288		9.765625
8289		5.859375
8290		9.765625
8291		7.812500
8292		9.765625
8293		5.859375
8294		9.765625
8295		7.812500
8296		11.718750
8297		7.812500
8298		11.718750
8299		7.812500
8300		11.718750
8301		7.812500
8302		11.718750
8303		7.812500
8304		11.718750
8305		7.812500
8306		11.718750
8307		9.765625
8308		13.671875
8309		9.765625
8310		11.718750
8311		9.765625
8312		13.671875
8313		11.718750
8314		13.671875
8315		9.765625
8316		13.671875
8317		11.718750
8318		13.671875
8319		11.718750
8320		13.671875
8321		11.718750
8322		15.625000
8323		11.718750
8324		15.625000
8325		11.718750
8326		15.625000
8327		13.671875
8328		15.625000
8329		13.671875
8330		15.625000
8331		13.671875
8332		15.625000
8333		13.671875
8334		15.625000
8335		13.671875
8336		15.625000
8337		13.671875
8338		17.578125
8339		13.671875
8340		17.578125
8341		13.671875
8342		17.578125
8343		15.625000
8344		17.578125
8345		13.671875
8346		17.578125
8347		13.671875
8348		17.578125
8349		13.671875
8350		17.578125
8351		15.625000
8352		17.578125
8353		13.671875
8354		17.578125
8355		13.671875
8356		17.578125
8357		15.625000
8358		17.578125
8359		15.625000
8360		17.578125
8361		13.671875
8362		19.531250
8363		13.671875
8364		17.578125
8365		13.671875
8366		19.531250
8367		15.625000
8368		17.578125
8369		13.671875
8370		17.578125
8371		15.625000
8372		17.578125
8373		13.671875
8374		17.578125
8375		15.625000
8376		17.578125
8377		13.671875
8378		17.578125
8379		13.671875
8380		17.578125
8381		13.671875
8382		17.578125
8383		13.671875
8384		17.578125
8385		13.671875
8386		17.578125
8387		13.671875
8388		15.625000
8389		11.718750
8390		15.625000
8391		13.671875
8392		15.625000
8393		13.671875
8394		15.625000
8395		11.718750
8396		15.625000
8397		11.718750
8398		15.625000
8399		11.718750
8400		15.625000
8401		11.718750
8402		15.625000
8403		11.718750
8404		15.625000
8405		9.765625
8406		15.625000
8407		9.765625
8408		13.671875
8409		11.718750
8410		13.671875
8411		9.765625
8412		13.671875
8413		9.765625
8414		13.671875
8415		9.765625
8416		11.718750
8417		9.765625
8418		11.718750
8419		7.812500
8420		11.718750
8421		7.812500
8422		11.718750
8423		7.812500
8424		11.718750
8425		7.812500
8426		9.765625
8427		7.812500
8428		9.765625
8429		7.812500
8430		11.718750
8431		7.812500
8432		9.765625
8433		5.859375
8434		9.765625
8435		5.859375
8436		9.765625
8437		5.859375
8438		9.765625
8439		5.859375
8440		7.812500
8441		3.906250
8442		7.812500
8443		5.859375
8444		7.812500
8445		3.906250
8446		7.812500
8447		3.906250
8448		7.812500
8449		3.906250
8450		7.812500
8451		1.953125
8452		7.812500
8453		3.906250
8454		7.812500
8455		3.906250
8456		5.859375
8457		3.906250
8458		5.859375
8459		3.906250
8460		5.859375
8461		1.953125
8462		5.859375
8463		1.953125
8464		5.859375
8465		1.953125
8466		5.859375
8467		1.953125
8468		5.859375
8469		1.953125
8470		5.859375
8471		1.953125
8472		3.906250
8473		0.000000
8474		5.859375
8475		1.953125
8476		3.906250
8477		1.953125
8478		3.906250
8479		0.000000
8480		5.859375
8481		1.953125
8482		3.906250
8483		0.000000
8484		3.906250
8485		1.953125
8486		3.906250
8487		1.953125
8488		3.906250
8489		0.000000
8490		3.906250
8491		1.953125
8492		3.906250
8493		1.953125
8494		3.906250
8495		0.000000
8496		5.859375
8497		1.953125
8498		3.906250
8499		1.953125
8500		3.906250
8501		1.953125
8502		3.906250
8503		1.953125
8504		5.859375
8505		0.000000
8506		5.859375
8507		1.953125
8508		5.859375
8509		1.953125
8510		5.859375
8511		0.000000
8512		5.859375
8513		1.953125
8514		5.859375
8515		1.953125
8516		5.859375
8517		3.906250
8518		5.859375
8519		3.906250
8520		7.812500
8521		3.906250
8522		5.859375
8523		3.906250
8524		7.812500
8525		3.906250
8526		7.812500
8527		3.906250
8528		7.812500
8529		3.906250
8530		9.765625
8531		5.859375
8532		7.812500
8533		5.859375
8534		7.812500
8535		5.859375
8536		9.765625
8537		5.859375
8538		9.765625
8539		5.859375
8540		9.765625
8541		5.859375
8542		9.765625
8543		7.812500
8544		9.765625
8545		7.812500
8546		11.718750
8547		7.812500
8548		11.718750
8549		7.812500
8550		11.718750
8551		7.812500
8552		11.718750
8553		7.812500
8554		11.718750
8555		9.765625
8556		11.718750
8557		9.765625
8558		13.671875
8559		9.765625
8560		11.718750
8561		9.765625
8562		13.671875
8563		9.765625
8564		15.625000
8565		9.765625
8566		13.671875
8567		11.718750
8568		13.671875
8569		11.718750
8570		13.671875
8571		11.718750
8572		15.625000
8573		11.718750
8574		15.625000
8575		11.718750
8576		15.625000
8577		13.671875
8578		15.625000
8579		11.718750
8580		17.578125
8581		13.671875
8582		15.625000
8583		13.671875
8584		17.578125
8585		13.671875
8586		15.625000
8587		13.671875
8588		17.578125
8589		13.671875
8590		15.625000
8591		13.671875
8592		17.578125
8593		13.671875
8594		17.578125
8595		13.671875
8596		17.578125
8597		13.671875
8598		19.531250
8599		13.671875
8600		17.578125
8601		15.625000
8602		17.578125
8603		13.671875
8604		17.578125
8605		13.671875
8606		17.578125
8607		15.625000
8608		17.578125
8609		13.671875
8610		17.578125
8611		15.625000
8612		17.578125
8613		13.671875
8614		19.531250
8615		13.671875
8616		17.578125
8617		13.671875
8618		17.578125
8619		13.671875
8620		17.578125
8621		13.671875
8622		17.578125
8623		13.671875
8624		17.578125
8625		13.671875
8626		17.578125
8627		13.671875
8628		17.578125
8629		13.671875
8630		17.578125
8631		13.671875
8632		17.578125
8633		13.671875
8634		17.578125
8635		13.671875
8636		17.578125
8637		13.671875
8638		17.578125
8639		13.671875
8640		17.578125
8641		11.718750
8642		17.578125
8643		13.671875
8644		15.625000
8645		13.671875
8646		15.625000
8647		11.718750
8648		15.625000
8649		11.718750
8650		15.625000
8651		11.718750
8652		15.625000
8653		11.718750
8654		15.625000
8655		11.718750
8656		13.671875
8657		11.718750
8658		13.671875
8659		9.765625
8660		13.671875
8661		9.765625
8662		13.671875
8663		9.765625
8664		13.671875
8665		9.765625
8666		13.671875
8667		9.765625
8668		11.718750
8669		9.765625
8670		11.718750
8671		7.812500
8672		11.718750
8673		7.812500
8674		11.718750
8675		7.812500
8676		11.718750
8677		7.812500
8678		9.765625
8679		7.812500
8680		9.765625
8681		7.812500
8682		9.765625
8683		5.859375
8684		9.765625
8685		5.859375
8686		9.765625
8687		5.859375
8688		9.765625
8689		5.859375
8690		7.812500
8691		5.859375
8692		7.812500
8693		5.859375
8694		7.812500
8695		5.859375
8696		7.812500
8697		3.906250
8698		7.812500
8699		3.906250
8700		7.812500
8701		3.906250
8702		7.812500
8703		3.906250
8704		7.812500
8705		3.906250
8706		5.859375
8707		1.953125
8708		5.859375
8709		3.906250
8710		5.859375
8711		3.906250
8712		5.859375
8713		1.953125
8714		5.859375
8715		1.953125
8716		5.859375
8717		1.953125
8718		5.859375
8719		1.953125
8720		5.859375
8721		1.953125
8722		5.859375
8723		1.953125
8724		3.906250
8725		0.000000
8726		5.859375
8727		1.953125
8728		3.906250
8729		1.953125
8730		3.906250
8731		1.953125
8732		3.906250
8733		1.953125
8734		3.906250
8735		1.953125
8736		3.906250
8737		1.953125
8738		3.906250
8739		0.000000
8740		3.906250
8741		1.953125
8742		3.906250
8743		0.000000
8744		5.859375
8745		1.953125
8746		3.906250
8747		1.953125
8748		3.906250
8749		1.953125
8750		3.906250
8751		1.953125
8752		3.906250
8753		1.953125
8754		5.859375
8755		1.953125
8756		5.859375
8757		1.953125
8758		5.859375
8759		1.953125
8760		5.859375
8761		1.953125
8762		5.859375
8763		3.906250
8764		5.859375
8765		1.953125
8766		5.859375
8767		1.953125
8768		5.859375
8769		1.953125
8770		5.859375
8771		3.906250
8772		5.859375
8773		3.906250
8774		5.859375
8775		3.906250
8776		7.812500
8777		3.906250
8778		7.812500
8779		5.859375
8780		7.812500
8781		3.906250
8782		7.812500
8783		5.859375
8784		7.812500
8785		5.859375
8786		7.812500
8787		5.859375
8788		7.812500
8789		7.812500
8790		9.765625
8791		5.859375
8792		9.765625
8793		5.859375
8794		9.765625
8795		7.812500
8796		9.765625
8797		7.812500
8798		11.718750
8799		7.812500
8800		11.718750
8801		7.812500
8802		11.718750
8803		7.812500
8804		11.718750
8805		7.812500
8806		11.718750
8807		9.765625
8808		11.718750
8809		9.765625
8810		13.671875
8811		9.765625
8812		13.671875
8813		11.718750
8814		13.671875
8815		11.718750
8816		13.671875
8817		9.765625
8818		13.671875
8819		11.718750
8820		15.625000
8821		11.718750
8822		15.625000
8823		11.718750
8824		15.625000
8825		11.718750
8826		15.625000
8827		11.718750
8828		15.625000
8829		13.671875
8830		15.625000
8831		13.671875
8832		15.625000
8833		13.671875
8834		15.625000
8835		13.671875
8836		17.578125
8837		13.671875
8838		15.625000
8839		13.671875
8840		17.578125
8841		13.671875
8842		17.578125
8843		13.671875
8844		17.578125
8845		15.625000
8846		17.578125
8847		15.625000
8848		17.578125
8849		13.671875
8850		19.531250
8851		13.671875
8852		17.578125
8853		15.625000
8854		17.578125
8855		15.625000
8856		17.578125
8857		15.625000
8858		17.578125
8859		15.625000
8860		17.578125
8861		13.671875
8862		17.578125
8863		15.625000
8864		17.578125
8865		15.625000
8866		19.531250
8867		13.671875
8868		17.578125
8869		15.625000
8870		17.578125
8871		15.625000
8872		17.578125
8873		13.671875
8874		17.578125
8875		15.625000
8876		17.578125
8877		13.671875
8878		17.578125
8879		15.625000
8880		17.578125
8881		13.671875
8882		17.578125
8883		13.671875
8884		17.578125
8885		13.671875
8886		17.578125
8887		13.671875
8888		17.578125
8889		13.671875
8890		17.578125
8891		13.671875
8892		15.625000
8893		13.671875
8894		15.625000
8895		13.671875
8896		15.625000
8897		11.718750
8898		15.625000
8899		11.718750
8900		15.625000
8901		11.718750
8902		15.625000
8903		11.718750
8904		15.625000
8905		11.718750
8906		13.671875
8907		11.718750
8908		13.671875
8909		11.718750
8910		15.625000
8911		11.718750
8912		13.671875
8913		11.718750
8914		13.671875
8915		7.812500
8916		13.671875
8917		9.765625
8918		13.671875
8919		9.765625
8920		13.671875
8921		9.765625
8922		11.718750
8923		9.765625
8924		11.718750
8925		7.812500
8926		11.718750
8927		7.812500
8928		11.718750
8929		7.812500
8930		9.765625
8931		7.812500
8932		9.765625
8933		7.812500
8934		9.765625
8935		7.812500
8936		9.765625
8937		5.859375
8938		9.765625
8939		5.859375
8940		9.765625
8941		5.859375
8942		9.765625
8943		5.859375
8944		9.765625
8945		3.906250
8946		9.765625
8947		5.859375
8948		7.812500
8949		3.906250
8950		7.812500
8951		3.906250
8952		7.812500
8953		3.906250
8954		7.812500
8955		3.906250
8956		7.812500
8957		3.906250
8958		7.812500
8959		1.953125
8960		5.859375
8961		1.953125
8962		5.859375
8963		1.953125
8964		5.859375
8965		1.953125
8966		5.859375
8967		1.953125
8968		5.859375
8969		1.953125
8970		5.859375
8971		1.953125
8972		5.859375
8973		1.953125
8974		3.906250
8975		1.953125
8976		5.859375
8977		1.953125
8978		5.859375
8979		1.953125
8980		3.906250
8981		1.953125
8982		3.906250
8983		0.000000
8984		5.859375
8985		1.953125
8986		3.906250
8987		0.000000
8988		3.906250
8989		1.953125
8990		3.906250
8991		1.953125
8992		3.906250
8993		1.953125
8994		3.906250
8995		1.953125
8996		3.906250
8997		1.953125
8998		3.906250
8999		1.953125
9000		5.859375
9001		1.953125
9002		5.859375
9003		1.953125
9004		3.906250
9005		1.953125
9006		3.906250
9007		1.953125
9008		5.859375
9009		1.953125
9010		5.859375
9011		1.953125
9012		5.859375
9013		3.906250
9014		5.859375
9015		3.906250
9016		5.859375
9017		3.906250
9018		5.859375
9019		3.906250
9020		5.859375
9021		3.906250
9022		5.859375
9023		3.906250
9024		5.859375
9025		3.906250
9026		7.812500
9027		3.906250
9028		7.812500
9029		3.906250
9030		7.812500
9031		5.859375
9032		7.812500
9033		5.859375
9034		7.812500
9035		5.859375
9036		9.765625
9037		5.859375
9038		9.765625
9039		5.859375
9040		9.765625
9041		5.859375
9042		9.765625
9043		5.859375
9044		9.765625
9045		5.859375
9046		11.718750
9047		7.812500
9048		9.765625
9049		7.812500
9050		9.765625
9051		7.812500
9052		11.718750
9053		7.812500
9054		11.718750
9055		9.765625
9056		11.718750
9057		9.765625
9058		13.671875
9059		9.765625
9060		13.671875
9061		9.765625
9062		13.671875
9063		9.765625
9064		13.671875
9065		11.718750
9066		13.671875
9067		9.765625
9068		13.671875
9069		11.718750
9070		15.625000
9071		11.718750
9072		15.625000
9073		11.718750
9074		15.625000
9075		11.718750
9076		15.625000
9077		11.718750
9078		15.625000
9079		11.718750
9080		15.625000
9081		13.671875
9082		15.625000
9083		13.671875
9084		17.578125
9085		13.671875
9086		17.578125
9087		13.671875
9088		17.578125
9089		13.671875
9090		17.578125
9091		13.671875
9092		17.578125
9093		13.671875
9094		17.578125
9095		13.671875
9096		17.578125
9097		15.625000
9098		17.578125
9099		15.625000
9100		17.578125
9101		13.671875
9102		17.578125
9103		15.625000
9104		17.578125
9105		15.625000
9106		17.578125
9107		15.625000
9108		17.578125
9109		15.625000
9110		17.578125
9111		15.625000
9112		17.578125
9113		15.625000
9114		19.531250
9115		15.625000
9116		19.531250
9117		15.625000
9118		19.531250
9119		15.625000
9120		17.578125
9121		15.625000
9122		17.578125
9123		15.625000
9124		17.578125
9125		15.625000
9126		17.578125
9127		15.625000
9128		17.578125
9129		13.671875
9130		17.578125
9131		15.625000
9132		17.578125
9133		15.625000
9134		17.578125
9135		13.671875
9136		17.578125
9137		13.671875
9138		17.578125
9139		13.671875
9140		17.578125
9141		13.671875
9142		17.578125
9143		13.671875
9144		17.578125
9145		13.671875
9146		15.625000
9147		11.718750
9148		15.625000
9149		13.671875
9150		15.625000
9151		11.718750
9152		15.625000
9153		11.718750
9154		15.625000
9155		11.718750
9156		15.625000
9157		11.718750
9158		15.625000
9159		11.718750
9160		13.671875
9161		11.718750
9162		13.671875
9163		9.765625
9164		15.625000
9165		9.765625
9166		13.671875
9167		9.765625
9168		13.671875
9169		9.765625
9170		13.671875
9171		9.765625
9172		11.718750
9173		9.765625
9174		11.718750
9175		7.812500
9176		11.718750
9177		7.812500
9178		11.718750
9179		7.812500
9180		11.718750
9181		7.812500
9182		9.765625
9183		7.812500
9184		9.765625
9185		5.859375
9186		9.765625
9187		5.859375
9188		9.765625
9189		5.859375
9190		9.765625
9191		5.859375
9192		9.765625
9193		5.859375
9194		9.765625
9195		5.859375
9196		7.812500
9197		3.906250
9198		9.765625
9199		3.906250
9200		7.812500
9201		3.906250
9202		7.812500
9203		3.906250
9204		7.812500
9205		3.906250
9206		7.812500
9207		3.906250
9208		5.859375
9209		3.906250
9210		5.859375
9211		3.906250
9212		5.859375
9213		1.953125
9214		5.859375
9215		3.906250
9216		5.859375
9217		3.906250
9218		5.859375
9219		1.953125
9220		5.859375
9221		1.953125
9222		5.859375
9223		1.953125
9224		5.859375
9225		1.953125
9226		5.859375
9227		1.953125
9228		3.906250
9229		1.953125
9230		5.859375
9231		1.953125
9232		5.859375
9233		1.953125
9234		3.906250
9235		1.953125
9236		5.859375
9237		1.953125
9238		3.906250
9239		1.953125
9240		3.906250
9241		1.953125
9242		3.906250
9243		1.953125
9244		3.906250
9245		1.953125
9246		3.906250
9247		1.953125
9248		5.859375
9249		1.953125
9250		3.906250
9251		0.000000
9252		5.859375
9253		1.953125
9254		5.859375
9255		1.953125
9256		3.906250
9257		1.953125
9258		5.859375
9259		1.953125
9260		5.859375
9261		1.953125
9262		5.859375
9263		1.953125
9264		5.859375
9265		3.906250
9266		5.859375
9267		3.906250
9268		5.859375
9269		1.953125
9270		5.859375
9271		3.906250
9272		5.859375
9273		3.906250
9274		7.812500
9275		3.906250
9276		7.812500
9277		3.906250
9278		7.812500
9279		3.906250
9280		7.812500
9281		3.906250
9282		9.765625
9283		5.859375
9284		7.812500
9285		5.859375
9286		9.765625
9287		5.859375
9288		9.765625
9289		5.859375
9290		9.765625
9291		5.859375
9292		9.765625
9293		5.859375
9294		9.765625
9295		7.812500
9296		9.765625
9297		5.859375
9298		11.718750
9299		7.812500
9300		9.765625
9301		7.812500
9302		11.718750
9303		7.812500
9304		11.718750
9305		7.812500
9306		11.718750
9307		9.765625
9308		11.718750
9309		9.765625
9310		13.671875
9311		9.765625
9312		13.671875
9313		9.765625
9314		13.671875
9315		9.765625
9316		13.671875
9317		11.718750
9318		13.671875
9319		9.765625
9320		13.671875
9321		11.718750
9322		15.625000
9323		11.718750
9324		15.625000
9325		11.718750
9326		15.625000
9327		11.718750
9328		15.625000
9329		11.718750
9330		15.625000
9331		13.671875
9332		15.625000
9333		13.671875
9334		15.625000
9335		13.671875
9336		17.578125
9337		13.671875
9338		17.578125
9339		13.671875
9340		17.578125
9341		13.671875
9342		17.578125
9343		15.625000
9344		17.578125
9345		13.671875
9346		17.578125
9347		13.671875
9348		17.578125
9349		15.625000
9350		17.578125
9351		15.625000
9352		17.578125
9353		13.671875
9354		19.531250
9355		15.625000
9356		17.578125
9357		15.625000
9358		17.578125
9359		15.625000
9360		17.578125
9361		15.625000
9362		17.578125
9363		15.625000
9364		17.578125
9365		15.625000
9366		19.531250
9367		15.625000
9368		17.578125
9369		15.625000
9370		19.531250
9371		15.625000
9372		17.578125
9373		15.625000
9374		17.578125
9375		15.625000
9376		17.578125
9377		13.671875
9378		17.578125
9379		15.625000
9380		17.578125
9381		13.671875
9382		17.578125
9383		15.625000
9384		17.578125
9385		15.625000
9386		17.578125
9387		13.671875
9388		17.578125
9389		13.671875
9390		17.578125
9391		13.671875
9392		17.578125
9393		13.671875
9394		15.625000
9395		13.671875
9396		15.625000
9397		13.671875
9398		15.625000
9399		13.671875
9400		15.625000
9401		11.718750
9402		15.625000
9403		11.718750
9404		15.625000
9405		11.718750
9406		15.625000
9407		11.718750
9408		15.625000
9409		11.718750
9410		15.625000
9411		11.718750
9412		13.671875
9413		9.765625
9414		13.671875
9415		9.765625
9416		13.671875
9417		11.718750
9418		13.671875
9419		9.765625
9420		13.671875
9421		9.765625
9422		13.671875
9423		9.765625
9424		11.718750
9425		7.812500
9426		11.718750
9427		7.812500
9428		11.718750
9429		7.812500
9430		11.718750
9431		7.812500
9432		11.718750
9433		7.812500
9434		9.765625
9435		7.812500
9436		9.765625
9437		7.812500
9438		9.765625
9439		7.812500
9440		9.765625
9441		5.859375
9442		9.765625
9443		5.859375
9444		9.765625
9445		5.859375
9446		9.765625
9447		5.859375
9448		7.812500
9449		3.906250
9450		7.812500
9451		5.859375
9452		7.812500
9453		3.906250
9454		7.812500
9455		3.906250
9456		7.812500
9457		3.906250
9458		7.812500
9459		3.906250
9460		7.812500
9461		3.906250
9462		5.859375
9463		3.906250
9464		5.859375
9465		3.906250
9466		5.859375
9467		3.906250
9468		5.859375
9469		3.906250
9470		5.859375
9471		1.953125
9472		5.859375
9473		1.953125
9474		5.859375
9475		1.953125
9476		5.859375
9477		1.953125
9478		5.859375
9479		1.953125
9480		5.859375
9481		1.953125
9482		5.859375
9483		1.953125
9484		5.859375
9485		1.953125
9486		3.906250
9487		1.953125
9488		5.859375
9489		1.953125
9490		3.906250
9491		1.953125
9492		5.859375
9493		1.953125
9494		3.906250
9495		1.953125
9496		3.906250
9497		1.953125
9498		5.859375
9499		0.000000
9500		5.859375
9501		1.953125
9502		3.906250
9503		1.953125
9504		5.859375
9505		1.953125
9506		5.859375
9507		1.953125
9508		5.859375
9509		1.953125
9510		5.859375
9511		1.953125
9512		5.859375
9513		1.953125
9514		5.859375
9515		1.953125
9516		5.859375
9517		3.906250
9518		5.859375
9519		3.906250
9520		5.859375
9521		3.906250
9522		5.859375
9523		3.906250
9524		7.812500
9525		3.906250
9526		7.812500
9527		3.906250
9528		7.812500
9529		3.906250
9530		7.812500
9531		3.906250
9532		7.812500
9533		5.859375
9534		9.765625
9535		5.859375
9536		7.812500
9537		5.859375
9538		9.765625
9539		5.859375
9540		9.765625
9541		5.859375
9542		9.765625
9543		7.812500
9544		9.765625
9545		7.812500
9546		9.765625
9547		7.812500
9548		11.718750
9549		7.812500
9550		11.718750
9551		7.812500
9552		11.718750
9553		9.765625
9554		11.718750
9555		7.812500
9556		11.718750
9557		9.765625
9558		11.718750
9559		9.765625
9560		13.671875
9561		9.765625
9562		13.671875
9563		9.765625
9564		13.671875
9565		9.765625
9566		13.671875
9567		9.765625
9568		13.671875
9569		11.718750
9570		13.671875
9571		11.718750
9572		15.625000
9573		11.718750
9574		15.625000
9575		11.718750
9576		15.625000
9577		13.671875
9578		15.625000
9579		13.671875
9580		15.625000
9581		11.718750
9582		15.625000
9583		13.671875
9584		17.578125
9585		13.671875
9586		15.625000
9587		13.671875
9588		15.625000
9589		13.671875
9590		17.578125
9591		13.671875
9592		17.578125
9593		13.671875
9594		17.578125
9595		13.671875
9596		17.578125
9597		15.625000
9598		17.578125
9599		15.625000
9600		19.531250
9601		15.625000
9602		17.578125
9603		15.625000
9604		17.578125
9605		13.671875
9606		19.531250
9607		15.625000
9608		17.578125
9609		15.625000
9610		19.531250
9611		15.625000
9612		19.531250
9613		15.625000
9614		19.531250
9615		15.625000
9616		19.531250
9617		15.625000
9618		19.531250
9619		15.625000
9620		17.578125
9621		15.625000
9622		19.531250
9623		15.625000
9624		19.531250
9625		15.625000
9626		17.578125
9627		15.625000
9628		17.578125
9629		15.625000
9630		17.578125
9631		15.625000
9632		17.578125
9633		13.671875
9634		17.578125
9635		15.625000
9636		17.578125
9637		15.625000
9638		17.578125
9639		13.671875
9640		17.578125
9641		13.671875
9642		17.578125
9643		13.671875
9644		17.578125
9645		13.671875
9646		17.578125
9647		13.671875
9648		17.578125
9649		13.671875
9650		15.625000
9651		11.718750
9652		15.625000
9653		13.671875
9654		15.625000
9655		11.718750
9656		15.625000
9657		11.718750
9658		15.625000
9659		11.718750
9660		15.625000
9661		11.718750
9662		15.625000
9663		11.718750
9664		13.671875
9665		11.718750
9666		13.671875
9667		9.765625
9668		13.671875
9669		11.718750
9670		13.671875
9671		9.765625
9672		13.671875
9673		9.765625
9674		13.671875
9675		9.765625
9676		13.671875
9677		9.765625
9678		11.718750
9679		7.812500
9680		11.718750
9681		7.812500
9682		11.718750
9683		7.812500
9684		11.718750
9685		7.812500
9686		11.718750
9687		7.812500
9688		9.765625
9689		5.859375
9690		9.765625
9691		5.859375
9692		9.765625
9693		5.859375
9694		9.765625
9695		5.859375
9696		9.765625
9697		5.859375
9698		9.765625
9699		5.859375
9700		7.812500
9701		3.906250
9702		7.812500
9703		5.859375
9704		7.812500
9705		3.906250
9706		7.812500
9707		3.906250
9708		7.812500
9709		3.906250
9710		7.812500
9711		3.906250
9712		7.812500
9713		3.906250
9714		7.812500
9715		3.906250
9716		5.859375
9717		1.953125
9718		5.859375
9719		3.906250
9720		5.859375
9721		3.906250
9722		5.859375
9723		1.953125
9724		5.859375
9725		1.953125
9726		5.859375
9727		1.953125
9728		5.859375
9729		1.953125
9730		5.859375
9731		1.953125
9732		5.859375
9733		1.953125
9734		5.859375
9735		1.953125
9736		5.859375
9737		1.953125
9738		5.859375
9739		1.953125
9740		5.859375
9741		1.953125
9742		3.906250
9743		1.953125
9744		5.859375
9745		1.953125
9746		3.906250
9747		1.953125
9748		5.859375
9749		1.953125
9750		5.859375
9751		1.953125
9752		5.859375
9753		1.953125
9754		3.906250
9755		1.953125
9756		3.906250
9757		1.953125
9758		5.859375
9759		1.953125
9760		5.859375
9761		1.953125
9762		5.859375
9763		3.906250
9764		5.859375
9765		1.953125
9766		5.859375
9767		3.906250
9768		5.859375
9769		1.953125
9770		7.812500
9771		3.906250
9772		5.859375
9773		3.906250
9774		7.812500
9775		3.906250
9776		7.812500
9777		3.906250
9778		7.812500
9779		3.906250
9780		7.812500
9781		5.859375
9782		7.812500
9783		5.859375
9784		7.812500
9785		3.906250
9786		9.765625
9787		5.859375
9788		7.812500
9789		5.859375
9790		9.765625
9791		5.859375
9792		9.765625
9793		7.812500
9794		9.765625
9795		7.812500
9796		11.718750
9797		7.812500
9798		9.765625
9799		7.812500
9800		11.718750
9801		7.812500
9802		11.718750
9803		7.812500
9804		11.718750
9805		9.765625
9806		11.718750
9807		7.812500
9808		13.671875
9809		9.765625
9810		13.671875
9811		9.765625
9812		13.671875
9813		11.718750
9814		13.671875
9815		9.765625
9816		13.671875
9817		11.718750
9818		13.671875
9819		11.718750
9820		13.671875
9821		11.718750
9822		13.671875
9823		11.718750
9824		15.625000
9825		11.718750
9826		15.625000
9827		11.718750
9828		15.625000
9829		13.671875
9830		15.625000
9831		13.671875
9832		17.578125
9833		13.671875
9834		15.625000
9835		13.671875
9836		17.578125
9837		13.671875
9838		15.625000
9839		13.671875
9840		17.578125
9841		13.671875
9842		17.578125
9843		13.671875
9844		17.578125
9845		13.671875
9846		17.578125
9847		15.625000
9848		17.578125
9849		15.625000
9850		17.578125
9851		15.625000
9852		17.578125
9853		13.671875
9854		19.531250
9855		15.625000
9856		17.578125
9857		15.625000
9858		19.531250
9859		15.625000
9860		17.578125
9861		15.625000
9862		19.531250
9863		15.625000
9864		19.531250
9865		15.625000
9866		17.578125
9867		15.625000
9868		19.531250
9869		15.625000
9870		19.531250
9871		15.625000
9872		17.578125
9873		15.625000
9874		19.531250
9875		15.625000
9876		19.531250
9877		15.625000
9878		17.578125
9879		15.625000
9880		17.578125
9881		15.625000
9882		19.531250
9883		15.625000
9884		17.578125
9885		15.625000
9886		17.578125
9887		15.625000
9888		17.578125
9889		15.625000
9890		17.578125
9891		13.671875
9892		17.578125
9893		13.671875
9894		17.578125
9895		13.671875
9896		17.578125
9897		13.671875
9898		15.625000
9899		13.671875
9900		17.578125
9901		13.671875
9902		15.625000
9903		13.671875
9904		15.625000
9905		13.671875
9906		15.625000
9907		11.718750
9908		15.625000
9909		11.718750
9910		15.625000
9911		11.718750
9912		15.625000
9913		11.718750
9914		13.671875
9915		11.718750
9916		13.671875
9917		9.765625
9918		13.671875
9919		9.765625
9920		13.671875
9921		9.765625
9922		13.671875
9923		9.765625
9924		11.718750
9925		9.765625
9926		13.671875
9927		9.765625
9928		11.718750
9929		9.765625
9930		11.718750
9931		7.812500
9932		11.718750
9933		7.812500
9934		11.718750
9935		7.812500
9936		11.718750
9937		7.812500
9938		11.718750
9939		7.812500
9940		9.765625
9941		5.859375
9942		9.765625
9943		5.859375
9944		9.765625
9945		5.859375
9946		9.765625
9947		5.859375
9948		9.765625
9949		5.859375
9950		9.765625
9951		5.859375
9952		7.812500
9953		5.859375
9954		7.812500
9955		5.859375
9956		7.812500
9957		3.906250
9958		7.812500
9959		3.906250
9960		7.812500
9961		3.906250
9962		7.812500
9963		3.906250
9964		7.812500
9965		3.906250
9966		7.812500
9967		3.906250
9968		5.859375
9969		1.953125
9970		7.812500
9971		3.906250
9972		5.859375
9973		3.906250
9974		5.859375
9975		1.953125
9976		5.859375
9977		1.953125
9978		5.859375
9979		1.953125
9980		5.859375
9981		1.953125
9982		5.859375
9983		1.953125
9984		5.859375
9985		1.953125
9986		5.859375
9987		0.000000
9988		5.859375
9989		1.953125
9990		3.906250
9991		1.953125
9992		5.859375
9993		1.953125
9994		3.906250
9995		1.953125
9996		5.859375
9997		1.953125
9998		3.906250
9999		1.953125
10000		5.859375
