Channel              :		CH1
Frequency            :		1.059kHz
Period               :		0.944ms
PK-PK                :		58.59mV
Probe attenuation    :		1X
Voltage per ADC value:		0.122070mV
Time interval        :		2.00000us

index		CH1_Voltage(mV)
1		9.765625
2		9.765625
3		7.812500
4		9.765625
5		5.859375
6		9.765625
7		5.859375
8		7.812500
9		5.859375
10		7.812500
11		3.906250
12		7.812500
13		3.906250
14		7.812500
15		3.906250
16		5.859375
17		1.953125
18		5.859375
19		1.953125
20		3.906250
21		0.000000
22		3.906250
23		0.000000
24		3.906250
25		0.000000
26		3.906250
27		0.000000
28		1.953125
29		-1.953125
30		1.953125
31		-1.953125
32		1.953125
33		-1.953125
34		0.000000
35		-1.953125
36		0.000000
37		-3.906250
38		-1.953125
39		-5.859375
40		0.000000
41		-5.859375
42		-1.953125
43		-5.859375
44		-1.953125
45		-5.859375
46		-3.906250
47		-5.859375
48		-3.906250
49		-7.812500
50		-3.906250
51		-7.812500
52		-3.906250
53		-7.812500
54		-5.859375
55		-7.812500
56		-5.859375
57		-9.765625
58		-5.859375
59		-9.765625
60		-5.859375
61		-9.765625
62		-7.812500
63		-9.765625
64		-7.812500
65		-11.718750
66		-7.812500
67		-11.718750
68		-7.812500
69		-11.718750
70		-9.765625
71		-13.671875
72		-9.765625
73		-11.718750
74		-9.765625
75		-13.671875
76		-9.765625
77		-13.671875
78		-9.765625
79		-13.671875
80		-9.765625
81		-13.671875
82		-11.718750
83		-15.625000
84		-11.718750
85		-13.671875
86		-11.718750
87		-15.625000
88		-11.718750
89		-15.625000
90		-11.718750
91		-15.625000
92		-11.718750
93		-15.625000
94		-13.671875
95		-15.625000
96		-13.671875
97		-17.578125
98		-13.671875
99		-15.625000
100		-13.671875
101		-17.578125
102		-13.671875
103		-17.578125
104		-13.671875
105		-17.578125
106		-13.671875
107		-17.578125
108		-13.671875
109		-17.578125
110		-13.671875
111		-17.578125
112		-13.671875
113		-17.578125
114		-13.671875
115		-17.578125
116		-13.671875
117		-17.578125
118		-13.671875
119		-17.578125
120		-15.625000
121		-17.578125
122		-13.671875
123		-17.578125
124		-13.671875
125		-17.578125
126		-13.671875
127		-17.578125
128		-13.671875
129		-17.578125
130		-13.671875
131		-17.578125
132		-13.671875
133		-17.578125
134		-13.671875
135		-17.578125
136		-13.671875
137		-15.625000
138		-13.671875
139		-17.578125
140		-13.671875
141		-15.625000
142		-13.671875
143		-15.625000
144		-11.718750
145		-15.625000
146		-11.718750
147		-15.625000
148		-11.718750
149		-15.625000
150		-11.718750
151		-13.671875
152		-11.718750
153		-13.671875
154		-11.718750
155		-13.671875
156		-11.718750
157		-13.671875
158		-11.718750
159		-13.671875
160		-9.765625
161		-13.671875
162		-9.765625
163		-11.718750
164		-9.765625
165		-11.718750
166		-9.765625
167		-11.718750
168		-7.812500
169		-11.718750
170		-9.765625
171		-11.718750
172		-7.812500
173		-11.718750
174		-7.812500
175		-9.765625
176		-7.812500
177		-9.765625
178		-5.859375
179		-9.765625
180		-5.859375
181		-7.812500
182		-5.859375
183		-7.812500
184		-5.859375
185		-7.812500
186		-3.906250
187		-5.859375
188		-3.906250
189		-5.859375
190		-3.906250
191		-5.859375
192		-3.906250
193		-5.859375
194		-1.953125
195		-5.859375
196		-1.953125
197		-3.906250
198		-1.953125
199		-3.906250
200		0.000000
201		-3.906250
202		0.000000
203		-1.953125
204		0.000000
205		-1.953125
206		0.000000
207		-1.953125
208		1.953125
209		0.000000
210		1.953125
211		0.000000
212		1.953125
213		0.000000
214		3.906250
215		0.000000
216		3.906250
217		1.953125
218		3.906250
219		1.953125
220		5.859375
221		3.906250
222		5.859375
223		1.953125
224		5.859375
225		3.906250
226		7.812500
227		3.906250
228		7.812500
229		5.859375
230		7.812500
231		5.859375
232		9.765625
233		7.812500
234		9.765625
235		7.812500
236		9.765625
237		7.812500
238		11.718750
239		9.765625
240		11.718750
241		7.812500
242		13.671875
243		9.765625
244		13.671875
245		9.765625
246		13.671875
247		11.718750
248		13.671875
249		11.718750
250		15.625000
251		11.718750
252		15.625000
253		11.718750
254		15.625000
255		13.671875
256		15.625000
257		13.671875
258		17.578125
259		13.671875
260		17.578125
261		15.625000
262		17.578125
263		15.625000
264		19.531250
265		15.625000
266		19.531250
267		17.578125
268		19.531250
269		17.578125
270		21.484375
271		17.578125
272		21.484375
273		19.531250
274		21.484375
275		19.531250
276		21.484375
277		19.531250
278		23.437500
279		19.531250
280		23.437500
281		19.531250
282		23.437500
283		21.484375
284		23.437500
285		21.484375
286		25.390625
287		23.437500
288		25.390625
289		23.437500
290		25.390625
291		21.484375
292		27.343750
293		23.437500
294		25.390625
295		23.437500
296		27.343750
297		23.437500
298		27.343750
299		25.390625
300		27.343750
301		25.390625
302		29.296875
303		25.390625
304		27.343750
305		25.390625
306		27.343750
307		25.390625
308		29.296875
309		25.390625
310		29.296875
311		27.343750
312		29.296875
313		27.343750
314		29.296875
315		27.343750
316		31.250000
317		27.343750
318		31.250000
319		27.343750
320		31.250000
321		29.296875
322		31.250000
323		29.296875
324		31.250000
325		29.296875
326		33.203125
327		29.296875
328		31.250000
329		29.296875
330		31.250000
331		29.296875
332		33.203125
333		29.296875
334		33.203125
335		29.296875
336		33.203125
337		29.296875
338		33.203125
339		31.250000
340		33.203125
341		31.250000
342		33.203125
343		29.296875
344		33.203125
345		31.250000
346		33.203125
347		31.250000
348		33.203125
349		31.250000
350		33.203125
351		29.296875
352		33.203125
353		29.296875
354		33.203125
355		31.250000
356		33.203125
357		29.296875
358		33.203125
359		31.250000
360		33.203125
361		29.296875
362		33.203125
363		29.296875
364		33.203125
365		31.250000
366		33.203125
367		31.250000
368		33.203125
369		29.296875
370		33.203125
371		31.250000
372		33.203125
373		29.296875
374		31.250000
375		29.296875
376		33.203125
377		29.296875
378		33.203125
379		29.296875
380		33.203125
381		29.296875
382		31.250000
383		29.296875
384		31.250000
385		29.296875
386		31.250000
387		27.343750
388		31.250000
389		29.296875
390		31.250000
391		27.343750
392		31.250000
393		27.343750
394		31.250000
395		27.343750
396		31.250000
397		27.343750
398		29.296875
399		27.343750
400		29.296875
401		27.343750
402		29.296875
403		25.390625
404		29.296875
405		25.390625
406		29.296875
407		25.390625
408		27.343750
409		25.390625
410		27.343750
411		25.390625
412		27.343750
413		23.437500
414		27.343750
415		23.437500
416		27.343750
417		23.437500
418		27.343750
419		23.437500
420		25.390625
421		23.437500
422		25.390625
423		23.437500
424		23.437500
425		21.484375
426		25.390625
427		21.484375
428		23.437500
429		21.484375
430		23.437500
431		19.531250
432		23.437500
433		19.531250
434		23.437500
435		19.531250
436		21.484375
437		17.578125
438		21.484375
439		17.578125
440		19.531250
441		15.625000
442		21.484375
443		17.578125
444		19.531250
445		15.625000
446		19.531250
447		15.625000
448		17.578125
449		15.625000
450		17.578125
451		13.671875
452		17.578125
453		13.671875
454		15.625000
455		13.671875
456		15.625000
457		13.671875
458		15.625000
459		11.718750
460		15.625000
461		11.718750
462		13.671875
463		11.718750
464		13.671875
465		9.765625
466		13.671875
467		9.765625
468		11.718750
469		7.812500
470		11.718750
471		7.812500
472		11.718750
473		7.812500
474		9.765625
475		7.812500
476		9.765625
477		5.859375
478		9.765625
479		5.859375
480		7.812500
481		5.859375
482		7.812500
483		3.906250
484		7.812500
485		3.906250
486		5.859375
487		1.953125
488		5.859375
489		1.953125
490		3.906250
491		1.953125
492		3.906250
493		0.000000
494		3.906250
495		0.000000
496		3.906250
497		0.000000
498		1.953125
499		-1.953125
500		1.953125
501		-1.953125
502		1.953125
503		-1.953125
504		0.000000
505		-1.953125
506		0.000000
507		-3.906250
508		0.000000
509		-3.906250
510		0.000000
511		-5.859375
512		-1.953125
513		-5.859375
514		-1.953125
515		-5.859375
516		-3.906250
517		-5.859375
518		-3.906250
519		-7.812500
520		-3.906250
521		-7.812500
522		-3.906250
523		-7.812500
524		-5.859375
525		-9.765625
526		-5.859375
527		-9.765625
528		-5.859375
529		-9.765625
530		-5.859375
531		-9.765625
532		-7.812500
533		-11.718750
534		-7.812500
535		-11.718750
536		-7.812500
537		-11.718750
538		-7.812500
539		-11.718750
540		-9.765625
541		-11.718750
542		-9.765625
543		-13.671875
544		-9.765625
545		-13.671875
546		-9.765625
547		-13.671875
548		-9.765625
549		-13.671875
550		-11.718750
551		-13.671875
552		-11.718750
553		-13.671875
554		-11.718750
555		-15.625000
556		-11.718750
557		-15.625000
558		-13.671875
559		-17.578125
560		-11.718750
561		-15.625000
562		-13.671875
563		-15.625000
564		-13.671875
565		-15.625000
566		-13.671875
567		-17.578125
568		-13.671875
569		-17.578125
570		-13.671875
571		-17.578125
572		-13.671875
573		-17.578125
574		-15.625000
575		-17.578125
576		-13.671875
577		-17.578125
578		-13.671875
579		-17.578125
580		-13.671875
581		-17.578125
582		-15.625000
583		-17.578125
584		-15.625000
585		-17.578125
586		-15.625000
587		-17.578125
588		-13.671875
589		-17.578125
590		-15.625000
591		-17.578125
592		-15.625000
593		-17.578125
594		-15.625000
595		-17.578125
596		-13.671875
597		-17.578125
598		-13.671875
599		-17.578125
600		-13.671875
601		-17.578125
602		-15.625000
603		-17.578125
604		-13.671875
605		-17.578125
606		-13.671875
607		-17.578125
608		-13.671875
609		-15.625000
610		-13.671875
611		-17.578125
612		-13.671875
613		-15.625000
614		-13.671875
615		-17.578125
616		-13.671875
617		-15.625000
618		-13.671875
619		-15.625000
620		-11.718750
621		-15.625000
622		-11.718750
623		-15.625000
624		-11.718750
625		-13.671875
626		-11.718750
627		-15.625000
628		-11.718750
629		-13.671875
630		-11.718750
631		-13.671875
632		-11.718750
633		-13.671875
634		-9.765625
635		-13.671875
636		-9.765625
637		-11.718750
638		-9.765625
639		-11.718750
640		-9.765625
641		-11.718750
642		-9.765625
643		-11.718750
644		-7.812500
645		-11.718750
646		-7.812500
647		-9.765625
648		-7.812500
649		-9.765625
650		-7.812500
651		-9.765625
652		-5.859375
653		-9.765625
654		-5.859375
655		-7.812500
656		-5.859375
657		-7.812500
658		-5.859375
659		-7.812500
660		-5.859375
661		-7.812500
662		-3.906250
663		-5.859375
664		-3.906250
665		-5.859375
666		-1.953125
667		-5.859375
668		-1.953125
669		-5.859375
670		-1.953125
671		-3.906250
672		0.000000
673		-3.906250
674		0.000000
675		-1.953125
676		0.000000
677		-1.953125
678		0.000000
679		-1.953125
680		1.953125
681		-1.953125
682		1.953125
683		0.000000
684		1.953125
685		0.000000
686		1.953125
687		0.000000
688		3.906250
689		0.000000
690		3.906250
691		1.953125
692		3.906250
693		1.953125
694		5.859375
695		1.953125
696		5.859375
697		3.906250
698		5.859375
699		3.906250
700		7.812500
701		5.859375
702		7.812500
703		5.859375
704		9.765625
705		5.859375
706		9.765625
707		7.812500
708		9.765625
709		7.812500
710		9.765625
711		7.812500
712		11.718750
713		7.812500
714		11.718750
715		9.765625
716		13.671875
717		9.765625
718		13.671875
719		11.718750
720		13.671875
721		11.718750
722		13.671875
723		11.718750
724		15.625000
725		13.671875
726		15.625000
727		11.718750
728		17.578125
729		13.671875
730		15.625000
731		13.671875
732		17.578125
733		15.625000
734		17.578125
735		15.625000
736		17.578125
737		15.625000
738		19.531250
739		15.625000
740		19.531250
741		17.578125
742		19.531250
743		17.578125
744		19.531250
745		17.578125
746		21.484375
747		19.531250
748		21.484375
749		19.531250
750		23.437500
751		19.531250
752		23.437500
753		21.484375
754		23.437500
755		21.484375
756		23.437500
757		21.484375
758		23.437500
759		21.484375
760		23.437500
761		21.484375
762		25.390625
763		23.437500
764		25.390625
765		23.437500
766		25.390625
767		23.437500
768		27.343750
769		23.437500
770		27.343750
771		25.390625
772		27.343750
773		25.390625
774		27.343750
775		25.390625
776		27.343750
777		25.390625
778		27.343750
779		25.390625
780		29.296875
781		25.390625
782		29.296875
783		27.343750
784		29.296875
785		27.343750
786		29.296875
787		27.343750
788		29.296875
789		27.343750
790		31.250000
791		27.343750
792		31.250000
793		27.343750
794		31.250000
795		27.343750
796		31.250000
797		29.296875
798		31.250000
799		29.296875
800		31.250000
801		29.296875
802		31.250000
803		29.296875
804		31.250000
805		29.296875
806		31.250000
807		29.296875
808		33.203125
809		29.296875
810		31.250000
811		29.296875
812		33.203125
813		29.296875
814		33.203125
815		29.296875
816		33.203125
817		29.296875
818		33.203125
819		29.296875
820		33.203125
821		29.296875
822		33.203125
823		29.296875
824		33.203125
825		29.296875
826		33.203125
827		31.250000
828		33.203125
829		29.296875
830		33.203125
831		29.296875
832		33.203125
833		29.296875
834		33.203125
835		29.296875
836		33.203125
837		29.296875
838		33.203125
839		29.296875
840		33.203125
841		29.296875
842		33.203125
843		29.296875
844		31.250000
845		27.343750
846		31.250000
847		29.296875
848		33.203125
849		29.296875
850		33.203125
851		29.296875
852		31.250000
853		29.296875
854		31.250000
855		29.296875
856		31.250000
857		29.296875
858		31.250000
859		29.296875
860		31.250000
861		27.343750
862		31.250000
863		25.390625
864		31.250000
865		27.343750
866		29.296875
867		27.343750
868		29.296875
869		27.343750
870		29.296875
871		25.390625
872		29.296875
873		25.390625
874		29.296875
875		25.390625
876		29.296875
877		25.390625
878		27.343750
879		23.437500
880		27.343750
881		23.437500
882		27.343750
883		23.437500
884		27.343750
885		23.437500
886		27.343750
887		23.437500
888		25.390625
889		23.437500
890		25.390625
891		21.484375
892		25.390625
893		21.484375
894		23.437500
895		21.484375
896		23.437500
897		19.531250
898		23.437500
899		19.531250
900		23.437500
901		19.531250
902		23.437500
903		19.531250
904		23.437500
905		17.578125
906		21.484375
907		17.578125
908		21.484375
909		17.578125
910		19.531250
911		17.578125
912		19.531250
913		15.625000
914		19.531250
915		15.625000
916		19.531250
917		15.625000
918		19.531250
919		15.625000
920		17.578125
921		13.671875
922		17.578125
923		13.671875
924		17.578125
925		13.671875
926		15.625000
927		11.718750
928		15.625000
929		11.718750
930		15.625000
931		11.718750
932		13.671875
933		9.765625
934		13.671875
935		9.765625
936		13.671875
937		9.765625
938		11.718750
939		7.812500
940		11.718750
941		7.812500
942		11.718750
943		7.812500
944		9.765625
945		7.812500
946		9.765625
947		5.859375
948		9.765625
949		5.859375
950		7.812500
951		5.859375
952		7.812500
953		3.906250
954		5.859375
955		3.906250
956		5.859375
957		1.953125
958		5.859375
959		1.953125
960		5.859375
961		1.953125
962		3.906250
963		0.000000
964		3.906250
965		0.000000
966		3.906250
967		0.000000
968		1.953125
969		-1.953125
970		1.953125
971		-1.953125
972		1.953125
973		-1.953125
974		0.000000
975		-3.906250
976		0.000000
977		-3.906250
978		0.000000
979		-3.906250
980		-1.953125
981		-5.859375
982		-1.953125
983		-5.859375
984		-1.953125
985		-5.859375
986		-1.953125
987		-5.859375
988		-3.906250
989		-7.812500
990		-3.906250
991		-7.812500
992		-3.906250
993		-7.812500
994		-5.859375
995		-7.812500
996		-5.859375
997		-9.765625
998		-5.859375
999		-9.765625
1000		-7.812500
1001		-9.765625
1002		-7.812500
1003		-9.765625
1004		-7.812500
1005		-11.718750
1006		-7.812500
1007		-11.718750
1008		-9.765625
1009		-11.718750
1010		-9.765625
1011		-11.718750
1012		-9.765625
1013		-13.671875
1014		-9.765625
1015		-13.671875
1016		-9.765625
1017		-13.671875
1018		-11.718750
1019		-13.671875
1020		-11.718750
1021		-13.671875
1022		-11.718750
1023		-15.625000
1024		-11.718750
1025		-15.625000
1026		-11.718750
1027		-15.625000
1028		-13.671875
1029		-15.625000
1030		-13.671875
1031		-15.625000
1032		-11.718750
1033		-17.578125
1034		-13.671875
1035		-17.578125
1036		-13.671875
1037		-17.578125
1038		-13.671875
1039		-17.578125
1040		-13.671875
1041		-17.578125
1042		-13.671875
1043		-17.578125
1044		-13.671875
1045		-17.578125
1046		-15.625000
1047		-19.531250
1048		-13.671875
1049		-17.578125
1050		-15.625000
1051		-17.578125
1052		-15.625000
1053		-17.578125
1054		-15.625000
1055		-17.578125
1056		-15.625000
1057		-17.578125
1058		-15.625000
1059		-17.578125
1060		-15.625000
1061		-17.578125
1062		-15.625000
1063		-19.531250
1064		-15.625000
1065		-17.578125
1066		-15.625000
1067		-19.531250
1068		-15.625000
1069		-17.578125
1070		-15.625000
1071		-17.578125
1072		-15.625000
1073		-17.578125
1074		-15.625000
1075		-17.578125
1076		-15.625000
1077		-17.578125
1078		-15.625000
1079		-17.578125
1080		-15.625000
1081		-17.578125
1082		-13.671875
1083		-17.578125
1084		-13.671875
1085		-17.578125
1086		-13.671875
1087		-15.625000
1088		-13.671875
1089		-15.625000
1090		-13.671875
1091		-15.625000
1092		-13.671875
1093		-17.578125
1094		-11.718750
1095		-15.625000
1096		-13.671875
1097		-15.625000
1098		-11.718750
1099		-15.625000
1100		-11.718750
1101		-13.671875
1102		-11.718750
1103		-13.671875
1104		-11.718750
1105		-13.671875
1106		-11.718750
1107		-13.671875
1108		-9.765625
1109		-13.671875
1110		-9.765625
1111		-11.718750
1112		-9.765625
1113		-11.718750
1114		-9.765625
1115		-11.718750
1116		-9.765625
1117		-11.718750
1118		-7.812500
1119		-11.718750
1120		-7.812500
1121		-9.765625
1122		-7.812500
1123		-9.765625
1124		-7.812500
1125		-9.765625
1126		-5.859375
1127		-9.765625
1128		-5.859375
1129		-7.812500
1130		-5.859375
1131		-7.812500
1132		-3.906250
1133		-7.812500
1134		-3.906250
1135		-7.812500
1136		-3.906250
1137		-7.812500
1138		-1.953125
1139		-5.859375
1140		-1.953125
1141		-5.859375
1142		-1.953125
1143		-3.906250
1144		-1.953125
1145		-3.906250
1146		-1.953125
1147		-3.906250
1148		0.000000
1149		-1.953125
1150		0.000000
1151		-1.953125
1152		1.953125
1153		-1.953125
1154		1.953125
1155		-1.953125
1156		1.953125
1157		0.000000
1158		1.953125
1159		0.000000
1160		3.906250
1161		1.953125
1162		3.906250
1163		1.953125
1164		3.906250
1165		1.953125
1166		5.859375
1167		1.953125
1168		5.859375
1169		3.906250
1170		5.859375
1171		3.906250
1172		7.812500
1173		3.906250
1174		7.812500
1175		5.859375
1176		7.812500
1177		5.859375
1178		9.765625
1179		7.812500
1180		9.765625
1181		5.859375
1182		9.765625
1183		7.812500
1184		11.718750
1185		7.812500
1186		11.718750
1187		9.765625
1188		11.718750
1189		9.765625
1190		13.671875
1191		9.765625
1192		13.671875
1193		9.765625
1194		13.671875
1195		11.718750
1196		13.671875
1197		11.718750
1198		15.625000
1199		11.718750
1200		15.625000
1201		13.671875
1202		15.625000
1203		13.671875
1204		17.578125
1205		15.625000
1206		17.578125
1207		15.625000
1208		17.578125
1209		15.625000
1210		19.531250
1211		15.625000
1212		19.531250
1213		17.578125
1214		19.531250
1215		17.578125
1216		21.484375
1217		17.578125
1218		21.484375
1219		17.578125
1220		21.484375
1221		19.531250
1222		21.484375
1223		19.531250
1224		23.437500
1225		19.531250
1226		23.437500
1227		19.531250
1228		25.390625
1229		21.484375
1230		23.437500
1231		21.484375
1232		25.390625
1233		21.484375
1234		25.390625
1235		21.484375
1236		25.390625
1237		21.484375
1238		25.390625
1239		23.437500
1240		25.390625
1241		23.437500
1242		27.343750
1243		23.437500
1244		27.343750
1245		25.390625
1246		27.343750
1247		25.390625
1248		27.343750
1249		25.390625
1250		27.343750
1251		25.390625
1252		29.296875
1253		25.390625
1254		29.296875
1255		27.343750
1256		29.296875
1257		27.343750
1258		29.296875
1259		27.343750
1260		29.296875
1261		27.343750
1262		31.250000
1263		27.343750
1264		29.296875
1265		27.343750
1266		31.250000
1267		27.343750
1268		31.250000
1269		27.343750
1270		31.250000
1271		27.343750
1272		31.250000
1273		29.296875
1274		31.250000
1275		29.296875
1276		31.250000
1277		29.296875
1278		31.250000
1279		29.296875
1280		31.250000
1281		29.296875
1282		31.250000
1283		29.296875
1284		33.203125
1285		29.296875
1286		33.203125
1287		29.296875
1288		33.203125
1289		29.296875
1290		33.203125
1291		29.296875
1292		33.203125
1293		29.296875
1294		33.203125
1295		29.296875
1296		33.203125
1297		29.296875
1298		33.203125
1299		29.296875
1300		33.203125
1301		29.296875
1302		33.203125
1303		29.296875
1304		33.203125
1305		29.296875
1306		33.203125
1307		29.296875
1308		33.203125
1309		29.296875
1310		33.203125
1311		29.296875
1312		33.203125
1313		29.296875
1314		31.250000
1315		29.296875
1316		31.250000
1317		29.296875
1318		31.250000
1319		29.296875
1320		31.250000
1321		29.296875
1322		31.250000
1323		29.296875
1324		31.250000
1325		27.343750
1326		31.250000
1327		27.343750
1328		31.250000
1329		27.343750
1330		29.296875
1331		27.343750
1332		29.296875
1333		25.390625
1334		31.250000
1335		27.343750
1336		29.296875
1337		25.390625
1338		29.296875
1339		27.343750
1340		29.296875
1341		25.390625
1342		29.296875
1343		25.390625
1344		29.296875
1345		25.390625
1346		29.296875
1347		25.390625
1348		27.343750
1349		23.437500
1350		27.343750
1351		23.437500
1352		27.343750
1353		23.437500
1354		27.343750
1355		23.437500
1356		27.343750
1357		23.437500
1358		25.390625
1359		23.437500
1360		25.390625
1361		21.484375
1362		25.390625
1363		21.484375
1364		23.437500
1365		21.484375
1366		23.437500
1367		21.484375
1368		25.390625
1369		21.484375
1370		23.437500
1371		19.531250
1372		23.437500
1373		19.531250
1374		21.484375
1375		17.578125
1376		21.484375
1377		17.578125
1378		21.484375
1379		17.578125
1380		21.484375
1381		17.578125
1382		19.531250
1383		15.625000
1384		19.531250
1385		15.625000
1386		19.531250
1387		15.625000
1388		17.578125
1389		13.671875
1390		17.578125
1391		13.671875
1392		17.578125
1393		13.671875
1394		15.625000
1395		13.671875
1396		17.578125
1397		13.671875
1398		15.625000
1399		11.718750
1400		15.625000
1401		9.765625
1402		13.671875
1403		9.765625
1404		13.671875
1405		9.765625
1406		13.671875
1407		9.765625
1408		11.718750
1409		7.812500
1410		11.718750
1411		7.812500
1412		11.718750
1413		7.812500
1414		9.765625
1415		7.812500
1416		9.765625
1417		5.859375
1418		9.765625
1419		5.859375
1420		7.812500
1421		3.906250
1422		7.812500
1423		3.906250
1424		7.812500
1425		3.906250
1426		5.859375
1427		3.906250
1428		5.859375
1429		1.953125
1430		5.859375
1431		1.953125
1432		3.906250
1433		0.000000
1434		3.906250
1435		0.000000
1436		3.906250
1437		0.000000
1438		1.953125
1439		0.000000
1440		1.953125
1441		-1.953125
1442		1.953125
1443		-3.906250
1444		0.000000
1445		-3.906250
1446		0.000000
1447		-3.906250
1448		-1.953125
1449		-3.906250
1450		-1.953125
1451		-5.859375
1452		-1.953125
1453		-5.859375
1454		-1.953125
1455		-5.859375
1456		-3.906250
1457		-5.859375
1458		-3.906250
1459		-7.812500
1460		-3.906250
1461		-7.812500
1462		-5.859375
1463		-7.812500
1464		-3.906250
1465		-7.812500
1466		-5.859375
1467		-9.765625
1468		-5.859375
1469		-9.765625
1470		-7.812500
1471		-9.765625
1472		-7.812500
1473		-11.718750
1474		-7.812500
1475		-11.718750
1476		-7.812500
1477		-11.718750
1478		-9.765625
1479		-11.718750
1480		-9.765625
1481		-11.718750
1482		-9.765625
1483		-11.718750
1484		-9.765625
1485		-13.671875
1486		-9.765625
1487		-13.671875
1488		-11.718750
1489		-13.671875
1490		-11.718750
1491		-15.625000
1492		-11.718750
1493		-15.625000
1494		-11.718750
1495		-15.625000
1496		-11.718750
1497		-15.625000
1498		-11.718750
1499		-15.625000
1500		-13.671875
1501		-17.578125
1502		-13.671875
1503		-17.578125
1504		-13.671875
1505		-17.578125
1506		-13.671875
1507		-17.578125
1508		-13.671875
1509		-17.578125
1510		-13.671875
1511		-17.578125
1512		-13.671875
1513		-17.578125
1514		-15.625000
1515		-17.578125
1516		-15.625000
1517		-17.578125
1518		-15.625000
1519		-19.531250
1520		-15.625000
1521		-17.578125
1522		-15.625000
1523		-19.531250
1524		-15.625000
1525		-17.578125
1526		-15.625000
1527		-19.531250
1528		-15.625000
1529		-19.531250
1530		-15.625000
1531		-17.578125
1532		-15.625000
1533		-17.578125
1534		-15.625000
1535		-19.531250
1536		-15.625000
1537		-19.531250
1538		-15.625000
1539		-19.531250
1540		-15.625000
1541		-17.578125
1542		-15.625000
1543		-19.531250
1544		-15.625000
1545		-19.531250
1546		-15.625000
1547		-17.578125
1548		-15.625000
1549		-17.578125
1550		-15.625000
1551		-17.578125
1552		-13.671875
1553		-17.578125
1554		-15.625000
1555		-17.578125
1556		-13.671875
1557		-17.578125
1558		-13.671875
1559		-17.578125
1560		-13.671875
1561		-17.578125
1562		-13.671875
1563		-17.578125
1564		-13.671875
1565		-15.625000
1566		-13.671875
1567		-15.625000
1568		-13.671875
1569		-15.625000
1570		-11.718750
1571		-15.625000
1572		-11.718750
1573		-15.625000
1574		-11.718750
1575		-13.671875
1576		-11.718750
1577		-13.671875
1578		-11.718750
1579		-13.671875
1580		-11.718750
1581		-13.671875
1582		-9.765625
1583		-11.718750
1584		-9.765625
1585		-13.671875
1586		-9.765625
1587		-11.718750
1588		-9.765625
1589		-11.718750
1590		-9.765625
1591		-11.718750
1592		-7.812500
1593		-11.718750
1594		-7.812500
1595		-9.765625
1596		-7.812500
1597		-9.765625
1598		-5.859375
1599		-7.812500
1600		-5.859375
1601		-9.765625
1602		-5.859375
1603		-7.812500
1604		-3.906250
1605		-7.812500
1606		-3.906250
1607		-7.812500
1608		-3.906250
1609		-5.859375
1610		-3.906250
1611		-5.859375
1612		-1.953125
1613		-5.859375
1614		-1.953125
1615		-3.906250
1616		-1.953125
1617		-3.906250
1618		-1.953125
1619		-3.906250
1620		0.000000
1621		-1.953125
1622		0.000000
1623		-1.953125
1624		1.953125
1625		-1.953125
1626		1.953125
1627		-1.953125
1628		1.953125
1629		0.000000
1630		3.906250
1631		0.000000
1632		3.906250
1633		1.953125
1634		3.906250
1635		1.953125
1636		5.859375
1637		1.953125
1638		5.859375
1639		1.953125
1640		5.859375
1641		3.906250
1642		5.859375
1643		3.906250
1644		7.812500
1645		5.859375
1646		7.812500
1647		5.859375
1648		7.812500
1649		5.859375
1650		7.812500
1651		7.812500
1652		9.765625
1653		7.812500
1654		9.765625
1655		7.812500
1656		11.718750
1657		7.812500
1658		11.718750
1659		9.765625
1660		11.718750
1661		9.765625
1662		13.671875
1663		9.765625
1664		13.671875
1665		9.765625
1666		13.671875
1667		11.718750
1668		13.671875
1669		11.718750
1670		15.625000
1671		13.671875
1672		15.625000
1673		13.671875
1674		15.625000
1675		13.671875
1676		17.578125
1677		13.671875
1678		17.578125
1679		15.625000
1680		17.578125
1681		15.625000
1682		19.531250
1683		17.578125
1684		19.531250
1685		15.625000
1686		19.531250
1687		17.578125
1688		19.531250
1689		17.578125
1690		21.484375
1691		17.578125
1692		21.484375
1693		19.531250
1694		21.484375
1695		19.531250
1696		23.437500
1697		19.531250
1698		23.437500
1699		21.484375
1700		23.437500
1701		21.484375
1702		23.437500
1703		21.484375
1704		25.390625
1705		21.484375
1706		25.390625
1707		21.484375
1708		25.390625
1709		21.484375
1710		25.390625
1711		23.437500
1712		25.390625
1713		23.437500
1714		27.343750
1715		23.437500
1716		27.343750
1717		25.390625
1718		27.343750
1719		25.390625
1720		27.343750
1721		25.390625
1722		27.343750
1723		25.390625
1724		29.296875
1725		25.390625
1726		29.296875
1727		25.390625
1728		29.296875
1729		25.390625
1730		29.296875
1731		25.390625
1732		29.296875
1733		27.343750
1734		29.296875
1735		27.343750
1736		29.296875
1737		27.343750
1738		31.250000
1739		27.343750
1740		31.250000
1741		27.343750
1742		31.250000
1743		27.343750
1744		31.250000
1745		27.343750
1746		31.250000
1747		27.343750
1748		31.250000
1749		29.296875
1750		33.203125
1751		29.296875
1752		31.250000
1753		27.343750
1754		31.250000
1755		29.296875
1756		31.250000
1757		29.296875
1758		31.250000
1759		29.296875
1760		31.250000
1761		29.296875
1762		31.250000
1763		29.296875
1764		33.203125
1765		29.296875
1766		31.250000
1767		29.296875
1768		31.250000
1769		29.296875
1770		33.203125
1771		29.296875
1772		33.203125
1773		29.296875
1774		33.203125
1775		29.296875
1776		33.203125
1777		29.296875
1778		31.250000
1779		29.296875
1780		33.203125
1781		29.296875
1782		33.203125
1783		29.296875
1784		31.250000
1785		29.296875
1786		31.250000
1787		29.296875
1788		33.203125
1789		27.343750
1790		31.250000
1791		29.296875
1792		31.250000
1793		27.343750
1794		31.250000
1795		27.343750
1796		31.250000
1797		27.343750
1798		31.250000
1799		27.343750
1800		31.250000
1801		27.343750
1802		29.296875
1803		27.343750
1804		31.250000
1805		27.343750
1806		29.296875
1807		27.343750
1808		29.296875
1809		25.390625
1810		29.296875
1811		25.390625
1812		29.296875
1813		25.390625
1814		29.296875
1815		25.390625
1816		29.296875
1817		25.390625
1818		27.343750
1819		25.390625
1820		27.343750
1821		23.437500
1822		27.343750
1823		23.437500
1824		27.343750
1825		23.437500
1826		27.343750
1827		23.437500
1828		25.390625
1829		23.437500
1830		25.390625
1831		21.484375
1832		25.390625
1833		21.484375
1834		25.390625
1835		21.484375
1836		23.437500
1837		19.531250
1838		23.437500
1839		19.531250
1840		23.437500
1841		19.531250
1842		23.437500
1843		19.531250
1844		23.437500
1845		17.578125
1846		23.437500
1847		17.578125
1848		21.484375
1849		17.578125
1850		21.484375
1851		17.578125
1852		19.531250
1853		17.578125
1854		19.531250
1855		15.625000
1856		19.531250
1857		15.625000
1858		19.531250
1859		15.625000
1860		17.578125
1861		11.718750
1862		17.578125
1863		13.671875
1864		17.578125
1865		11.718750
1866		15.625000
1867		11.718750
1868		15.625000
1869		11.718750
1870		15.625000
1871		9.765625
1872		15.625000
1873		9.765625
1874		15.625000
1875		7.812500
1876		15.625000
1877		7.812500
1878		13.671875
1879		7.812500
1880		13.671875
1881		5.859375
1882		11.718750
1883		7.812500
1884		11.718750
1885		7.812500
1886		9.765625
1887		5.859375
1888		9.765625
1889		3.906250
1890		9.765625
1891		3.906250
1892		9.765625
1893		1.953125
1894		9.765625
1895		1.953125
1896		7.812500
1897		1.953125
1898		5.859375
1899		0.000000
1900		7.812500
1901		1.953125
1902		3.906250
1903		1.953125
1904		3.906250
1905		-1.953125
1906		5.859375
1907		-1.953125
1908		3.906250
1909		-1.953125
1910		3.906250
1911		-3.906250
1912		3.906250
1913		-3.906250
1914		1.953125
1915		-3.906250
1916		1.953125
1917		-3.906250
1918		0.000000
1919		-3.906250
1920		-1.953125
1921		-3.906250
1922		0.000000
1923		-7.812500
1924		0.000000
1925		-7.812500
1926		0.000000
1927		-7.812500
1928		-1.953125
1929		-7.812500
1930		-1.953125
1931		-9.765625
1932		-3.906250
1933		-9.765625
1934		-3.906250
1935		-7.812500
1936		-5.859375
1937		-9.765625
1938		-5.859375
1939		-11.718750
1940		-5.859375
1941		-11.718750
1942		-5.859375
1943		-13.671875
1944		-5.859375
1945		-13.671875
1946		-5.859375
1947		-13.671875
1948		-7.812500
1949		-13.671875
1950		-7.812500
1951		-11.718750
1952		-9.765625
1953		-11.718750
1954		-9.765625
1955		-13.671875
1956		-9.765625
1957		-15.625000
1958		-9.765625
1959		-15.625000
1960		-9.765625
1961		-17.578125
1962		-9.765625
1963		-17.578125
1964		-9.765625
1965		-17.578125
1966		-11.718750
1967		-17.578125
1968		-11.718750
1969		-15.625000
1970		-13.671875
1971		-17.578125
1972		-11.718750
1973		-17.578125
1974		-11.718750
1975		-19.531250
1976		-11.718750
1977		-19.531250
1978		-11.718750
1979		-19.531250
1980		-11.718750
1981		-19.531250
1982		-13.671875
1983		-19.531250
1984		-13.671875
1985		-17.578125
1986		-13.671875
1987		-17.578125
1988		-15.625000
1989		-19.531250
1990		-13.671875
1991		-21.484375
1992		-13.671875
1993		-19.531250
1994		-13.671875
1995		-21.484375
1996		-13.671875
1997		-21.484375
1998		-13.671875
1999		-21.484375
2000		-13.671875
2001		-19.531250
2002		-15.625000
2003		-17.578125
2004		-15.625000
2005		-21.484375
2006		-15.625000
2007		-21.484375
2008		-13.671875
2009		-21.484375
2010		-13.671875
2011		-19.531250
2012		-13.671875
2013		-19.531250
2014		-13.671875
2015		-19.531250
2016		-13.671875
2017		-19.531250
2018		-13.671875
2019		-19.531250
2020		-15.625000
2021		-17.578125
2022		-15.625000
2023		-19.531250
2024		-13.671875
2025		-19.531250
2026		-13.671875
2027		-19.531250
2028		-13.671875
2029		-19.531250
2030		-11.718750
2031		-19.531250
2032		-11.718750
2033		-17.578125
2034		-11.718750
2035		-17.578125
2036		-13.671875
2037		-15.625000
2038		-13.671875
2039		-17.578125
2040		-11.718750
2041		-17.578125
2042		-11.718750
2043		-17.578125
2044		-9.765625
2045		-17.578125
2046		-9.765625
2047		-15.625000
2048		-9.765625
2049		-15.625000
2050		-9.765625
2051		-15.625000
2052		-9.765625
2053		-13.671875
2054		-9.765625
2055		-15.625000
2056		-7.812500
2057		-13.671875
2058		-7.812500
2059		-13.671875
2060		-7.812500
2061		-13.671875
2062		-7.812500
2063		-13.671875
2064		-5.859375
2065		-13.671875
2066		-5.859375
2067		-11.718750
2068		-5.859375
2069		-9.765625
2070		-7.812500
2071		-7.812500
2072		-5.859375
2073		-9.765625
2074		-3.906250
2075		-9.765625
2076		-3.906250
2077		-9.765625
2078		-1.953125
2079		-7.812500
2080		-1.953125
2081		-7.812500
2082		-1.953125
2083		-7.812500
2084		-1.953125
2085		-5.859375
2086		-1.953125
2087		-3.906250
2088		-1.953125
2089		-5.859375
2090		0.000000
2091		-5.859375
2092		1.953125
2093		-5.859375
2094		1.953125
2095		-5.859375
2096		1.953125
2097		-3.906250
2098		3.906250
2099		-1.953125
2100		3.906250
2101		-1.953125
2102		3.906250
2103		0.000000
2104		3.906250
2105		1.953125
2106		3.906250
2107		0.000000
2108		7.812500
2109		0.000000
2110		7.812500
2111		0.000000
2112		7.812500
2113		1.953125
2114		7.812500
2115		1.953125
2116		9.765625
2117		1.953125
2118		9.765625
2119		3.906250
2120		7.812500
2121		5.859375
2122		7.812500
2123		3.906250
2124		11.718750
2125		5.859375
2126		11.718750
2127		5.859375
2128		11.718750
2129		5.859375
2130		13.671875
2131		7.812500
2132		13.671875
2133		7.812500
2134		13.671875
2135		7.812500
2136		13.671875
2137		11.718750
2138		13.671875
2139		9.765625
2140		15.625000
2141		9.765625
2142		17.578125
2143		9.765625
2144		17.578125
2145		11.718750
2146		17.578125
2147		11.718750
2148		17.578125
2149		11.718750
2150		19.531250
2151		13.671875
2152		19.531250
2153		15.625000
2154		17.578125
2155		15.625000
2156		19.531250
2157		15.625000
2158		21.484375
2159		15.625000
2160		21.484375
2161		15.625000
2162		23.437500
2163		17.578125
2164		23.437500
2165		15.625000
2166		23.437500
2167		17.578125
2168		25.390625
2169		17.578125
2170		23.437500
2171		21.484375
2172		23.437500
2173		19.531250
2174		25.390625
2175		19.531250
2176		25.390625
2177		19.531250
2178		25.390625
2179		19.531250
2180		27.343750
2181		21.484375
2182		27.343750
2183		21.484375
2184		27.343750
2185		21.484375
2186		27.343750
2187		23.437500
2188		25.390625
2189		25.390625
2190		27.343750
2191		21.484375
2192		29.296875
2193		23.437500
2194		29.296875
2195		23.437500
2196		29.296875
2197		23.437500
2198		31.250000
2199		23.437500
2200		31.250000
2201		23.437500
2202		31.250000
2203		25.390625
2204		29.296875
2205		27.343750
2206		29.296875
2207		25.390625
2208		31.250000
2209		25.390625
2210		31.250000
2211		25.390625
2212		31.250000
2213		25.390625
2214		33.203125
2215		25.390625
2216		31.250000
2217		25.390625
2218		33.203125
2219		27.343750
2220		33.203125
2221		29.296875
2222		31.250000
2223		27.343750
2224		33.203125
2225		27.343750
2226		33.203125
2227		27.343750
2228		33.203125
2229		27.343750
2230		33.203125
2231		27.343750
2232		33.203125
2233		27.343750
2234		33.203125
2235		27.343750
2236		33.203125
2237		29.296875
2238		31.250000
2239		29.296875
2240		31.250000
2241		27.343750
2242		33.203125
2243		27.343750
2244		33.203125
2245		27.343750
2246		33.203125
2247		27.343750
2248		33.203125
2249		27.343750
2250		33.203125
2251		27.343750
2252		33.203125
2253		27.343750
2254		33.203125
2255		29.296875
2256		31.250000
2257		27.343750
2258		33.203125
2259		25.390625
2260		33.203125
2261		27.343750
2262		33.203125
2263		27.343750
2264		33.203125
2265		25.390625
2266		31.250000
2267		25.390625
2268		33.203125
2269		25.390625
2270		31.250000
2271		27.343750
2272		29.296875
2273		27.343750
2274		29.296875
2275		25.390625
2276		31.250000
2277		25.390625
2278		31.250000
2279		23.437500
2280		31.250000
2281		23.437500
2282		31.250000
2283		23.437500
2284		29.296875
2285		23.437500
2286		31.250000
2287		23.437500
2288		29.296875
2289		25.390625
2290		27.343750
2291		21.484375
2292		29.296875
2293		21.484375
2294		29.296875
2295		21.484375
2296		29.296875
2297		21.484375
2298		27.343750
2299		21.484375
2300		27.343750
2301		19.531250
2302		27.343750
2303		19.531250
2304		27.343750
2305		21.484375
2306		23.437500
2307		19.531250
2308		23.437500
2309		17.578125
2310		25.390625
2311		17.578125
2312		23.437500
2313		17.578125
2314		23.437500
2315		17.578125
2316		23.437500
2317		15.625000
2318		23.437500
2319		15.625000
2320		21.484375
2321		17.578125
2322		19.531250
2323		17.578125
2324		19.531250
2325		13.671875
2326		21.484375
2327		13.671875
2328		21.484375
2329		13.671875
2330		19.531250
2331		11.718750
2332		19.531250
2333		11.718750
2334		17.578125
2335		11.718750
2336		19.531250
2337		11.718750
2338		17.578125
2339		11.718750
2340		15.625000
2341		11.718750
2342		15.625000
2343		9.765625
2344		15.625000
2345		7.812500
2346		15.625000
2347		7.812500
2348		13.671875
2349		5.859375
2350		13.671875
2351		5.859375
2352		13.671875
2353		5.859375
2354		11.718750
2355		7.812500
2356		9.765625
2357		5.859375
2358		9.765625
2359		3.906250
2360		9.765625
2361		3.906250
2362		9.765625
2363		1.953125
2364		7.812500
2365		1.953125
2366		7.812500
2367		0.000000
2368		7.812500
2369		0.000000
2370		7.812500
2371		1.953125
2372		5.859375
2373		1.953125
2374		3.906250
2375		-1.953125
2376		5.859375
2377		-1.953125
2378		3.906250
2379		-1.953125
2380		3.906250
2381		-3.906250
2382		1.953125
2383		-3.906250
2384		1.953125
2385		-3.906250
2386		1.953125
2387		-3.906250
2388		1.953125
2389		-3.906250
2390		-1.953125
2391		-5.859375
2392		-1.953125
2393		-7.812500
2394		0.000000
2395		-7.812500
2396		-1.953125
2397		-7.812500
2398		-1.953125
2399		-9.765625
2400		-1.953125
2401		-9.765625
2402		-3.906250
2403		-9.765625
2404		-3.906250
2405		-7.812500
2406		-5.859375
2407		-9.765625
2408		-7.812500
2409		-11.718750
2410		-5.859375
2411		-11.718750
2412		-5.859375
2413		-13.671875
2414		-5.859375
2415		-13.671875
2416		-5.859375
2417		-13.671875
2418		-7.812500
2419		-13.671875
2420		-7.812500
2421		-15.625000
2422		-7.812500
2423		-13.671875
2424		-11.718750
2425		-15.625000
2426		-9.765625
2427		-17.578125
2428		-9.765625
2429		-15.625000
2430		-9.765625
2431		-15.625000
2432		-9.765625
2433		-17.578125
2434		-9.765625
2435		-17.578125
2436		-11.718750
2437		-17.578125
2438		-11.718750
2439		-15.625000
2440		-13.671875
2441		-15.625000
2442		-13.671875
2443		-19.531250
2444		-13.671875
2445		-19.531250
2446		-11.718750
2447		-19.531250
2448		-11.718750
2449		-19.531250
2450		-13.671875
2451		-19.531250
2452		-13.671875
2453		-19.531250
2454		-13.671875
2455		-19.531250
2456		-13.671875
2457		-19.531250
2458		-15.625000
2459		-19.531250
2460		-13.671875
2461		-21.484375
2462		-13.671875
2463		-21.484375
2464		-13.671875
2465		-21.484375
2466		-15.625000
2467		-21.484375
2468		-15.625000
2469		-21.484375
2470		-15.625000
2471		-21.484375
2472		-15.625000
2473		-19.531250
2474		-17.578125
2475		-19.531250
2476		-15.625000
2477		-21.484375
2478		-15.625000
2479		-21.484375
2480		-15.625000
2481		-21.484375
2482		-15.625000
2483		-21.484375
2484		-15.625000
2485		-21.484375
2486		-15.625000
2487		-21.484375
2488		-13.671875
2489		-19.531250
2490		-15.625000
2491		-19.531250
2492		-15.625000
2493		-19.531250
2494		-13.671875
2495		-21.484375
2496		-13.671875
2497		-19.531250
2498		-13.671875
2499		-19.531250
2500		-13.671875
2501		-19.531250
2502		-13.671875
2503		-19.531250
2504		-13.671875
2505		-19.531250
2506		-13.671875
2507		-17.578125
2508		-15.625000
2509		-17.578125
2510		-11.718750
2511		-19.531250
2512		-11.718750
2513		-17.578125
2514		-11.718750
2515		-17.578125
2516		-11.718750
2517		-17.578125
2518		-9.765625
2519		-17.578125
2520		-9.765625
2521		-17.578125
2522		-9.765625
2523		-13.671875
2524		-11.718750
2525		-13.671875
2526		-11.718750
2527		-15.625000
2528		-9.765625
2529		-15.625000
2530		-7.812500
2531		-13.671875
2532		-7.812500
2533		-13.671875
2534		-7.812500
2535		-13.671875
2536		-7.812500
2537		-13.671875
2538		-5.859375
2539		-11.718750
2540		-5.859375
2541		-9.765625
2542		-7.812500
2543		-11.718750
2544		-3.906250
2545		-11.718750
2546		-3.906250
2547		-9.765625
2548		-3.906250
2549		-9.765625
2550		-3.906250
2551		-9.765625
2552		-1.953125
2553		-9.765625
2554		-1.953125
2555		-7.812500
2556		-1.953125
2557		-5.859375
2558		-3.906250
2559		-3.906250
2560		-1.953125
2561		-5.859375
2562		0.000000
2563		-5.859375
2564		0.000000
2565		-3.906250
2566		1.953125
2567		-3.906250
2568		1.953125
2569		-3.906250
2570		1.953125
2571		-3.906250
2572		3.906250
2573		0.000000
2574		1.953125
2575		0.000000
2576		1.953125
2577		0.000000
2578		5.859375
2579		0.000000
2580		5.859375
2581		0.000000
2582		5.859375
2583		0.000000
2584		7.812500
2585		1.953125
2586		7.812500
2587		1.953125
2588		7.812500
2589		1.953125
2590		7.812500
2591		5.859375
2592		7.812500
2593		5.859375
2594		9.765625
2595		3.906250
2596		11.718750
2597		3.906250
2598		11.718750
2599		5.859375
2600		13.671875
2601		5.859375
2602		11.718750
2603		5.859375
2604		13.671875
2605		7.812500
2606		13.671875
2607		9.765625
2608		11.718750
2609		11.718750
2610		13.671875
2611		9.765625
2612		15.625000
2613		9.765625
2614		17.578125
2615		9.765625
2616		17.578125
2617		11.718750
2618		17.578125
2619		11.718750
2620		19.531250
2621		11.718750
2622		19.531250
2623		11.718750
2624		19.531250
2625		15.625000
2626		19.531250
2627		13.671875
2628		19.531250
2629		13.671875
2630		21.484375
2631		15.625000
2632		21.484375
2633		15.625000
2634		23.437500
2635		15.625000
2636		23.437500
2637		15.625000
2638		23.437500
2639		17.578125
2640		23.437500
2641		19.531250
2642		21.484375
2643		19.531250
2644		21.484375
2645		17.578125
2646		25.390625
2647		19.531250
2648		25.390625
2649		19.531250
2650		25.390625
2651		19.531250
2652		25.390625
2653		19.531250
2654		27.343750
2655		21.484375
2656		27.343750
2657		23.437500
2658		25.390625
2659		23.437500
2660		25.390625
2661		21.484375
2662		27.343750
2663		21.484375
2664		29.296875
2665		23.437500
2666		29.296875
2667		23.437500
2668		29.296875
2669		23.437500
2670		29.296875
2671		23.437500
2672		31.250000
2673		23.437500
2674		29.296875
2675		25.390625
2676		29.296875
2677		25.390625
2678		31.250000
2679		23.437500
2680		31.250000
2681		25.390625
2682		31.250000
2683		25.390625
2684		31.250000
2685		25.390625
2686		31.250000
2687		25.390625
2688		31.250000
2689		25.390625
2690		31.250000
2691		27.343750
2692		31.250000
2693		27.343750
2694		31.250000
2695		25.390625
2696		33.203125
2697		27.343750
2698		33.203125
2699		25.390625
2700		33.203125
2701		27.343750
2702		33.203125
2703		27.343750
2704		33.203125
2705		27.343750
2706		33.203125
2707		27.343750
2708		33.203125
2709		29.296875
2710		31.250000
2711		27.343750
2712		33.203125
2713		27.343750
2714		33.203125
2715		27.343750
2716		33.203125
2717		27.343750
2718		33.203125
2719		27.343750
2720		33.203125
2721		27.343750
2722		33.203125
2723		25.390625
2724		33.203125
2725		27.343750
2726		31.250000
2727		29.296875
2728		31.250000
2729		27.343750
2730		33.203125
2731		25.390625
2732		33.203125
2733		25.390625
2734		33.203125
2735		25.390625
2736		31.250000
2737		25.390625
2738		31.250000
2739		25.390625
2740		31.250000
2741		27.343750
2742		31.250000
2743		27.343750
2744		29.296875
2745		23.437500
2746		31.250000
2747		23.437500
2748		31.250000
2749		23.437500
2750		31.250000
2751		23.437500
2752		31.250000
2753		23.437500
2754		29.296875
2755		23.437500
2756		29.296875
2757		23.437500
2758		29.296875
2759		25.390625
2760		27.343750
2761		23.437500
2762		27.343750
2763		21.484375
2764		29.296875
2765		21.484375
2766		27.343750
2767		21.484375
2768		27.343750
2769		21.484375
2770		27.343750
2771		19.531250
2772		27.343750
2773		19.531250
2774		27.343750
2775		21.484375
2776		23.437500
2777		21.484375
2778		23.437500
2779		19.531250
2780		23.437500
2781		17.578125
2782		25.390625
2783		19.531250
2784		23.437500
2785		19.531250
2786		21.484375
2787		17.578125
2788		23.437500
2789		15.625000
2790		23.437500
2791		17.578125
2792		21.484375
2793		17.578125
2794		19.531250
2795		13.671875
2796		19.531250
2797		13.671875
2798		19.531250
2799		15.625000
2800		19.531250
2801		13.671875
2802		17.578125
2803		13.671875
2804		17.578125
2805		11.718750
2806		17.578125
2807		9.765625
2808		17.578125
2809		11.718750
2810		15.625000
2811		11.718750
2812		13.671875
2813		11.718750
2814		13.671875
2815		9.765625
2816		13.671875
2817		9.765625
2818		11.718750
2819		9.765625
2820		13.671875
2821		7.812500
2822		11.718750
2823		5.859375
2824		11.718750
2825		7.812500
2826		11.718750
2827		5.859375
2828		9.765625
2829		5.859375
2830		9.765625
2831		3.906250
2832		7.812500
2833		3.906250
2834		7.812500
2835		3.906250
2836		5.859375
2837		3.906250
2838		5.859375
2839		1.953125
2840		5.859375
2841		1.953125
2842		5.859375
2843		0.000000
2844		3.906250
2845		0.000000
2846		3.906250
2847		-1.953125
2848		3.906250
2849		0.000000
2850		1.953125
2851		-1.953125
2852		1.953125
2853		-1.953125
2854		1.953125
2855		-3.906250
2856		0.000000
2857		-3.906250
2858		0.000000
2859		-3.906250
2860		-1.953125
2861		-3.906250
2862		-1.953125
2863		-5.859375
2864		-1.953125
2865		-5.859375
2866		-1.953125
2867		-5.859375
2868		-3.906250
2869		-5.859375
2870		-3.906250
2871		-7.812500
2872		-3.906250
2873		-7.812500
2874		-5.859375
2875		-7.812500
2876		-5.859375
2877		-7.812500
2878		-5.859375
2879		-9.765625
2880		-5.859375
2881		-9.765625
2882		-7.812500
2883		-11.718750
2884		-7.812500
2885		-11.718750
2886		-7.812500
2887		-11.718750
2888		-9.765625
2889		-11.718750
2890		-9.765625
2891		-13.671875
2892		-9.765625
2893		-13.671875
2894		-11.718750
2895		-13.671875
2896		-11.718750
2897		-13.671875
2898		-11.718750
2899		-15.625000
2900		-11.718750
2901		-15.625000
2902		-11.718750
2903		-15.625000
2904		-11.718750
2905		-15.625000
2906		-13.671875
2907		-15.625000
2908		-13.671875
2909		-17.578125
2910		-13.671875
2911		-15.625000
2912		-13.671875
2913		-17.578125
2914		-13.671875
2915		-17.578125
2916		-13.671875
2917		-17.578125
2918		-15.625000
2919		-17.578125
2920		-15.625000
2921		-17.578125
2922		-15.625000
2923		-19.531250
2924		-15.625000
2925		-19.531250
2926		-15.625000
2927		-19.531250
2928		-15.625000
2929		-19.531250
2930		-15.625000
2931		-19.531250
2932		-15.625000
2933		-19.531250
2934		-15.625000
2935		-19.531250
2936		-15.625000
2937		-19.531250
2938		-15.625000
2939		-19.531250
2940		-17.578125
2941		-19.531250
2942		-15.625000
2943		-19.531250
2944		-17.578125
2945		-19.531250
2946		-17.578125
2947		-21.484375
2948		-15.625000
2949		-19.531250
2950		-17.578125
2951		-19.531250
2952		-15.625000
2953		-19.531250
2954		-17.578125
2955		-19.531250
2956		-15.625000
2957		-19.531250
2958		-15.625000
2959		-19.531250
2960		-15.625000
2961		-19.531250
2962		-15.625000
2963		-19.531250
2964		-15.625000
2965		-19.531250
2966		-15.625000
2967		-19.531250
2968		-15.625000
2969		-17.578125
2970		-15.625000
2971		-19.531250
2972		-15.625000
2973		-17.578125
2974		-15.625000
2975		-17.578125
2976		-13.671875
2977		-17.578125
2978		-15.625000
2979		-17.578125
2980		-13.671875
2981		-17.578125
2982		-13.671875
2983		-17.578125
2984		-13.671875
2985		-15.625000
2986		-13.671875
2987		-15.625000
2988		-11.718750
2989		-15.625000
2990		-11.718750
2991		-15.625000
2992		-11.718750
2993		-15.625000
2994		-11.718750
2995		-13.671875
2996		-11.718750
2997		-15.625000
2998		-9.765625
2999		-13.671875
3000		-9.765625
3001		-13.671875
3002		-9.765625
3003		-11.718750
3004		-9.765625
3005		-11.718750
3006		-7.812500
3007		-11.718750
3008		-7.812500
3009		-11.718750
3010		-7.812500
3011		-9.765625
3012		-7.812500
3013		-11.718750
3014		-5.859375
3015		-9.765625
3016		-5.859375
3017		-9.765625
3018		-5.859375
3019		-7.812500
3020		-5.859375
3021		-7.812500
3022		-3.906250
3023		-7.812500
3024		-3.906250
3025		-7.812500
3026		-3.906250
3027		-5.859375
3028		-3.906250
3029		-5.859375
3030		-1.953125
3031		-5.859375
3032		-1.953125
3033		-3.906250
3034		-1.953125
3035		-3.906250
3036		0.000000
3037		-3.906250
3038		0.000000
3039		-1.953125
3040		0.000000
3041		-1.953125
3042		0.000000
3043		-1.953125
3044		1.953125
3045		0.000000
3046		1.953125
3047		0.000000
3048		3.906250
3049		0.000000
3050		3.906250
3051		1.953125
3052		3.906250
3053		1.953125
3054		3.906250
3055		1.953125
3056		5.859375
3057		3.906250
3058		5.859375
3059		3.906250
3060		7.812500
3061		3.906250
3062		7.812500
3063		5.859375
3064		7.812500
3065		3.906250
3066		9.765625
3067		5.859375
3068		9.765625
3069		7.812500
3070		9.765625
3071		7.812500
3072		11.718750
3073		7.812500
3074		11.718750
3075		7.812500
3076		11.718750
3077		9.765625
3078		11.718750
3079		9.765625
3080		13.671875
3081		9.765625
3082		15.625000
3083		11.718750
3084		13.671875
3085		11.718750
3086		15.625000
3087		11.718750
3088		15.625000
3089		13.671875
3090		15.625000
3091		13.671875
3092		17.578125
3093		13.671875
3094		17.578125
3095		15.625000
3096		17.578125
3097		13.671875
3098		19.531250
3099		15.625000
3100		19.531250
3101		15.625000
3102		19.531250
3103		15.625000
3104		19.531250
3105		17.578125
3106		19.531250
3107		17.578125
3108		21.484375
3109		17.578125
3110		21.484375
3111		19.531250
3112		21.484375
3113		19.531250
3114		21.484375
3115		19.531250
3116		23.437500
3117		19.531250
3118		23.437500
3119		21.484375
3120		23.437500
3121		21.484375
3122		23.437500
3123		21.484375
3124		25.390625
3125		21.484375
3126		25.390625
3127		21.484375
3128		25.390625
3129		23.437500
3130		25.390625
3131		21.484375
3132		27.343750
3133		23.437500
3134		27.343750
3135		25.390625
3136		27.343750
3137		23.437500
3138		27.343750
3139		25.390625
3140		27.343750
3141		25.390625
3142		27.343750
3143		25.390625
3144		29.296875
3145		25.390625
3146		27.343750
3147		27.343750
3148		29.296875
3149		25.390625
3150		31.250000
3151		27.343750
3152		29.296875
3153		27.343750
3154		29.296875
3155		27.343750
3156		29.296875
3157		27.343750
3158		29.296875
3159		27.343750
3160		31.250000
3161		27.343750
3162		31.250000
3163		27.343750
3164		31.250000
3165		27.343750
3166		31.250000
3167		27.343750
3168		31.250000
3169		29.296875
3170		31.250000
3171		27.343750
3172		31.250000
3173		29.296875
3174		31.250000
3175		27.343750
3176		31.250000
3177		27.343750
3178		31.250000
3179		29.296875
3180		31.250000
3181		29.296875
3182		31.250000
3183		27.343750
3184		33.203125
3185		29.296875
3186		31.250000
3187		29.296875
3188		31.250000
3189		27.343750
3190		31.250000
3191		27.343750
3192		31.250000
3193		27.343750
3194		31.250000
3195		29.296875
3196		31.250000
3197		27.343750
3198		31.250000
3199		27.343750
3200		31.250000
3201		27.343750
3202		31.250000
3203		27.343750
3204		31.250000
3205		27.343750
3206		31.250000
3207		27.343750
3208		31.250000
3209		27.343750
3210		31.250000
3211		27.343750
3212		31.250000
3213		27.343750
3214		29.296875
3215		25.390625
3216		31.250000
3217		25.390625
3218		29.296875
3219		25.390625
3220		29.296875
3221		25.390625
3222		29.296875
3223		25.390625
3224		29.296875
3225		25.390625
3226		27.343750
3227		23.437500
3228		27.343750
3229		25.390625
3230		27.343750
3231		25.390625
3232		27.343750
3233		23.437500
3234		27.343750
3235		23.437500
3236		25.390625
3237		23.437500
3238		27.343750
3239		23.437500
3240		25.390625
3241		21.484375
3242		25.390625
3243		21.484375
3244		25.390625
3245		21.484375
3246		25.390625
3247		21.484375
3248		23.437500
3249		21.484375
3250		23.437500
3251		19.531250
3252		23.437500
3253		19.531250
3254		23.437500
3255		19.531250
3256		21.484375
3257		17.578125
3258		21.484375
3259		17.578125
3260		21.484375
3261		17.578125
3262		21.484375
3263		17.578125
3264		19.531250
3265		17.578125
3266		19.531250
3267		15.625000
3268		19.531250
3269		15.625000
3270		17.578125
3271		13.671875
3272		17.578125
3273		13.671875
3274		17.578125
3275		13.671875
3276		15.625000
3277		11.718750
3278		15.625000
3279		11.718750
3280		15.625000
3281		11.718750
3282		15.625000
3283		9.765625
3284		13.671875
3285		9.765625
3286		13.671875
3287		9.765625
3288		13.671875
3289		9.765625
3290		11.718750
3291		7.812500
3292		11.718750
3293		7.812500
3294		11.718750
3295		7.812500
3296		9.765625
3297		7.812500
3298		9.765625
3299		5.859375
3300		9.765625
3301		5.859375
3302		7.812500
3303		3.906250
3304		7.812500
3305		3.906250
3306		7.812500
3307		3.906250
3308		7.812500
3309		1.953125
3310		5.859375
3311		1.953125
3312		5.859375
3313		1.953125
3314		3.906250
3315		1.953125
3316		3.906250
3317		0.000000
3318		3.906250
3319		0.000000
3320		1.953125
3321		0.000000
3322		1.953125
3323		-1.953125
3324		1.953125
3325		-1.953125
3326		1.953125
3327		-1.953125
3328		0.000000
3329		-3.906250
3330		0.000000
3331		-3.906250
3332		-1.953125
3333		-5.859375
3334		-1.953125
3335		-5.859375
3336		-1.953125
3337		-5.859375
3338		-3.906250
3339		-5.859375
3340		-3.906250
3341		-7.812500
3342		-3.906250
3343		-7.812500
3344		-3.906250
3345		-9.765625
3346		-5.859375
3347		-7.812500
3348		-5.859375
3349		-9.765625
3350		-7.812500
3351		-11.718750
3352		-5.859375
3353		-11.718750
3354		-7.812500
3355		-11.718750
3356		-7.812500
3357		-11.718750
3358		-7.812500
3359		-11.718750
3360		-9.765625
3361		-11.718750
3362		-9.765625
3363		-13.671875
3364		-9.765625
3365		-13.671875
3366		-11.718750
3367		-13.671875
3368		-11.718750
3369		-13.671875
3370		-11.718750
3371		-15.625000
3372		-11.718750
3373		-15.625000
3374		-11.718750
3375		-15.625000
3376		-11.718750
3377		-15.625000
3378		-13.671875
3379		-17.578125
3380		-13.671875
3381		-15.625000
3382		-13.671875
3383		-17.578125
3384		-13.671875
3385		-17.578125
3386		-13.671875
3387		-17.578125
3388		-15.625000
3389		-17.578125
3390		-15.625000
3391		-17.578125
3392		-15.625000
3393		-19.531250
3394		-15.625000
3395		-19.531250
3396		-15.625000
3397		-17.578125
3398		-15.625000
3399		-19.531250
3400		-15.625000
3401		-19.531250
3402		-15.625000
3403		-19.531250
3404		-15.625000
3405		-19.531250
3406		-15.625000
3407		-19.531250
3408		-17.578125
3409		-19.531250
3410		-17.578125
3411		-19.531250
3412		-17.578125
3413		-21.484375
3414		-17.578125
3415		-19.531250
3416		-17.578125
3417		-21.484375
3418		-17.578125
3419		-19.531250
3420		-17.578125
3421		-19.531250
3422		-17.578125
3423		-19.531250
3424		-17.578125
3425		-19.531250
3426		-17.578125
3427		-19.531250
3428		-17.578125
3429		-19.531250
3430		-15.625000
3431		-19.531250
3432		-17.578125
3433		-19.531250
3434		-17.578125
3435		-19.531250
3436		-15.625000
3437		-19.531250
3438		-15.625000
3439		-17.578125
3440		-15.625000
3441		-17.578125
3442		-15.625000
3443		-19.531250
3444		-15.625000
3445		-17.578125
3446		-15.625000
3447		-17.578125
3448		-15.625000
3449		-17.578125
3450		-15.625000
3451		-17.578125
3452		-13.671875
3453		-17.578125
3454		-13.671875
3455		-17.578125
3456		-13.671875
3457		-15.625000
3458		-13.671875
3459		-15.625000
3460		-13.671875
3461		-15.625000
3462		-11.718750
3463		-15.625000
3464		-11.718750
3465		-13.671875
3466		-11.718750
3467		-13.671875
3468		-11.718750
3469		-13.671875
3470		-9.765625
3471		-13.671875
3472		-9.765625
3473		-13.671875
3474		-9.765625
3475		-13.671875
3476		-9.765625
3477		-11.718750
3478		-7.812500
3479		-11.718750
3480		-7.812500
3481		-9.765625
3482		-7.812500
3483		-9.765625
3484		-7.812500
3485		-11.718750
3486		-5.859375
3487		-9.765625
3488		-5.859375
3489		-7.812500
3490		-5.859375
3491		-9.765625
3492		-3.906250
3493		-7.812500
3494		-3.906250
3495		-7.812500
3496		-3.906250
3497		-7.812500
3498		-3.906250
3499		-5.859375
3500		-3.906250
3501		-5.859375
3502		-1.953125
3503		-5.859375
3504		-1.953125
3505		-3.906250
3506		-1.953125
3507		-3.906250
3508		0.000000
3509		-3.906250
3510		0.000000
3511		-1.953125
3512		0.000000
3513		-1.953125
3514		0.000000
3515		-1.953125
3516		1.953125
3517		0.000000
3518		1.953125
3519		0.000000
3520		3.906250
3521		0.000000
3522		3.906250
3523		1.953125
3524		3.906250
3525		1.953125
3526		5.859375
3527		1.953125
3528		5.859375
3529		1.953125
3530		5.859375
3531		1.953125
3532		7.812500
3533		3.906250
3534		7.812500
3535		5.859375
3536		7.812500
3537		5.859375
3538		9.765625
3539		5.859375
3540		9.765625
3541		5.859375
3542		9.765625
3543		7.812500
3544		9.765625
3545		7.812500
3546		11.718750
3547		7.812500
3548		11.718750
3549		9.765625
3550		11.718750
3551		9.765625
3552		13.671875
3553		9.765625
3554		13.671875
3555		11.718750
3556		13.671875
3557		11.718750
3558		15.625000
3559		11.718750
3560		15.625000
3561		11.718750
3562		15.625000
3563		13.671875
3564		17.578125
3565		13.671875
3566		17.578125
3567		15.625000
3568		17.578125
3569		13.671875
3570		19.531250
3571		15.625000
3572		19.531250
3573		15.625000
3574		19.531250
3575		17.578125
3576		19.531250
3577		17.578125
3578		21.484375
3579		17.578125
3580		21.484375
3581		17.578125
3582		21.484375
3583		19.531250
3584		21.484375
3585		17.578125
3586		23.437500
3587		19.531250
3588		23.437500
3589		19.531250
3590		23.437500
3591		21.484375
3592		23.437500
3593		21.484375
3594		25.390625
3595		21.484375
3596		25.390625
3597		21.484375
3598		25.390625
3599		23.437500
3600		25.390625
3601		23.437500
3602		25.390625
3603		23.437500
3604		27.343750
3605		23.437500
3606		27.343750
3607		23.437500
3608		27.343750
3609		23.437500
3610		27.343750
3611		25.390625
3612		27.343750
3613		25.390625
3614		29.296875
3615		25.390625
3616		29.296875
3617		25.390625
3618		29.296875
3619		25.390625
3620		29.296875
3621		25.390625
3622		29.296875
3623		27.343750
3624		29.296875
3625		27.343750
3626		29.296875
3627		27.343750
3628		29.296875
3629		27.343750
3630		29.296875
3631		27.343750
3632		31.250000
3633		27.343750
3634		29.296875
3635		27.343750
3636		31.250000
3637		27.343750
3638		31.250000
3639		27.343750
3640		31.250000
3641		29.296875
3642		31.250000
3643		29.296875
3644		31.250000
3645		27.343750
3646		31.250000
3647		27.343750
3648		31.250000
3649		29.296875
3650		31.250000
3651		29.296875
3652		31.250000
3653		27.343750
3654		31.250000
3655		29.296875
3656		31.250000
3657		29.296875
3658		31.250000
3659		27.343750
3660		31.250000
3661		27.343750
3662		31.250000
3663		29.296875
3664		31.250000
3665		27.343750
3666		31.250000
3667		29.296875
3668		31.250000
3669		27.343750
3670		31.250000
3671		27.343750
3672		31.250000
3673		27.343750
3674		31.250000
3675		27.343750
3676		31.250000
3677		27.343750
3678		31.250000
3679		27.343750
3680		31.250000
3681		25.390625
3682		31.250000
3683		27.343750
3684		29.296875
3685		27.343750
3686		29.296875
3687		25.390625
3688		29.296875
3689		27.343750
3690		29.296875
3691		25.390625
3692		29.296875
3693		25.390625
3694		29.296875
3695		25.390625
3696		27.343750
3697		25.390625
3698		27.343750
3699		25.390625
3700		29.296875
3701		25.390625
3702		27.343750
3703		23.437500
3704		27.343750
3705		23.437500
3706		27.343750
3707		23.437500
3708		27.343750
3709		23.437500
3710		25.390625
3711		21.484375
3712		25.390625
3713		21.484375
3714		25.390625
3715		21.484375
3716		25.390625
3717		21.484375
3718		23.437500
3719		19.531250
3720		25.390625
3721		21.484375
3722		23.437500
3723		19.531250
3724		23.437500
3725		19.531250
3726		23.437500
3727		19.531250
3728		21.484375
3729		19.531250
3730		21.484375
3731		17.578125
3732		21.484375
3733		17.578125
3734		19.531250
3735		17.578125
3736		19.531250
3737		15.625000
3738		19.531250
3739		15.625000
3740		19.531250
3741		15.625000
3742		17.578125
3743		13.671875
3744		17.578125
3745		13.671875
3746		17.578125
3747		13.671875
3748		15.625000
3749		11.718750
3750		17.578125
3751		13.671875
3752		15.625000
3753		9.765625
3754		13.671875
3755		11.718750
3756		13.671875
3757		9.765625
3758		13.671875
3759		9.765625
3760		13.671875
3761		7.812500
3762		11.718750
3763		7.812500
3764		11.718750
3765		7.812500
3766		11.718750
3767		7.812500
3768		9.765625
3769		5.859375
3770		9.765625
3771		5.859375
3772		9.765625
3773		5.859375
3774		7.812500
3775		3.906250
3776		7.812500
3777		3.906250
3778		5.859375
3779		3.906250
3780		5.859375
3781		1.953125
3782		5.859375
3783		1.953125
3784		5.859375
3785		1.953125
3786		3.906250
3787		0.000000
3788		3.906250
3789		0.000000
3790		3.906250
3791		0.000000
3792		1.953125
3793		-1.953125
3794		1.953125
3795		-1.953125
3796		0.000000
3797		-1.953125
3798		0.000000
3799		-3.906250
3800		0.000000
3801		-3.906250
3802		-1.953125
3803		-3.906250
3804		-1.953125
3805		-5.859375
3806		-1.953125
3807		-5.859375
3808		-1.953125
3809		-5.859375
3810		-1.953125
3811		-5.859375
3812		-3.906250
3813		-7.812500
3814		-3.906250
3815		-7.812500
3816		-5.859375
3817		-7.812500
3818		-5.859375
3819		-9.765625
3820		-5.859375
3821		-9.765625
3822		-5.859375
3823		-9.765625
3824		-5.859375
3825		-11.718750
3826		-7.812500
3827		-11.718750
3828		-7.812500
3829		-11.718750
3830		-7.812500
3831		-11.718750
3832		-9.765625
3833		-13.671875
3834		-9.765625
3835		-13.671875
3836		-9.765625
3837		-13.671875
3838		-9.765625
3839		-13.671875
3840		-9.765625
3841		-13.671875
3842		-11.718750
3843		-15.625000
3844		-11.718750
3845		-15.625000
3846		-11.718750
3847		-15.625000
3848		-13.671875
3849		-15.625000
3850		-13.671875
3851		-15.625000
3852		-13.671875
3853		-15.625000
3854		-13.671875
3855		-17.578125
3856		-13.671875
3857		-17.578125
3858		-13.671875
3859		-17.578125
3860		-13.671875
3861		-17.578125
3862		-15.625000
3863		-17.578125
3864		-15.625000
3865		-17.578125
3866		-15.625000
3867		-19.531250
3868		-15.625000
3869		-19.531250
3870		-15.625000
3871		-19.531250
3872		-15.625000
3873		-19.531250
3874		-15.625000
3875		-19.531250
3876		-17.578125
3877		-19.531250
3878		-17.578125
3879		-19.531250
3880		-15.625000
3881		-19.531250
3882		-17.578125
3883		-19.531250
3884		-15.625000
3885		-19.531250
3886		-17.578125
3887		-19.531250
3888		-17.578125
3889		-19.531250
3890		-15.625000
3891		-19.531250
3892		-17.578125
3893		-19.531250
3894		-17.578125
3895		-19.531250
3896		-17.578125
3897		-19.531250
3898		-17.578125
3899		-19.531250
3900		-15.625000
3901		-19.531250
3902		-15.625000
3903		-19.531250
3904		-17.578125
3905		-19.531250
3906		-15.625000
3907		-19.531250
3908		-15.625000
3909		-19.531250
3910		-15.625000
3911		-19.531250
3912		-15.625000
3913		-17.578125
3914		-15.625000
3915		-17.578125
3916		-15.625000
3917		-17.578125
3918		-15.625000
3919		-17.578125
3920		-15.625000
3921		-17.578125
3922		-13.671875
3923		-17.578125
3924		-13.671875
3925		-17.578125
3926		-13.671875
3927		-17.578125
3928		-13.671875
3929		-15.625000
3930		-13.671875
3931		-15.625000
3932		-13.671875
3933		-15.625000
3934		-11.718750
3935		-15.625000
3936		-11.718750
3937		-13.671875
3938		-11.718750
3939		-13.671875
3940		-9.765625
3941		-13.671875
3942		-11.718750
3943		-13.671875
3944		-9.765625
3945		-13.671875
3946		-9.765625
3947		-13.671875
3948		-9.765625
3949		-11.718750
3950		-7.812500
3951		-13.671875
3952		-7.812500
3953		-11.718750
3954		-7.812500
3955		-9.765625
3956		-5.859375
3957		-9.765625
3958		-5.859375
3959		-9.765625
3960		-5.859375
3961		-9.765625
3962		-5.859375
3963		-7.812500
3964		-5.859375
3965		-7.812500
3966		-3.906250
3967		-7.812500
3968		-3.906250
3969		-5.859375
3970		-3.906250
3971		-5.859375
3972		-3.906250
3973		-5.859375
3974		-1.953125
3975		-5.859375
3976		-1.953125
3977		-3.906250
3978		-1.953125
3979		-3.906250
3980		0.000000
3981		-3.906250
3982		0.000000
3983		-1.953125
3984		0.000000
3985		-1.953125
3986		1.953125
3987		0.000000
3988		1.953125
3989		0.000000
3990		3.906250
3991		0.000000
3992		3.906250
3993		0.000000
3994		3.906250
3995		1.953125
3996		3.906250
3997		1.953125
3998		5.859375
3999		1.953125
4000		5.859375
4001		3.906250
4002		5.859375
4003		3.906250
4004		5.859375
4005		3.906250
4006		7.812500
4007		5.859375
4008		7.812500
4009		5.859375
4010		9.765625
4011		5.859375
4012		9.765625
4013		7.812500
4014		9.765625
4015		7.812500
4016		11.718750
4017		7.812500
4018		11.718750
4019		9.765625
4020		11.718750
4021		9.765625
4022		11.718750
4023		9.765625
4024		13.671875
4025		11.718750
4026		13.671875
4027		11.718750
4028		15.625000
4029		11.718750
4030		15.625000
4031		11.718750
4032		15.625000
4033		13.671875
4034		17.578125
4035		13.671875
4036		17.578125
4037		15.625000
4038		17.578125
4039		13.671875
4040		17.578125
4041		15.625000
4042		19.531250
4043		15.625000
4044		19.531250
4045		17.578125
4046		19.531250
4047		17.578125
4048		19.531250
4049		17.578125
4050		21.484375
4051		17.578125
4052		21.484375
4053		19.531250
4054		21.484375
4055		19.531250
4056		21.484375
4057		19.531250
4058		23.437500
4059		19.531250
4060		23.437500
4061		21.484375
4062		23.437500
4063		21.484375
4064		25.390625
4065		21.484375
4066		25.390625
4067		21.484375
4068		25.390625
4069		21.484375
4070		25.390625
4071		23.437500
4072		25.390625
4073		21.484375
4074		27.343750
4075		23.437500
4076		27.343750
4077		23.437500
4078		27.343750
4079		23.437500
4080		27.343750
4081		25.390625
4082		27.343750
4083		25.390625
4084		29.296875
4085		23.437500
4086		29.296875
4087		25.390625
4088		29.296875
4089		27.343750
4090		29.296875
4091		25.390625
4092		29.296875
4093		27.343750
4094		29.296875
4095		27.343750
4096		29.296875
4097		27.343750
4098		29.296875
4099		27.343750
4100		29.296875
4101		27.343750
4102		31.250000
4103		27.343750
4104		29.296875
4105		27.343750
4106		29.296875
4107		27.343750
4108		31.250000
4109		27.343750
4110		31.250000
4111		27.343750
4112		31.250000
4113		29.296875
4114		31.250000
4115		27.343750
4116		31.250000
4117		27.343750
4118		31.250000
4119		29.296875
4120		33.203125
4121		29.296875
4122		31.250000
4123		27.343750
4124		31.250000
4125		29.296875
4126		31.250000
4127		29.296875
4128		31.250000
4129		29.296875
4130		31.250000
4131		29.296875
4132		31.250000
4133		29.296875
4134		31.250000
4135		27.343750
4136		31.250000
4137		29.296875
4138		31.250000
4139		29.296875
4140		31.250000
4141		27.343750
4142		31.250000
4143		27.343750
4144		31.250000
4145		27.343750
4146		31.250000
4147		27.343750
4148		31.250000
4149		27.343750
4150		31.250000
4151		27.343750
4152		31.250000
4153		27.343750
4154		31.250000
4155		27.343750
4156		29.296875
4157		27.343750
4158		31.250000
4159		27.343750
4160		29.296875
4161		27.343750
4162		29.296875
4163		25.390625
4164		29.296875
4165		25.390625
4166		29.296875
4167		25.390625
4168		27.343750
4169		25.390625
4170		29.296875
4171		25.390625
4172		27.343750
4173		23.437500
4174		27.343750
4175		23.437500
4176		27.343750
4177		23.437500
4178		27.343750
4179		23.437500
4180		27.343750
4181		23.437500
4182		25.390625
4183		23.437500
4184		25.390625
4185		21.484375
4186		25.390625
4187		21.484375
4188		25.390625
4189		21.484375
4190		23.437500
4191		19.531250
4192		23.437500
4193		19.531250
4194		23.437500
4195		19.531250
4196		23.437500
4197		19.531250
4198		23.437500
4199		17.578125
4200		21.484375
4201		17.578125
4202		21.484375
4203		17.578125
4204		21.484375
4205		17.578125
4206		19.531250
4207		15.625000
4208		19.531250
4209		15.625000
4210		19.531250
4211		15.625000
4212		19.531250
4213		15.625000
4214		17.578125
4215		13.671875
4216		17.578125
4217		13.671875
4218		17.578125
4219		13.671875
4220		17.578125
4221		13.671875
4222		15.625000
4223		11.718750
4224		15.625000
4225		11.718750
4226		15.625000
4227		9.765625
4228		13.671875
4229		9.765625
4230		13.671875
4231		9.765625
4232		11.718750
4233		9.765625
4234		11.718750
4235		7.812500
4236		11.718750
4237		7.812500
4238		11.718750
4239		7.812500
4240		9.765625
4241		5.859375
4242		9.765625
4243		5.859375
4244		9.765625
4245		5.859375
4246		7.812500
4247		3.906250
4248		7.812500
4249		3.906250
4250		7.812500
4251		1.953125
4252		5.859375
4253		1.953125
4254		5.859375
4255		1.953125
4256		3.906250
4257		0.000000
4258		3.906250
4259		0.000000
4260		3.906250
4261		0.000000
4262		3.906250
4263		0.000000
4264		1.953125
4265		-1.953125
4266		1.953125
4267		-1.953125
4268		1.953125
4269		-3.906250
4270		0.000000
4271		-3.906250
4272		0.000000
4273		-3.906250
4274		-1.953125
4275		-5.859375
4276		0.000000
4277		-5.859375
4278		-1.953125
4279		-5.859375
4280		-1.953125
4281		-5.859375
4282		-3.906250
4283		-7.812500
4284		-3.906250
4285		-7.812500
4286		-3.906250
4287		-9.765625
4288		-3.906250
4289		-7.812500
4290		-5.859375
4291		-9.765625
4292		-5.859375
4293		-9.765625
4294		-5.859375
4295		-11.718750
4296		-7.812500
4297		-9.765625
4298		-7.812500
4299		-11.718750
4300		-7.812500
4301		-11.718750
4302		-7.812500
4303		-13.671875
4304		-9.765625
4305		-11.718750
4306		-9.765625
4307		-13.671875
4308		-9.765625
4309		-13.671875
4310		-9.765625
4311		-13.671875
4312		-11.718750
4313		-15.625000
4314		-11.718750
4315		-15.625000
4316		-11.718750
4317		-15.625000
4318		-11.718750
4319		-15.625000
4320		-11.718750
4321		-15.625000
4322		-11.718750
4323		-15.625000
4324		-13.671875
4325		-17.578125
4326		-13.671875
4327		-17.578125
4328		-13.671875
4329		-17.578125
4330		-13.671875
4331		-17.578125
4332		-13.671875
4333		-17.578125
4334		-13.671875
4335		-17.578125
4336		-15.625000
4337		-17.578125
4338		-15.625000
4339		-17.578125
4340		-15.625000
4341		-19.531250
4342		-15.625000
4343		-19.531250
4344		-15.625000
4345		-19.531250
4346		-15.625000
4347		-19.531250
4348		-15.625000
4349		-19.531250
4350		-15.625000
4351		-19.531250
4352		-17.578125
4353		-19.531250
4354		-15.625000
4355		-19.531250
4356		-17.578125
4357		-19.531250
4358		-17.578125
4359		-19.531250
4360		-15.625000
4361		-19.531250
4362		-15.625000
4363		-19.531250
4364		-17.578125
4365		-19.531250
4366		-15.625000
4367		-19.531250
4368		-17.578125
4369		-19.531250
4370		-17.578125
4371		-21.484375
4372		-15.625000
4373		-19.531250
4374		-15.625000
4375		-19.531250
4376		-15.625000
4377		-19.531250
4378		-15.625000
4379		-19.531250
4380		-15.625000
4381		-19.531250
4382		-15.625000
4383		-19.531250
4384		-15.625000
4385		-17.578125
4386		-15.625000
4387		-19.531250
4388		-13.671875
4389		-17.578125
4390		-15.625000
4391		-17.578125
4392		-15.625000
4393		-17.578125
4394		-13.671875
4395		-17.578125
4396		-13.671875
4397		-15.625000
4398		-13.671875
4399		-17.578125
4400		-13.671875
4401		-15.625000
4402		-13.671875
4403		-15.625000
4404		-11.718750
4405		-15.625000
4406		-11.718750
4407		-13.671875
4408		-11.718750
4409		-15.625000
4410		-11.718750
4411		-13.671875
4412		-11.718750
4413		-13.671875
4414		-9.765625
4415		-13.671875
4416		-9.765625
4417		-11.718750
4418		-9.765625
4419		-11.718750
4420		-9.765625
4421		-11.718750
4422		-7.812500
4423		-11.718750
4424		-7.812500
4425		-9.765625
4426		-7.812500
4427		-9.765625
4428		-5.859375
4429		-9.765625
4430		-5.859375
4431		-9.765625
4432		-5.859375
4433		-7.812500
4434		-5.859375
4435		-7.812500
4436		-3.906250
4437		-7.812500
4438		-3.906250
4439		-5.859375
4440		-3.906250
4441		-5.859375
4442		-3.906250
4443		-5.859375
4444		-1.953125
4445		-5.859375
4446		-1.953125
4447		-3.906250
4448		-1.953125
4449		-3.906250
4450		0.000000
4451		-3.906250
4452		0.000000
4453		-3.906250
4454		0.000000
4455		-1.953125
4456		1.953125
4457		0.000000
4458		1.953125
4459		-1.953125
4460		1.953125
4461		0.000000
4462		3.906250
4463		0.000000
4464		3.906250
4465		0.000000
4466		3.906250
4467		1.953125
4468		5.859375
4469		1.953125
4470		5.859375
4471		1.953125
4472		5.859375
4473		3.906250
4474		5.859375
4475		3.906250
4476		7.812500
4477		3.906250
4478		7.812500
4479		5.859375
4480		9.765625
4481		5.859375
4482		9.765625
4483		7.812500
4484		9.765625
4485		7.812500
4486		11.718750
4487		7.812500
4488		11.718750
4489		7.812500
4490		11.718750
4491		9.765625
4492		11.718750
4493		9.765625
4494		13.671875
4495		9.765625
4496		13.671875
4497		11.718750
4498		13.671875
4499		11.718750
4500		15.625000
4501		11.718750
4502		15.625000
4503		13.671875
4504		17.578125
4505		13.671875
4506		17.578125
4507		15.625000
4508		17.578125
4509		15.625000
4510		17.578125
4511		15.625000
4512		17.578125
4513		15.625000
4514		19.531250
4515		15.625000
4516		19.531250
4517		17.578125
4518		19.531250
4519		17.578125
4520		19.531250
4521		17.578125
4522		21.484375
4523		19.531250
4524		21.484375
4525		19.531250
4526		21.484375
4527		17.578125
4528		23.437500
4529		19.531250
4530		23.437500
4531		21.484375
4532		23.437500
4533		21.484375
4534		23.437500
4535		21.484375
4536		25.390625
4537		21.484375
4538		25.390625
4539		21.484375
4540		25.390625
4541		23.437500
4542		25.390625
4543		23.437500
4544		27.343750
4545		23.437500
4546		25.390625
4547		23.437500
4548		27.343750
4549		23.437500
4550		27.343750
4551		25.390625
4552		27.343750
4553		25.390625
4554		27.343750
4555		25.390625
4556		27.343750
4557		25.390625
4558		27.343750
4559		25.390625
4560		29.296875
4561		25.390625
4562		29.296875
4563		27.343750
4564		29.296875
4565		27.343750
4566		29.296875
4567		27.343750
4568		29.296875
4569		27.343750
4570		29.296875
4571		27.343750
4572		31.250000
4573		27.343750
4574		31.250000
4575		27.343750
4576		31.250000
4577		27.343750
4578		31.250000
4579		27.343750
4580		31.250000
4581		27.343750
4582		31.250000
4583		29.296875
4584		31.250000
4585		27.343750
4586		31.250000
4587		27.343750
4588		31.250000
4589		27.343750
4590		31.250000
4591		29.296875
4592		31.250000
4593		29.296875
4594		31.250000
4595		27.343750
4596		31.250000
4597		27.343750
4598		31.250000
4599		29.296875
4600		33.203125
4601		29.296875
4602		31.250000
4603		27.343750
4604		31.250000
4605		29.296875
4606		31.250000
4607		29.296875
4608		31.250000
4609		29.296875
4610		31.250000
4611		27.343750
4612		31.250000
4613		29.296875
4614		31.250000
4615		27.343750
4616		31.250000
4617		27.343750
4618		31.250000
4619		27.343750
4620		31.250000
4621		27.343750
4622		31.250000
4623		27.343750
4624		31.250000
4625		27.343750
4626		29.296875
4627		25.390625
4628		31.250000
4629		27.343750
4630		29.296875
4631		27.343750
4632		29.296875
4633		27.343750
4634		29.296875
4635		27.343750
4636		29.296875
4637		25.390625
4638		29.296875
4639		25.390625
4640		29.296875
4641		25.390625
4642		27.343750
4643		25.390625
4644		27.343750
4645		25.390625
4646		27.343750
4647		23.437500
4648		27.343750
4649		23.437500
4650		27.343750
4651		23.437500
4652		27.343750
4653		23.437500
4654		25.390625
4655		23.437500
4656		25.390625
4657		21.484375
4658		25.390625
4659		21.484375
4660		25.390625
4661		21.484375
4662		25.390625
4663		19.531250
4664		23.437500
4665		19.531250
4666		23.437500
4667		19.531250
4668		23.437500
4669		19.531250
4670		23.437500
4671		19.531250
4672		21.484375
4673		17.578125
4674		21.484375
4675		17.578125
4676		21.484375
4677		17.578125
4678		19.531250
4679		15.625000
4680		19.531250
4681		15.625000
4682		19.531250
4683		15.625000
4684		17.578125
4685		15.625000
4686		17.578125
4687		13.671875
4688		17.578125
4689		13.671875
4690		17.578125
4691		13.671875
4692		17.578125
4693		13.671875
4694		15.625000
4695		11.718750
4696		15.625000
4697		11.718750
4698		13.671875
4699		11.718750
4700		13.671875
4701		9.765625
4702		13.671875
4703		9.765625
4704		13.671875
4705		9.765625
4706		11.718750
4707		7.812500
4708		11.718750
4709		7.812500
4710		11.718750
4711		7.812500
4712		9.765625
4713		5.859375
4714		9.765625
4715		5.859375
4716		9.765625
4717		5.859375
4718		7.812500
4719		3.906250
4720		7.812500
4721		3.906250
4722		7.812500
4723		1.953125
4724		5.859375
4725		1.953125
4726		5.859375
4727		1.953125
4728		5.859375
4729		1.953125
4730		3.906250
4731		0.000000
4732		3.906250
4733		0.000000
4734		3.906250
4735		0.000000
4736		1.953125
4737		-1.953125
4738		1.953125
4739		-1.953125
4740		0.000000
4741		-1.953125
4742		1.953125
4743		-1.953125
4744		0.000000
4745		-5.859375
4746		0.000000
4747		-3.906250
4748		-1.953125
4749		-5.859375
4750		-1.953125
4751		-5.859375
4752		-1.953125
4753		-5.859375
4754		-1.953125
4755		-5.859375
4756		-3.906250
4757		-7.812500
4758		-3.906250
4759		-7.812500
4760		-5.859375
4761		-7.812500
4762		-5.859375
4763		-9.765625
4764		-5.859375
4765		-9.765625
4766		-5.859375
4767		-9.765625
4768		-7.812500
4769		-9.765625
4770		-7.812500
4771		-11.718750
4772		-7.812500
4773		-11.718750
4774		-9.765625
4775		-11.718750
4776		-7.812500
4777		-11.718750
4778		-9.765625
4779		-13.671875
4780		-9.765625
4781		-13.671875
4782		-9.765625
4783		-13.671875
4784		-11.718750
4785		-15.625000
4786		-9.765625
4787		-13.671875
4788		-11.718750
4789		-15.625000
4790		-11.718750
4791		-15.625000
4792		-11.718750
4793		-15.625000
4794		-13.671875
4795		-17.578125
4796		-13.671875
4797		-17.578125
4798		-13.671875
4799		-17.578125
4800		-13.671875
4801		-17.578125
4802		-13.671875
4803		-17.578125
4804		-13.671875
4805		-17.578125
4806		-13.671875
4807		-17.578125
4808		-15.625000
4809		-17.578125
4810		-15.625000
4811		-17.578125
4812		-15.625000
4813		-19.531250
4814		-15.625000
4815		-19.531250
4816		-15.625000
4817		-19.531250
4818		-15.625000
4819		-19.531250
4820		-15.625000
4821		-19.531250
4822		-15.625000
4823		-19.531250
4824		-15.625000
4825		-19.531250
4826		-15.625000
4827		-19.531250
4828		-17.578125
4829		-19.531250
4830		-15.625000
4831		-19.531250
4832		-15.625000
4833		-19.531250
4834		-15.625000
4835		-19.531250
4836		-15.625000
4837		-19.531250
4838		-17.578125
4839		-19.531250
4840		-15.625000
4841		-19.531250
4842		-15.625000
4843		-19.531250
4844		-15.625000
4845		-19.531250
4846		-15.625000
4847		-19.531250
4848		-15.625000
4849		-19.531250
4850		-15.625000
4851		-17.578125
4852		-15.625000
4853		-19.531250
4854		-15.625000
4855		-17.578125
4856		-15.625000
4857		-17.578125
4858		-15.625000
4859		-17.578125
4860		-15.625000
4861		-17.578125
4862		-15.625000
4863		-17.578125
4864		-13.671875
4865		-17.578125
4866		-13.671875
4867		-15.625000
4868		-13.671875
4869		-17.578125
4870		-13.671875
4871		-15.625000
4872		-11.718750
4873		-15.625000
4874		-11.718750
4875		-15.625000
4876		-11.718750
4877		-13.671875
4878		-11.718750
4879		-15.625000
4880		-9.765625
4881		-13.671875
4882		-11.718750
4883		-13.671875
4884		-9.765625
4885		-13.671875
4886		-9.765625
4887		-11.718750
4888		-9.765625
4889		-11.718750
4890		-9.765625
4891		-11.718750
4892		-7.812500
4893		-11.718750
4894		-7.812500
4895		-9.765625
4896		-7.812500
4897		-11.718750
4898		-5.859375
4899		-9.765625
4900		-5.859375
4901		-9.765625
4902		-5.859375
4903		-7.812500
4904		-5.859375
4905		-7.812500
4906		-5.859375
4907		-7.812500
4908		-3.906250
4909		-7.812500
4910		-3.906250
4911		-5.859375
4912		-3.906250
4913		-5.859375
4914		-1.953125
4915		-5.859375
4916		-1.953125
4917		-3.906250
4918		-1.953125
4919		-3.906250
4920		-1.953125
4921		-3.906250
4922		0.000000
4923		-1.953125
4924		0.000000
4925		-1.953125
4926		1.953125
4927		-1.953125
4928		1.953125
4929		0.000000
4930		1.953125
4931		0.000000
4932		1.953125
4933		0.000000
4934		3.906250
4935		0.000000
4936		3.906250
4937		1.953125
4938		5.859375
4939		1.953125
4940		5.859375
4941		1.953125
4942		5.859375
4943		1.953125
4944		7.812500
4945		3.906250
4946		7.812500
4947		3.906250
4948		7.812500
4949		5.859375
4950		7.812500
4951		5.859375
4952		9.765625
4953		7.812500
4954		9.765625
4955		7.812500
4956		11.718750
4957		7.812500
4958		11.718750
4959		9.765625
4960		11.718750
4961		9.765625
4962		11.718750
4963		9.765625
4964		13.671875
4965		9.765625
4966		13.671875
4967		11.718750
4968		13.671875
4969		11.718750
4970		15.625000
4971		11.718750
4972		15.625000
4973		13.671875
4974		15.625000
4975		13.671875
4976		17.578125
4977		13.671875
4978		17.578125
4979		15.625000
4980		17.578125
4981		15.625000
4982		19.531250
4983		15.625000
4984		19.531250
4985		15.625000
4986		19.531250
4987		15.625000
4988		21.484375
4989		17.578125
4990		21.484375
4991		17.578125
4992		21.484375
4993		17.578125
4994		21.484375
4995		19.531250
4996		21.484375
4997		19.531250
4998		21.484375
4999		19.531250
5000		23.437500
5001		21.484375
5002		23.437500
5003		21.484375
5004		23.437500
5005		21.484375
5006		23.437500
5007		21.484375
5008		23.437500
5009		21.484375
5010		25.390625
5011		23.437500
5012		25.390625
5013		23.437500
5014		25.390625
5015		23.437500
5016		27.343750
5017		23.437500
5018		27.343750
5019		23.437500
5020		27.343750
5021		25.390625
5022		27.343750
5023		25.390625
5024		27.343750
5025		25.390625
5026		29.296875
5027		25.390625
5028		29.296875
5029		25.390625
5030		29.296875
5031		25.390625
5032		29.296875
5033		27.343750
5034		29.296875
5035		27.343750
5036		29.296875
5037		27.343750
5038		29.296875
5039		27.343750
5040		31.250000
5041		27.343750
5042		31.250000
5043		27.343750
5044		31.250000
5045		29.296875
5046		31.250000
5047		29.296875
5048		31.250000
5049		27.343750
5050		31.250000
5051		29.296875
5052		31.250000
5053		29.296875
5054		31.250000
5055		29.296875
5056		31.250000
5057		29.296875
5058		31.250000
5059		27.343750
5060		33.203125
5061		29.296875
5062		31.250000
5063		29.296875
5064		31.250000
5065		29.296875
5066		31.250000
5067		29.296875
5068		33.203125
5069		29.296875
5070		31.250000
5071		29.296875
5072		33.203125
5073		29.296875
5074		33.203125
5075		29.296875
5076		33.203125
5077		29.296875
5078		33.203125
5079		29.296875
5080		31.250000
5081		27.343750
5082		31.250000
5083		29.296875
5084		33.203125
5085		29.296875
5086		31.250000
5087		27.343750
5088		31.250000
5089		27.343750
5090		31.250000
5091		27.343750
5092		31.250000
5093		27.343750
5094		31.250000
5095		27.343750
5096		31.250000
5097		27.343750
5098		29.296875
5099		25.390625
5100		31.250000
5101		27.343750
5102		29.296875
5103		27.343750
5104		31.250000
5105		27.343750
5106		29.296875
5107		27.343750
5108		29.296875
5109		25.390625
5110		29.296875
5111		25.390625
5112		29.296875
5113		25.390625
5114		29.296875
5115		25.390625
5116		29.296875
5117		25.390625
5118		27.343750
5119		25.390625
5120		27.343750
5121		25.390625
5122		27.343750
5123		23.437500
5124		27.343750
5125		23.437500
5126		27.343750
5127		21.484375
5128		25.390625
5129		23.437500
5130		25.390625
5131		23.437500
5132		25.390625
5133		21.484375
5134		25.390625
5135		21.484375
5136		25.390625
5137		21.484375
5138		23.437500
5139		19.531250
5140		23.437500
5141		19.531250
5142		23.437500
5143		19.531250
5144		21.484375
5145		17.578125
5146		21.484375
5147		17.578125
5148		21.484375
5149		15.625000
5150		21.484375
5151		17.578125
5152		19.531250
5153		17.578125
5154		19.531250
5155		15.625000
5156		19.531250
5157		15.625000
5158		19.531250
5159		13.671875
5160		17.578125
5161		13.671875
5162		17.578125
5163		13.671875
5164		15.625000
5165		13.671875
5166		15.625000
5167		11.718750
5168		15.625000
5169		11.718750
5170		15.625000
5171		9.765625
5172		13.671875
5173		9.765625
5174		13.671875
5175		9.765625
5176		13.671875
5177		9.765625
5178		11.718750
5179		7.812500
5180		11.718750
5181		7.812500
5182		11.718750
5183		5.859375
5184		11.718750
5185		7.812500
5186		9.765625
5187		5.859375
5188		9.765625
5189		5.859375
5190		7.812500
5191		5.859375
5192		7.812500
5193		1.953125
5194		7.812500
5195		1.953125
5196		5.859375
5197		1.953125
5198		5.859375
5199		1.953125
5200		5.859375
5201		1.953125
5202		3.906250
5203		0.000000
5204		3.906250
5205		0.000000
5206		3.906250
5207		0.000000
5208		1.953125
5209		-1.953125
5210		1.953125
5211		-1.953125
5212		1.953125
5213		-1.953125
5214		0.000000
5215		-1.953125
5216		0.000000
5217		-3.906250
5218		0.000000
5219		-3.906250
5220		-1.953125
5221		-5.859375
5222		-1.953125
5223		-5.859375
5224		-1.953125
5225		-5.859375
5226		-3.906250
5227		-7.812500
5228		-3.906250
5229		-7.812500
5230		-3.906250
5231		-7.812500
5232		-5.859375
5233		-9.765625
5234		-3.906250
5235		-9.765625
5236		-5.859375
5237		-9.765625
5238		-5.859375
5239		-9.765625
5240		-5.859375
5241		-11.718750
5242		-7.812500
5243		-11.718750
5244		-7.812500
5245		-11.718750
5246		-7.812500
5247		-11.718750
5248		-9.765625
5249		-13.671875
5250		-9.765625
5251		-13.671875
5252		-9.765625
5253		-13.671875
5254		-9.765625
5255		-13.671875
5256		-9.765625
5257		-13.671875
5258		-11.718750
5259		-15.625000
5260		-11.718750
5261		-15.625000
5262		-11.718750
5263		-15.625000
5264		-13.671875
5265		-15.625000
5266		-13.671875
5267		-15.625000
5268		-11.718750
5269		-17.578125
5270		-13.671875
5271		-15.625000
5272		-13.671875
5273		-17.578125
5274		-13.671875
5275		-17.578125
5276		-13.671875
5277		-17.578125
5278		-13.671875
5279		-19.531250
5280		-13.671875
5281		-17.578125
5282		-15.625000
5283		-19.531250
5284		-15.625000
5285		-19.531250
5286		-15.625000
5287		-19.531250
5288		-15.625000
5289		-19.531250
5290		-15.625000
5291		-19.531250
5292		-15.625000
5293		-19.531250
5294		-15.625000
5295		-19.531250
5296		-15.625000
5297		-19.531250
5298		-15.625000
5299		-19.531250
5300		-17.578125
5301		-19.531250
5302		-15.625000
5303		-19.531250
5304		-15.625000
5305		-19.531250
5306		-15.625000
5307		-19.531250
5308		-15.625000
5309		-19.531250
5310		-15.625000
5311		-19.531250
5312		-15.625000
5313		-19.531250
5314		-15.625000
5315		-17.578125
5316		-15.625000
5317		-19.531250
5318		-15.625000
5319		-19.531250
5320		-15.625000
5321		-19.531250
5322		-15.625000
5323		-17.578125
5324		-15.625000
5325		-17.578125
5326		-15.625000
5327		-17.578125
5328		-13.671875
5329		-19.531250
5330		-13.671875
5331		-17.578125
5332		-13.671875
5333		-17.578125
5334		-13.671875
5335		-15.625000
5336		-13.671875
5337		-15.625000
5338		-13.671875
5339		-15.625000
5340		-13.671875
5341		-15.625000
5342		-11.718750
5343		-15.625000
5344		-11.718750
5345		-15.625000
5346		-11.718750
5347		-13.671875
5348		-11.718750
5349		-13.671875
5350		-11.718750
5351		-15.625000
5352		-11.718750
5353		-13.671875
5354		-9.765625
5355		-11.718750
5356		-9.765625
5357		-11.718750
5358		-9.765625
5359		-11.718750
5360		-7.812500
5361		-11.718750
5362		-7.812500
5363		-11.718750
5364		-7.812500
5365		-9.765625
5366		-7.812500
5367		-11.718750
5368		-7.812500
5369		-9.765625
5370		-5.859375
5371		-9.765625
5372		-5.859375
5373		-9.765625
5374		-5.859375
5375		-7.812500
5376		-3.906250
5377		-7.812500
5378		-3.906250
5379		-7.812500
5380		-3.906250
5381		-5.859375
5382		-3.906250
5383		-5.859375
5384		-3.906250
5385		-5.859375
5386		-1.953125
5387		-3.906250
5388		-1.953125
5389		-3.906250
5390		0.000000
5391		-3.906250
5392		0.000000
5393		-1.953125
5394		0.000000
5395		-1.953125
5396		1.953125
5397		-1.953125
5398		1.953125
5399		0.000000
5400		1.953125
5401		0.000000
5402		3.906250
5403		0.000000
5404		3.906250
5405		0.000000
5406		3.906250
5407		1.953125
5408		5.859375
5409		1.953125
5410		5.859375
5411		1.953125
5412		5.859375
5413		1.953125
5414		7.812500
5415		3.906250
5416		7.812500
5417		5.859375
5418		7.812500
5419		5.859375
5420		7.812500
5421		5.859375
5422		9.765625
5423		5.859375
5424		9.765625
5425		7.812500
5426		11.718750
5427		7.812500
5428		11.718750
5429		7.812500
5430		11.718750
5431		9.765625
5432		11.718750
5433		9.765625
5434		13.671875
5435		9.765625
5436		13.671875
5437		11.718750
5438		13.671875
5439		11.718750
5440		15.625000
5441		11.718750
5442		15.625000
5443		13.671875
5444		15.625000
5445		13.671875
5446		17.578125
5447		13.671875
5448		17.578125
5449		13.671875
5450		17.578125
5451		15.625000
5452		19.531250
5453		15.625000
5454		19.531250
5455		15.625000
5456		19.531250
5457		17.578125
5458		19.531250
5459		17.578125
5460		21.484375
5461		17.578125
5462		21.484375
5463		17.578125
5464		21.484375
5465		19.531250
5466		21.484375
5467		19.531250
5468		21.484375
5469		19.531250
5470		23.437500
5471		19.531250
5472		23.437500
5473		21.484375
5474		23.437500
5475		21.484375
5476		23.437500
5477		21.484375
5478		25.390625
5479		21.484375
5480		25.390625
5481		21.484375
5482		25.390625
5483		23.437500
5484		25.390625
5485		23.437500
5486		27.343750
5487		23.437500
5488		27.343750
5489		23.437500
5490		27.343750
5491		25.390625
5492		29.296875
5493		25.390625
5494		27.343750
5495		25.390625
5496		29.296875
5497		25.390625
5498		29.296875
5499		27.343750
5500		29.296875
5501		25.390625
5502		29.296875
5503		25.390625
5504		31.250000
5505		27.343750
5506		31.250000
5507		27.343750
5508		31.250000
5509		27.343750
5510		31.250000
5511		27.343750
5512		31.250000
5513		27.343750
5514		31.250000
5515		27.343750
5516		31.250000
5517		29.296875
5518		31.250000
5519		27.343750
5520		31.250000
5521		29.296875
5522		31.250000
5523		27.343750
5524		31.250000
5525		29.296875
5526		33.203125
5527		29.296875
5528		33.203125
5529		29.296875
5530		31.250000
5531		29.296875
5532		33.203125
5533		29.296875
5534		31.250000
5535		29.296875
5536		33.203125
5537		29.296875
5538		33.203125
5539		29.296875
5540		33.203125
5541		29.296875
5542		31.250000
5543		29.296875
5544		33.203125
5545		29.296875
5546		33.203125
5547		29.296875
5548		33.203125
5549		29.296875
5550		31.250000
5551		29.296875
5552		31.250000
5553		29.296875
5554		33.203125
5555		29.296875
5556		33.203125
5557		29.296875
5558		31.250000
5559		29.296875
5560		33.203125
5561		29.296875
5562		31.250000
5563		29.296875
5564		31.250000
5565		29.296875
5566		31.250000
5567		29.296875
5568		31.250000
5569		27.343750
5570		31.250000
5571		27.343750
5572		31.250000
5573		27.343750
5574		31.250000
5575		27.343750
5576		29.296875
5577		27.343750
5578		29.296875
5579		27.343750
5580		29.296875
5581		27.343750
5582		29.296875
5583		27.343750
5584		29.296875
5585		25.390625
5586		29.296875
5587		25.390625
5588		29.296875
5589		25.390625
5590		29.296875
5591		25.390625
5592		27.343750
5593		23.437500
5594		27.343750
5595		23.437500
5596		27.343750
5597		23.437500
5598		27.343750
5599		23.437500
5600		25.390625
5601		23.437500
5602		25.390625
5603		21.484375
5604		25.390625
5605		21.484375
5606		25.390625
5607		21.484375
5608		25.390625
5609		21.484375
5610		23.437500
5611		19.531250
5612		23.437500
5613		19.531250
5614		23.437500
5615		19.531250
5616		23.437500
5617		19.531250
5618		21.484375
5619		19.531250
5620		21.484375
5621		17.578125
5622		21.484375
5623		17.578125
5624		21.484375
5625		17.578125
5626		19.531250
5627		15.625000
5628		19.531250
5629		15.625000
5630		19.531250
5631		13.671875
5632		17.578125
5633		13.671875
5634		17.578125
5635		13.671875
5636		15.625000
5637		11.718750
5638		15.625000
5639		11.718750
5640		15.625000
5641		11.718750
5642		15.625000
5643		11.718750
5644		13.671875
5645		11.718750
5646		13.671875
5647		9.765625
5648		13.671875
5649		9.765625
5650		13.671875
5651		9.765625
5652		11.718750
5653		7.812500
5654		11.718750
5655		7.812500
5656		9.765625
5657		7.812500
5658		9.765625
5659		5.859375
5660		9.765625
5661		5.859375
5662		9.765625
5663		5.859375
5664		7.812500
5665		3.906250
5666		7.812500
5667		3.906250
5668		5.859375
5669		3.906250
5670		5.859375
5671		1.953125
5672		5.859375
5673		0.000000
5674		5.859375
5675		0.000000
5676		3.906250
5677		0.000000
5678		3.906250
5679		0.000000
5680		3.906250
5681		-1.953125
5682		1.953125
5683		-1.953125
5684		1.953125
5685		-1.953125
5686		0.000000
5687		-1.953125
5688		1.953125
5689		-1.953125
5690		0.000000
5691		-3.906250
5692		0.000000
5693		-3.906250
5694		-1.953125
5695		-5.859375
5696		-1.953125
5697		-5.859375
5698		-1.953125
5699		-5.859375
5700		-1.953125
5701		-5.859375
5702		-3.906250
5703		-7.812500
5704		-3.906250
5705		-7.812500
5706		-3.906250
5707		-7.812500
5708		-5.859375
5709		-9.765625
5710		-5.859375
5711		-9.765625
5712		-5.859375
5713		-9.765625
5714		-7.812500
5715		-11.718750
5716		-5.859375
5717		-11.718750
5718		-7.812500
5719		-11.718750
5720		-9.765625
5721		-11.718750
5722		-7.812500
5723		-13.671875
5724		-7.812500
5725		-13.671875
5726		-9.765625
5727		-13.671875
5728		-9.765625
5729		-13.671875
5730		-9.765625
5731		-15.625000
5732		-11.718750
5733		-15.625000
5734		-11.718750
5735		-13.671875
5736		-11.718750
5737		-15.625000
5738		-11.718750
5739		-15.625000
5740		-11.718750
5741		-15.625000
5742		-11.718750
5743		-15.625000
5744		-11.718750
5745		-17.578125
5746		-13.671875
5747		-17.578125
5748		-13.671875
5749		-17.578125
5750		-13.671875
5751		-17.578125
5752		-13.671875
5753		-17.578125
5754		-15.625000
5755		-17.578125
5756		-13.671875
5757		-17.578125
5758		-13.671875
5759		-17.578125
5760		-13.671875
5761		-17.578125
5762		-13.671875
5763		-17.578125
5764		-13.671875
5765		-19.531250
5766		-15.625000
5767		-19.531250
5768		-15.625000
5769		-17.578125
5770		-15.625000
5771		-19.531250
5772		-15.625000
5773		-19.531250
5774		-13.671875
5775		-19.531250
5776		-15.625000
5777		-19.531250
5778		-15.625000
5779		-19.531250
5780		-13.671875
5781		-19.531250
5782		-13.671875
5783		-19.531250
5784		-15.625000
5785		-17.578125
5786		-15.625000
5787		-19.531250
5788		-13.671875
5789		-19.531250
5790		-13.671875
5791		-19.531250
5792		-13.671875
5793		-17.578125
5794		-13.671875
5795		-17.578125
5796		-13.671875
5797		-17.578125
5798		-13.671875
5799		-17.578125
5800		-13.671875
5801		-15.625000
5802		-13.671875
5803		-15.625000
5804		-13.671875
5805		-17.578125
5806		-11.718750
5807		-15.625000
5808		-11.718750
5809		-17.578125
5810		-11.718750
5811		-15.625000
5812		-11.718750
5813		-15.625000
5814		-11.718750
5815		-15.625000
5816		-11.718750
5817		-15.625000
5818		-11.718750
5819		-13.671875
5820		-11.718750
5821		-13.671875
5822		-9.765625
5823		-13.671875
5824		-9.765625
5825		-13.671875
5826		-9.765625
5827		-13.671875
5828		-7.812500
5829		-13.671875
5830		-7.812500
5831		-11.718750
5832		-7.812500
5833		-11.718750
5834		-7.812500
5835		-9.765625
5836		-7.812500
5837		-9.765625
5838		-7.812500
5839		-9.765625
5840		-5.859375
5841		-9.765625
5842		-5.859375
5843		-7.812500
5844		-5.859375
5845		-7.812500
5846		-5.859375
5847		-7.812500
5848		-3.906250
5849		-5.859375
5850		-3.906250
5851		-5.859375
5852		-3.906250
5853		-5.859375
5854		-3.906250
5855		-5.859375
5856		-1.953125
5857		-3.906250
5858		-1.953125
5859		-3.906250
5860		-1.953125
5861		-3.906250
5862		0.000000
5863		-1.953125
5864		0.000000
5865		-1.953125
5866		0.000000
5867		-1.953125
5868		1.953125
5869		0.000000
5870		1.953125
5871		0.000000
5872		1.953125
5873		0.000000
5874		3.906250
5875		1.953125
5876		3.906250
5877		1.953125
5878		3.906250
5879		1.953125
5880		5.859375
5881		3.906250
5882		5.859375
5883		3.906250
5884		5.859375
5885		3.906250
5886		7.812500
5887		3.906250
5888		7.812500
5889		5.859375
5890		7.812500
5891		5.859375
5892		7.812500
5893		7.812500
5894		9.765625
5895		7.812500
5896		9.765625
5897		7.812500
5898		11.718750
5899		9.765625
5900		11.718750
5901		9.765625
5902		11.718750
5903		9.765625
5904		11.718750
5905		11.718750
5906		13.671875
5907		11.718750
5908		13.671875
5909		11.718750
5910		13.671875
5911		11.718750
5912		15.625000
5913		13.671875
5914		15.625000
5915		13.671875
5916		15.625000
5917		13.671875
5918		17.578125
5919		15.625000
5920		17.578125
5921		15.625000
5922		17.578125
5923		15.625000
5924		19.531250
5925		17.578125
5926		19.531250
5927		17.578125
5928		19.531250
5929		17.578125
5930		19.531250
5931		17.578125
5932		21.484375
5933		19.531250
5934		21.484375
5935		19.531250
5936		21.484375
5937		19.531250
5938		21.484375
5939		17.578125
5940		25.390625
5941		17.578125
5942		25.390625
5943		19.531250
5944		27.343750
5945		21.484375
5946		23.437500
5947		21.484375
5948		25.390625
5949		23.437500
5950		25.390625
5951		23.437500
5952		25.390625
5953		23.437500
5954		25.390625
5955		21.484375
5956		29.296875
5957		21.484375
5958		29.296875
5959		21.484375
5960		29.296875
5961		23.437500
5962		31.250000
5963		25.390625
5964		27.343750
5965		25.390625
5966		29.296875
5967		25.390625
5968		29.296875
5969		27.343750
5970		29.296875
5971		27.343750
5972		29.296875
5973		25.390625
5974		33.203125
5975		25.390625
5976		33.203125
5977		25.390625
5978		33.203125
5979		27.343750
5980		31.250000
5981		29.296875
5982		31.250000
5983		29.296875
5984		31.250000
5985		29.296875
5986		31.250000
5987		29.296875
5988		31.250000
5989		27.343750
5990		35.156250
5991		25.390625
5992		35.156250
5993		25.390625
5994		35.156250
5995		27.343750
5996		35.156250
5997		29.296875
5998		31.250000
5999		29.296875
6000		33.203125
6001		29.296875
6002		33.203125
6003		31.250000
6004		33.203125
6005		29.296875
6006		33.203125
6007		27.343750
6008		37.109375
6009		27.343750
6010		35.156250
6011		27.343750
6012		35.156250
6013		31.250000
6014		33.203125
6015		31.250000
6016		33.203125
6017		31.250000
6018		33.203125
6019		31.250000
6020		33.203125
6021		31.250000
6022		33.203125
6023		25.390625
6024		35.156250
6025		25.390625
6026		35.156250
6027		27.343750
6028		35.156250
6029		29.296875
6030		31.250000
6031		29.296875
6032		31.250000
6033		29.296875
6034		31.250000
6035		29.296875
6036		31.250000
6037		29.296875
6038		31.250000
6039		25.390625
6040		33.203125
6041		25.390625
6042		35.156250
6043		25.390625
6044		35.156250
6045		25.390625
6046		33.203125
6047		27.343750
6048		31.250000
6049		27.343750
6050		29.296875
6051		27.343750
6052		29.296875
6053		27.343750
6054		29.296875
6055		27.343750
6056		29.296875
6057		23.437500
6058		33.203125
6059		23.437500
6060		31.250000
6061		23.437500
6062		31.250000
6063		25.390625
6064		27.343750
6065		25.390625
6066		27.343750
6067		25.390625
6068		27.343750
6069		23.437500
6070		27.343750
6071		23.437500
6072		25.390625
6073		19.531250
6074		29.296875
6075		19.531250
6076		29.296875
6077		19.531250
6078		29.296875
6079		19.531250
6080		27.343750
6081		21.484375
6082		23.437500
6083		21.484375
6084		23.437500
6085		21.484375
6086		23.437500
6087		21.484375
6088		23.437500
6089		19.531250
6090		21.484375
6091		15.625000
6092		25.390625
6093		15.625000
6094		23.437500
6095		15.625000
6096		23.437500
6097		17.578125
6098		19.531250
6099		17.578125
6100		19.531250
6101		15.625000
6102		19.531250
6103		15.625000
6104		17.578125
6105		15.625000
6106		17.578125
6107		11.718750
6108		21.484375
6109		11.718750
6110		19.531250
6111		9.765625
6112		19.531250
6113		13.671875
6114		15.625000
6115		11.718750
6116		13.671875
6117		11.718750
6118		13.671875
6119		11.718750
6120		13.671875
6121		9.765625
6122		11.718750
6123		9.765625
6124		11.718750
6125		5.859375
6126		13.671875
6127		7.812500
6128		11.718750
6129		5.859375
6130		13.671875
6131		7.812500
6132		9.765625
6133		5.859375
6134		9.765625
6135		5.859375
6136		7.812500
6137		5.859375
6138		7.812500
6139		3.906250
6140		5.859375
6141		3.906250
6142		5.859375
6143		0.000000
6144		7.812500
6145		1.953125
6146		5.859375
6147		1.953125
6148		3.906250
6149		1.953125
6150		3.906250
6151		0.000000
6152		1.953125
6153		0.000000
6154		1.953125
6155		0.000000
6156		1.953125
6157		-1.953125
6158		1.953125
6159		-3.906250
6160		1.953125
6161		-3.906250
6162		1.953125
6163		-3.906250
6164		0.000000
6165		-3.906250
6166		-1.953125
6167		-3.906250
6168		-1.953125
6169		-5.859375
6170		-3.906250
6171		-5.859375
6172		-3.906250
6173		-5.859375
6174		-3.906250
6175		-7.812500
6176		-3.906250
6177		-7.812500
6178		-5.859375
6179		-7.812500
6180		-5.859375
6181		-7.812500
6182		-5.859375
6183		-9.765625
6184		-5.859375
6185		-9.765625
6186		-7.812500
6187		-9.765625
6188		-7.812500
6189		-9.765625
6190		-7.812500
6191		-11.718750
6192		-7.812500
6193		-11.718750
6194		-9.765625
6195		-11.718750
6196		-9.765625
6197		-11.718750
6198		-9.765625
6199		-11.718750
6200		-9.765625
6201		-13.671875
6202		-11.718750
6203		-13.671875
6204		-11.718750
6205		-13.671875
6206		-11.718750
6207		-13.671875
6208		-11.718750
6209		-13.671875
6210		-11.718750
6211		-13.671875
6212		-11.718750
6213		-15.625000
6214		-13.671875
6215		-15.625000
6216		-13.671875
6217		-15.625000
6218		-13.671875
6219		-15.625000
6220		-13.671875
6221		-15.625000
6222		-13.671875
6223		-15.625000
6224		-13.671875
6225		-17.578125
6226		-13.671875
6227		-17.578125
6228		-13.671875
6229		-17.578125
6230		-15.625000
6231		-17.578125
6232		-15.625000
6233		-17.578125
6234		-13.671875
6235		-17.578125
6236		-15.625000
6237		-17.578125
6238		-15.625000
6239		-17.578125
6240		-15.625000
6241		-19.531250
6242		-13.671875
6243		-17.578125
6244		-15.625000
6245		-17.578125
6246		-15.625000
6247		-17.578125
6248		-15.625000
6249		-19.531250
6250		-13.671875
6251		-17.578125
6252		-15.625000
6253		-17.578125
6254		-15.625000
6255		-17.578125
6256		-15.625000
6257		-17.578125
6258		-15.625000
6259		-19.531250
6260		-15.625000
6261		-17.578125
6262		-13.671875
6263		-17.578125
6264		-15.625000
6265		-17.578125
6266		-13.671875
6267		-17.578125
6268		-13.671875
6269		-15.625000
6270		-13.671875
6271		-17.578125
6272		-13.671875
6273		-15.625000
6274		-13.671875
6275		-17.578125
6276		-11.718750
6277		-15.625000
6278		-11.718750
6279		-15.625000
6280		-13.671875
6281		-15.625000
6282		-11.718750
6283		-15.625000
6284		-11.718750
6285		-13.671875
6286		-11.718750
6287		-13.671875
6288		-11.718750
6289		-13.671875
6290		-11.718750
6291		-15.625000
6292		-7.812500
6293		-13.671875
6294		-9.765625
6295		-13.671875
6296		-9.765625
6297		-11.718750
6298		-9.765625
6299		-11.718750
6300		-9.765625
6301		-11.718750
6302		-7.812500
6303		-11.718750
6304		-7.812500
6305		-9.765625
6306		-7.812500
6307		-9.765625
6308		-7.812500
6309		-11.718750
6310		-5.859375
6311		-9.765625
6312		-5.859375
6313		-7.812500
6314		-5.859375
6315		-7.812500
6316		-3.906250
6317		-7.812500
6318		-3.906250
6319		-5.859375
6320		-3.906250
6321		-5.859375
6322		-3.906250
6323		-5.859375
6324		-3.906250
6325		-5.859375
6326		-1.953125
6327		-5.859375
6328		-1.953125
6329		-3.906250
6330		-1.953125
6331		-3.906250
6332		0.000000
6333		-3.906250
6334		0.000000
6335		-1.953125
6336		0.000000
6337		-1.953125
6338		0.000000
6339		0.000000
6340		1.953125
6341		0.000000
6342		1.953125
6343		0.000000
6344		5.859375
6345		0.000000
6346		3.906250
6347		1.953125
6348		3.906250
6349		1.953125
6350		5.859375
6351		1.953125
6352		5.859375
6353		3.906250
6354		5.859375
6355		3.906250
6356		7.812500
6357		3.906250
6358		7.812500
6359		3.906250
6360		9.765625
6361		5.859375
6362		9.765625
6363		7.812500
6364		9.765625
6365		7.812500
6366		9.765625
6367		7.812500
6368		11.718750
6369		7.812500
6370		11.718750
6371		9.765625
6372		11.718750
6373		9.765625
6374		13.671875
6375		9.765625
6376		13.671875
6377		9.765625
6378		13.671875
6379		11.718750
6380		13.671875
6381		13.671875
6382		15.625000
6383		13.671875
6384		15.625000
6385		13.671875
6386		15.625000
6387		13.671875
6388		17.578125
6389		13.671875
6390		17.578125
6391		15.625000
6392		17.578125
6393		15.625000
6394		19.531250
6395		15.625000
6396		19.531250
6397		17.578125
6398		19.531250
6399		17.578125
6400		21.484375
6401		17.578125
6402		21.484375
6403		19.531250
6404		21.484375
6405		19.531250
6406		21.484375
6407		19.531250
6408		21.484375
6409		19.531250
6410		23.437500
6411		21.484375
6412		23.437500
6413		21.484375
6414		23.437500
6415		21.484375
6416		23.437500
6417		21.484375
6418		25.390625
6419		23.437500
6420		25.390625
6421		23.437500
6422		25.390625
6423		23.437500
6424		25.390625
6425		23.437500
6426		25.390625
6427		25.390625
6428		27.343750
6429		25.390625
6430		27.343750
6431		25.390625
6432		27.343750
6433		25.390625
6434		27.343750
6435		25.390625
6436		27.343750
6437		27.343750
6438		29.296875
6439		27.343750
6440		29.296875
6441		27.343750
6442		29.296875
6443		27.343750
6444		31.250000
6445		27.343750
6446		29.296875
6447		27.343750
6448		29.296875
6449		29.296875
6450		31.250000
6451		29.296875
6452		31.250000
6453		29.296875
6454		31.250000
6455		29.296875
6456		31.250000
6457		29.296875
6458		31.250000
6459		29.296875
6460		31.250000
6461		29.296875
6462		31.250000
6463		29.296875
6464		31.250000
6465		29.296875
6466		33.203125
6467		29.296875
6468		33.203125
6469		29.296875
6470		31.250000
6471		31.250000
6472		33.203125
6473		31.250000
6474		33.203125
6475		29.296875
6476		33.203125
6477		31.250000
6478		33.203125
6479		31.250000
6480		33.203125
6481		31.250000
6482		33.203125
6483		31.250000
6484		33.203125
6485		31.250000
6486		33.203125
6487		29.296875
6488		33.203125
6489		31.250000
6490		33.203125
6491		31.250000
6492		33.203125
6493		31.250000
6494		33.203125
6495		31.250000
6496		33.203125
6497		31.250000
6498		33.203125
6499		29.296875
6500		33.203125
6501		29.296875
6502		33.203125
6503		29.296875
6504		31.250000
6505		29.296875
6506		31.250000
6507		29.296875
6508		31.250000
6509		29.296875
6510		31.250000
6511		29.296875
6512		31.250000
6513		29.296875
6514		31.250000
6515		29.296875
6516		31.250000
6517		29.296875
6518		31.250000
6519		27.343750
6520		31.250000
6521		27.343750
6522		31.250000
6523		27.343750
6524		29.296875
6525		27.343750
6526		29.296875
6527		25.390625
6528		29.296875
6529		27.343750
6530		29.296875
6531		25.390625
6532		29.296875
6533		25.390625
6534		29.296875
6535		25.390625
6536		27.343750
6537		25.390625
6538		27.343750
6539		25.390625
6540		27.343750
6541		23.437500
6542		27.343750
6543		23.437500
6544		27.343750
6545		23.437500
6546		27.343750
6547		23.437500
6548		25.390625
6549		23.437500
6550		25.390625
6551		23.437500
6552		25.390625
6553		21.484375
6554		23.437500
6555		21.484375
6556		23.437500
6557		21.484375
6558		23.437500
6559		21.484375
6560		23.437500
6561		19.531250
6562		23.437500
6563		19.531250
6564		23.437500
6565		19.531250
6566		21.484375
6567		17.578125
6568		21.484375
6569		17.578125
6570		19.531250
6571		17.578125
6572		19.531250
6573		15.625000
6574		19.531250
6575		15.625000
6576		19.531250
6577		13.671875
6578		19.531250
6579		13.671875
6580		19.531250
6581		13.671875
6582		15.625000
6583		13.671875
6584		15.625000
6585		13.671875
6586		15.625000
6587		11.718750
6588		15.625000
6589		11.718750
6590		13.671875
6591		11.718750
6592		13.671875
6593		9.765625
6594		13.671875
6595		7.812500
6596		13.671875
6597		7.812500
6598		13.671875
6599		7.812500
6600		11.718750
6601		7.812500
6602		9.765625
6603		7.812500
6604		9.765625
6605		5.859375
6606		9.765625
6607		5.859375
6608		7.812500
6609		5.859375
6610		7.812500
6611		3.906250
6612		9.765625
6613		1.953125
6614		7.812500
6615		3.906250
6616		5.859375
6617		1.953125
6618		5.859375
6619		1.953125
6620		3.906250
6621		1.953125
6622		3.906250
6623		0.000000
6624		3.906250
6625		0.000000
6626		1.953125
6627		-1.953125
6628		1.953125
6629		-1.953125
6630		3.906250
6631		-3.906250
6632		1.953125
6633		-1.953125
6634		0.000000
6635		-3.906250
6636		0.000000
6637		-3.906250
6638		-1.953125
6639		-3.906250
6640		-1.953125
6641		-5.859375
6642		-1.953125
6643		-5.859375
6644		-3.906250
6645		-7.812500
6646		-1.953125
6647		-7.812500
6648		-1.953125
6649		-7.812500
6650		-3.906250
6651		-7.812500
6652		-5.859375
6653		-7.812500
6654		-5.859375
6655		-7.812500
6656		-5.859375
6657		-9.765625
6658		-7.812500
6659		-9.765625
6660		-7.812500
6661		-11.718750
6662		-5.859375
6663		-11.718750
6664		-5.859375
6665		-11.718750
6666		-7.812500
6667		-11.718750
6668		-9.765625
6669		-11.718750
6670		-9.765625
6671		-11.718750
6672		-9.765625
6673		-13.671875
6674		-9.765625
6675		-13.671875
6676		-11.718750
6677		-13.671875
6678		-11.718750
6679		-15.625000
6680		-9.765625
6681		-15.625000
6682		-9.765625
6683		-13.671875
6684		-11.718750
6685		-15.625000
6686		-11.718750
6687		-15.625000
6688		-13.671875
6689		-15.625000
6690		-13.671875
6691		-15.625000
6692		-13.671875
6693		-15.625000
6694		-13.671875
6695		-17.578125
6696		-11.718750
6697		-17.578125
6698		-11.718750
6699		-15.625000
6700		-13.671875
6701		-17.578125
6702		-13.671875
6703		-17.578125
6704		-13.671875
6705		-17.578125
6706		-15.625000
6707		-17.578125
6708		-13.671875
6709		-17.578125
6710		-15.625000
6711		-17.578125
6712		-15.625000
6713		-19.531250
6714		-13.671875
6715		-17.578125
6716		-13.671875
6717		-17.578125
6718		-15.625000
6719		-17.578125
6720		-15.625000
6721		-17.578125
6722		-15.625000
6723		-17.578125
6724		-15.625000
6725		-17.578125
6726		-15.625000
6727		-17.578125
6728		-15.625000
6729		-19.531250
6730		-13.671875
6731		-17.578125
6732		-13.671875
6733		-17.578125
6734		-13.671875
6735		-15.625000
6736		-13.671875
6737		-15.625000
6738		-13.671875
6739		-15.625000
6740		-13.671875
6741		-15.625000
6742		-13.671875
6743		-15.625000
6744		-13.671875
6745		-15.625000
6746		-11.718750
6747		-15.625000
6748		-13.671875
6749		-15.625000
6750		-13.671875
6751		-15.625000
6752		-11.718750
6753		-15.625000
6754		-11.718750
6755		-13.671875
6756		-11.718750
6757		-13.671875
6758		-11.718750
6759		-13.671875
6760		-11.718750
6761		-13.671875
6762		-11.718750
6763		-13.671875
6764		-9.765625
6765		-11.718750
6766		-9.765625
6767		-11.718750
6768		-9.765625
6769		-11.718750
6770		-9.765625
6771		-11.718750
6772		-9.765625
6773		-11.718750
6774		-7.812500
6775		-9.765625
6776		-7.812500
6777		-9.765625
6778		-7.812500
6779		-11.718750
6780		-5.859375
6781		-9.765625
6782		-5.859375
6783		-7.812500
6784		-5.859375
6785		-7.812500
6786		-5.859375
6787		-7.812500
6788		-5.859375
6789		-5.859375
6790		-3.906250
6791		-5.859375
6792		-3.906250
6793		-5.859375
6794		-3.906250
6795		-5.859375
6796		-1.953125
6797		-3.906250
6798		-1.953125
6799		-3.906250
6800		-1.953125
6801		-3.906250
6802		-1.953125
6803		-1.953125
6804		0.000000
6805		-1.953125
6806		0.000000
6807		-1.953125
6808		1.953125
6809		0.000000
6810		1.953125
6811		0.000000
6812		1.953125
6813		0.000000
6814		1.953125
6815		1.953125
6816		3.906250
6817		1.953125
6818		3.906250
6819		1.953125
6820		5.859375
6821		3.906250
6822		5.859375
6823		3.906250
6824		5.859375
6825		3.906250
6826		5.859375
6827		5.859375
6828		7.812500
6829		5.859375
6830		7.812500
6831		5.859375
6832		7.812500
6833		5.859375
6834		9.765625
6835		7.812500
6836		9.765625
6837		7.812500
6838		9.765625
6839		9.765625
6840		11.718750
6841		9.765625
6842		11.718750
6843		9.765625
6844		11.718750
6845		9.765625
6846		13.671875
6847		11.718750
6848		13.671875
6849		11.718750
6850		13.671875
6851		11.718750
6852		15.625000
6853		13.671875
6854		15.625000
6855		13.671875
6856		15.625000
6857		13.671875
6858		15.625000
6859		15.625000
6860		17.578125
6861		15.625000
6862		17.578125
6863		15.625000
6864		19.531250
6865		17.578125
6866		19.531250
6867		17.578125
6868		19.531250
6869		17.578125
6870		19.531250
6871		17.578125
6872		19.531250
6873		19.531250
6874		21.484375
6875		19.531250
6876		21.484375
6877		19.531250
6878		21.484375
6879		21.484375
6880		23.437500
6881		21.484375
6882		23.437500
6883		21.484375
6884		23.437500
6885		21.484375
6886		25.390625
6887		21.484375
6888		25.390625
6889		23.437500
6890		25.390625
6891		23.437500
6892		25.390625
6893		23.437500
6894		25.390625
6895		23.437500
6896		27.343750
6897		25.390625
6898		27.343750
6899		25.390625
6900		27.343750
6901		25.390625
6902		27.343750
6903		25.390625
6904		27.343750
6905		27.343750
6906		29.296875
6907		25.390625
6908		29.296875
6909		27.343750
6910		29.296875
6911		27.343750
6912		29.296875
6913		27.343750
6914		29.296875
6915		27.343750
6916		29.296875
6917		29.296875
6918		31.250000
6919		27.343750
6920		31.250000
6921		29.296875
6922		31.250000
6923		29.296875
6924		31.250000
6925		29.296875
6926		31.250000
6927		29.296875
6928		31.250000
6929		29.296875
6930		31.250000
6931		29.296875
6932		33.203125
6933		29.296875
6934		31.250000
6935		31.250000
6936		33.203125
6937		29.296875
6938		33.203125
6939		31.250000
6940		33.203125
6941		29.296875
6942		33.203125
6943		31.250000
6944		33.203125
6945		31.250000
6946		33.203125
6947		31.250000
6948		33.203125
6949		31.250000
6950		33.203125
6951		31.250000
6952		33.203125
6953		31.250000
6954		33.203125
6955		31.250000
6956		33.203125
6957		31.250000
6958		33.203125
6959		31.250000
6960		33.203125
6961		31.250000
6962		33.203125
6963		31.250000
6964		33.203125
6965		31.250000
6966		33.203125
6967		31.250000
6968		33.203125
6969		31.250000
6970		33.203125
6971		31.250000
6972		33.203125
6973		31.250000
6974		33.203125
6975		29.296875
6976		33.203125
6977		29.296875
6978		33.203125
6979		29.296875
6980		31.250000
6981		29.296875
6982		31.250000
6983		29.296875
6984		31.250000
6985		29.296875
6986		31.250000
6987		29.296875
6988		31.250000
6989		29.296875
6990		31.250000
6991		29.296875
6992		31.250000
6993		27.343750
6994		31.250000
6995		27.343750
6996		31.250000
6997		27.343750
6998		29.296875
6999		27.343750
7000		31.250000
7001		27.343750
7002		29.296875
7003		27.343750
7004		29.296875
7005		27.343750
7006		29.296875
7007		25.390625
7008		29.296875
7009		25.390625
7010		29.296875
7011		25.390625
7012		27.343750
7013		25.390625
7014		27.343750
7015		25.390625
7016		27.343750
7017		23.437500
7018		25.390625
7019		23.437500
7020		25.390625
7021		21.484375
7022		25.390625
7023		23.437500
7024		25.390625
7025		21.484375
7026		25.390625
7027		21.484375
7028		23.437500
7029		21.484375
7030		23.437500
7031		21.484375
7032		23.437500
7033		19.531250
7034		23.437500
7035		19.531250
7036		21.484375
7037		19.531250
7038		21.484375
7039		17.578125
7040		21.484375
7041		17.578125
7042		19.531250
7043		17.578125
7044		19.531250
7045		15.625000
7046		19.531250
7047		15.625000
7048		17.578125
7049		15.625000
7050		17.578125
7051		15.625000
7052		17.578125
7053		13.671875
7054		15.625000
7055		13.671875
7056		15.625000
7057		11.718750
7058		15.625000
7059		11.718750
7060		15.625000
7061		11.718750
7062		13.671875
7063		11.718750
7064		13.671875
7065		9.765625
7066		13.671875
7067		9.765625
7068		11.718750
7069		9.765625
7070		11.718750
7071		7.812500
7072		11.718750
7073		7.812500
7074		9.765625
7075		7.812500
7076		9.765625
7077		5.859375
7078		9.765625
7079		5.859375
7080		9.765625
7081		5.859375
7082		7.812500
7083		5.859375
7084		7.812500
7085		3.906250
7086		5.859375
7087		3.906250
7088		5.859375
7089		1.953125
7090		5.859375
7091		1.953125
7092		5.859375
7093		1.953125
7094		3.906250
7095		0.000000
7096		3.906250
7097		0.000000
7098		1.953125
7099		0.000000
7100		1.953125
7101		-1.953125
7102		1.953125
7103		-1.953125
7104		1.953125
7105		-1.953125
7106		0.000000
7107		-1.953125
7108		0.000000
7109		-3.906250
7110		-1.953125
7111		-3.906250
7112		-1.953125
7113		-3.906250
7114		-1.953125
7115		-5.859375
7116		-1.953125
7117		-5.859375
7118		-3.906250
7119		-5.859375
7120		-3.906250
7121		-5.859375
7122		-3.906250
7123		-7.812500
7124		-5.859375
7125		-7.812500
7126		-5.859375
7127		-7.812500
7128		-5.859375
7129		-7.812500
7130		-5.859375
7131		-9.765625
7132		-7.812500
7133		-9.765625
7134		-7.812500
7135		-9.765625
7136		-7.812500
7137		-9.765625
7138		-7.812500
7139		-11.718750
7140		-7.812500
7141		-11.718750
7142		-9.765625
7143		-11.718750
7144		-9.765625
7145		-11.718750
7146		-9.765625
7147		-13.671875
7148		-9.765625
7149		-13.671875
7150		-11.718750
7151		-13.671875
7152		-11.718750
7153		-13.671875
7154		-11.718750
7155		-13.671875
7156		-11.718750
7157		-13.671875
7158		-11.718750
7159		-15.625000
7160		-11.718750
7161		-15.625000
7162		-11.718750
7163		-15.625000
7164		-13.671875
7165		-15.625000
7166		-13.671875
7167		-15.625000
7168		-13.671875
7169		-15.625000
7170		-13.671875
7171		-15.625000
7172		-13.671875
7173		-17.578125
7174		-13.671875
7175		-15.625000
7176		-13.671875
7177		-15.625000
7178		-15.625000
7179		-17.578125
7180		-13.671875
7181		-17.578125
7182		-13.671875
7183		-15.625000
7184		-15.625000
7185		-17.578125
7186		-13.671875
7187		-17.578125
7188		-15.625000
7189		-17.578125
7190		-15.625000
7191		-17.578125
7192		-15.625000
7193		-17.578125
7194		-15.625000
7195		-17.578125
7196		-15.625000
7197		-17.578125
7198		-15.625000
7199		-17.578125
7200		-15.625000
7201		-15.625000
7202		-13.671875
7203		-15.625000
7204		-13.671875
7205		-15.625000
7206		-13.671875
7207		-15.625000
7208		-13.671875
7209		-17.578125
7210		-13.671875
7211		-15.625000
7212		-13.671875
7213		-15.625000
7214		-13.671875
7215		-15.625000
7216		-13.671875
7217		-15.625000
7218		-13.671875
7219		-15.625000
7220		-13.671875
7221		-13.671875
7222		-11.718750
7223		-13.671875
7224		-11.718750
7225		-13.671875
7226		-11.718750
7227		-13.671875
7228		-11.718750
7229		-13.671875
7230		-11.718750
7231		-13.671875
7232		-11.718750
7233		-13.671875
7234		-9.765625
7235		-11.718750
7236		-9.765625
7237		-11.718750
7238		-9.765625
7239		-11.718750
7240		-9.765625
7241		-11.718750
7242		-7.812500
7243		-9.765625
7244		-7.812500
7245		-9.765625
7246		-7.812500
7247		-9.765625
7248		-7.812500
7249		-9.765625
7250		-7.812500
7251		-7.812500
7252		-5.859375
7253		-7.812500
7254		-5.859375
7255		-7.812500
7256		-5.859375
7257		-7.812500
7258		-3.906250
7259		-5.859375
7260		-3.906250
7261		-5.859375
7262		-3.906250
7263		-5.859375
7264		-3.906250
7265		-3.906250
7266		-1.953125
7267		-3.906250
7268		-1.953125
7269		-3.906250
7270		-1.953125
7271		-3.906250
7272		0.000000
7273		-1.953125
7274		0.000000
7275		-1.953125
7276		0.000000
7277		-1.953125
7278		1.953125
7279		0.000000
7280		1.953125
7281		0.000000
7282		1.953125
7283		0.000000
7284		1.953125
7285		1.953125
7286		3.906250
7287		1.953125
7288		3.906250
7289		1.953125
7290		3.906250
7291		3.906250
7292		5.859375
7293		1.953125
7294		5.859375
7295		3.906250
7296		5.859375
7297		3.906250
7298		7.812500
7299		5.859375
7300		7.812500
7301		5.859375
7302		7.812500
7303		5.859375
7304		9.765625
7305		5.859375
7306		9.765625
7307		7.812500
7308		9.765625
7309		9.765625
7310		11.718750
7311		9.765625
7312		11.718750
7313		9.765625
7314		11.718750
7315		9.765625
7316		13.671875
7317		9.765625
7318		13.671875
7319		11.718750
7320		13.671875
7321		11.718750
7322		15.625000
7323		13.671875
7324		15.625000
7325		13.671875
7326		15.625000
7327		13.671875
7328		15.625000
7329		13.671875
7330		17.578125
7331		15.625000
7332		17.578125
7333		15.625000
7334		19.531250
7335		17.578125
7336		19.531250
7337		17.578125
7338		19.531250
7339		17.578125
7340		19.531250
7341		17.578125
7342		21.484375
7343		19.531250
7344		21.484375
7345		19.531250
7346		21.484375
7347		19.531250
7348		23.437500
7349		21.484375
7350		23.437500
7351		21.484375
7352		23.437500
7353		21.484375
7354		25.390625
7355		21.484375
7356		23.437500
7357		23.437500
7358		25.390625
7359		23.437500
7360		25.390625
7361		23.437500
7362		25.390625
7363		23.437500
7364		25.390625
7365		23.437500
7366		27.343750
7367		25.390625
7368		27.343750
7369		25.390625
7370		27.343750
7371		25.390625
7372		27.343750
7373		25.390625
7374		29.296875
7375		27.343750
7376		29.296875
7377		25.390625
7378		29.296875
7379		27.343750
7380		29.296875
7381		27.343750
7382		29.296875
7383		27.343750
7384		31.250000
7385		29.296875
7386		31.250000
7387		29.296875
7388		31.250000
7389		29.296875
7390		31.250000
7391		29.296875
7392		31.250000
7393		29.296875
7394		31.250000
7395		29.296875
7396		31.250000
7397		29.296875
7398		31.250000
7399		29.296875
7400		33.203125
7401		29.296875
7402		33.203125
7403		31.250000
7404		33.203125
7405		31.250000
7406		33.203125
7407		31.250000
7408		33.203125
7409		31.250000
7410		33.203125
7411		31.250000
7412		33.203125
7413		31.250000
7414		33.203125
7415		31.250000
7416		33.203125
7417		31.250000
7418		33.203125
7419		31.250000
7420		33.203125
7421		31.250000
7422		33.203125
7423		31.250000
7424		33.203125
7425		31.250000
7426		33.203125
7427		31.250000
7428		33.203125
7429		31.250000
7430		33.203125
7431		31.250000
7432		33.203125
7433		31.250000
7434		33.203125
7435		31.250000
7436		33.203125
7437		31.250000
7438		33.203125
7439		31.250000
7440		33.203125
7441		31.250000
7442		33.203125
7443		31.250000
7444		33.203125
7445		31.250000
7446		33.203125
7447		31.250000
7448		33.203125
7449		29.296875
7450		33.203125
7451		31.250000
7452		33.203125
7453		31.250000
7454		33.203125
7455		31.250000
7456		31.250000
7457		29.296875
7458		31.250000
7459		29.296875
7460		31.250000
7461		29.296875
7462		33.203125
7463		29.296875
7464		31.250000
7465		29.296875
7466		31.250000
7467		29.296875
7468		31.250000
7469		29.296875
7470		31.250000
7471		27.343750
7472		29.296875
7473		27.343750
7474		31.250000
7475		27.343750
7476		29.296875
7477		27.343750
7478		29.296875
7479		27.343750
7480		29.296875
7481		25.390625
7482		27.343750
7483		25.390625
7484		27.343750
7485		25.390625
7486		27.343750
7487		25.390625
7488		27.343750
7489		23.437500
7490		27.343750
7491		23.437500
7492		25.390625
7493		23.437500
7494		25.390625
7495		23.437500
7496		25.390625
7497		23.437500
7498		25.390625
7499		21.484375
7500		23.437500
7501		21.484375
7502		23.437500
7503		21.484375
7504		23.437500
7505		19.531250
7506		23.437500
7507		19.531250
7508		21.484375
7509		19.531250
7510		21.484375
7511		19.531250
7512		21.484375
7513		17.578125
7514		21.484375
7515		17.578125
7516		19.531250
7517		17.578125
7518		19.531250
7519		15.625000
7520		19.531250
7521		15.625000
7522		17.578125
7523		15.625000
7524		17.578125
7525		15.625000
7526		17.578125
7527		13.671875
7528		15.625000
7529		13.671875
7530		15.625000
7531		13.671875
7532		15.625000
7533		11.718750
7534		15.625000
7535		11.718750
7536		13.671875
7537		11.718750
7538		13.671875
7539		9.765625
7540		13.671875
7541		9.765625
7542		11.718750
7543		9.765625
7544		11.718750
7545		7.812500
7546		11.718750
7547		7.812500
7548		9.765625
7549		7.812500
7550		9.765625
7551		5.859375
7552		9.765625
7553		5.859375
7554		7.812500
7555		5.859375
7556		7.812500
7557		3.906250
7558		7.812500
7559		3.906250
7560		5.859375
7561		3.906250
7562		5.859375
7563		1.953125
7564		5.859375
7565		1.953125
7566		3.906250
7567		1.953125
7568		3.906250
7569		0.000000
7570		3.906250
7571		0.000000
7572		1.953125
7573		0.000000
7574		1.953125
7575		0.000000
7576		1.953125
7577		-1.953125
7578		0.000000
7579		-1.953125
7580		0.000000
7581		-3.906250
7582		0.000000
7583		-3.906250
7584		-1.953125
7585		-3.906250
7586		-1.953125
7587		-5.859375
7588		-1.953125
7589		-5.859375
7590		-3.906250
7591		-7.812500
7592		-1.953125
7593		-5.859375
7594		-3.906250
7595		-7.812500
7596		-1.953125
7597		-7.812500
7598		-5.859375
7599		-7.812500
7600		-5.859375
7601		-7.812500
7602		-5.859375
7603		-9.765625
7604		-5.859375
7605		-9.765625
7606		-5.859375
7607		-11.718750
7608		-5.859375
7609		-9.765625
7610		-7.812500
7611		-13.671875
7612		-5.859375
7613		-11.718750
7614		-9.765625
7615		-13.671875
7616		-7.812500
7617		-11.718750
7618		-9.765625
7619		-11.718750
7620		-9.765625
7621		-13.671875
7622		-9.765625
7623		-15.625000
7624		-9.765625
7625		-13.671875
7626		-9.765625
7627		-13.671875
7628		-9.765625
7629		-17.578125
7630		-9.765625
7631		-17.578125
7632		-9.765625
7633		-13.671875
7634		-11.718750
7635		-15.625000
7636		-11.718750
7637		-15.625000
7638		-11.718750
7639		-15.625000
7640		-11.718750
7641		-15.625000
7642		-11.718750
7643		-15.625000
7644		-11.718750
7645		-17.578125
7646		-11.718750
7647		-15.625000
7648		-13.671875
7649		-17.578125
7650		-11.718750
7651		-15.625000
7652		-13.671875
7653		-17.578125
7654		-13.671875
7655		-19.531250
7656		-11.718750
7657		-17.578125
7658		-11.718750
7659		-17.578125
7660		-13.671875
7661		-17.578125
7662		-13.671875
7663		-17.578125
7664		-11.718750
7665		-17.578125
7666		-11.718750
7667		-15.625000
7668		-13.671875
7669		-15.625000
7670		-13.671875
7671		-17.578125
7672		-11.718750
7673		-17.578125
7674		-11.718750
7675		-17.578125
7676		-13.671875
7677		-15.625000
7678		-13.671875
7679		-17.578125
7680		-9.765625
7681		-15.625000
7682		-13.671875
7683		-19.531250
7684		-9.765625
7685		-15.625000
7686		-11.718750
7687		-15.625000
7688		-11.718750
7689		-17.578125
7690		-9.765625
7691		-15.625000
7692		-9.765625
7693		-15.625000
7694		-9.765625
7695		-15.625000
7696		-7.812500
7697		-15.625000
7698		-7.812500
7699		-17.578125
7700		-7.812500
7701		-11.718750
7702		-9.765625
7703		-11.718750
7704		-9.765625
7705		-13.671875
7706		-7.812500
7707		-13.671875
7708		-5.859375
7709		-11.718750
7710		-7.812500
7711		-11.718750
7712		-7.812500
7713		-13.671875
7714		-3.906250
7715		-11.718750
7716		-3.906250
7717		-9.765625
7718		-7.812500
7719		-7.812500
7720		-5.859375
7721		-9.765625
7722		-3.906250
7723		-9.765625
7724		-1.953125
7725		-7.812500
7726		-3.906250
7727		-5.859375
7728		-3.906250
7729		-7.812500
7730		-1.953125
7731		-9.765625
7732		0.000000
7733		-7.812500
7734		0.000000
7735		-3.906250
7736		-1.953125
7737		-5.859375
7738		0.000000
7739		-5.859375
7740		1.953125
7741		-5.859375
7742		1.953125
7743		-1.953125
7744		0.000000
7745		-1.953125
7746		1.953125
7747		-3.906250
7748		3.906250
7749		-3.906250
7750		3.906250
7751		0.000000
7752		1.953125
7753		0.000000
7754		3.906250
7755		0.000000
7756		3.906250
7757		0.000000
7758		7.812500
7759		0.000000
7760		5.859375
7761		3.906250
7762		5.859375
7763		0.000000
7764		9.765625
7765		1.953125
7766		7.812500
7767		0.000000
7768		9.765625
7769		5.859375
7770		7.812500
7771		5.859375
7772		9.765625
7773		3.906250
7774		11.718750
7775		5.859375
7776		11.718750
7777		7.812500
7778		9.765625
7779		7.812500
7780		13.671875
7781		5.859375
7782		15.625000
7783		7.812500
7784		15.625000
7785		9.765625
7786		13.671875
7787		11.718750
7788		13.671875
7789		9.765625
7790		15.625000
7791		9.765625
7792		17.578125
7793		11.718750
7794		15.625000
7795		13.671875
7796		17.578125
7797		11.718750
7798		19.531250
7799		13.671875
7800		19.531250
7801		15.625000
7802		17.578125
7803		15.625000
7804		19.531250
7805		15.625000
7806		19.531250
7807		15.625000
7808		23.437500
7809		15.625000
7810		21.484375
7811		17.578125
7812		21.484375
7813		15.625000
7814		23.437500
7815		15.625000
7816		25.390625
7817		17.578125
7818		25.390625
7819		21.484375
7820		23.437500
7821		21.484375
7822		23.437500
7823		19.531250
7824		27.343750
7825		19.531250
7826		27.343750
7827		21.484375
7828		25.390625
7829		21.484375
7830		25.390625
7831		21.484375
7832		29.296875
7833		21.484375
7834		29.296875
7835		23.437500
7836		27.343750
7837		25.390625
7838		27.343750
7839		25.390625
7840		29.296875
7841		25.390625
7842		29.296875
7843		23.437500
7844		31.250000
7845		27.343750
7846		29.296875
7847		23.437500
7848		31.250000
7849		23.437500
7850		31.250000
7851		25.390625
7852		33.203125
7853		27.343750
7854		29.296875
7855		27.343750
7856		31.250000
7857		25.390625
7858		33.203125
7859		27.343750
7860		33.203125
7861		29.296875
7862		31.250000
7863		27.343750
7864		33.203125
7865		29.296875
7866		31.250000
7867		27.343750
7868		35.156250
7869		29.296875
7870		33.203125
7871		29.296875
7872		33.203125
7873		29.296875
7874		33.203125
7875		27.343750
7876		35.156250
7877		31.250000
7878		35.156250
7879		31.250000
7880		33.203125
7881		29.296875
7882		35.156250
7883		31.250000
7884		33.203125
7885		31.250000
7886		33.203125
7887		31.250000
7888		33.203125
7889		31.250000
7890		33.203125
7891		31.250000
7892		33.203125
7893		29.296875
7894		35.156250
7895		31.250000
7896		35.156250
7897		29.296875
7898		35.156250
7899		31.250000
7900		33.203125
7901		31.250000
7902		33.203125
7903		31.250000
7904		33.203125
7905		31.250000
7906		35.156250
7907		31.250000
7908		33.203125
7909		31.250000
7910		33.203125
7911		31.250000
7912		33.203125
7913		31.250000
7914		33.203125
7915		31.250000
7916		33.203125
7917		31.250000
7918		33.203125
7919		31.250000
7920		33.203125
7921		31.250000
7922		33.203125
7923		31.250000
7924		33.203125
7925		31.250000
7926		33.203125
7927		29.296875
7928		33.203125
7929		29.296875
7930		33.203125
7931		29.296875
7932		31.250000
7933		29.296875
7934		31.250000
7935		29.296875
7936		31.250000
7937		29.296875
7938		31.250000
7939		27.343750
7940		31.250000
7941		27.343750
7942		31.250000
7943		27.343750
7944		31.250000
7945		25.390625
7946		31.250000
7947		25.390625
7948		31.250000
7949		25.390625
7950		31.250000
7951		25.390625
7952		29.296875
7953		25.390625
7954		29.296875
7955		25.390625
7956		27.343750
7957		25.390625
7958		29.296875
7959		23.437500
7960		27.343750
7961		23.437500
7962		27.343750
7963		23.437500
7964		27.343750
7965		23.437500
7966		27.343750
7967		21.484375
7968		27.343750
7969		21.484375
7970		25.390625
7971		21.484375
7972		25.390625
7973		19.531250
7974		25.390625
7975		19.531250
7976		25.390625
7977		19.531250
7978		23.437500
7979		19.531250
7980		23.437500
7981		17.578125
7982		23.437500
7983		17.578125
7984		23.437500
7985		17.578125
7986		21.484375
7987		17.578125
7988		19.531250
7989		17.578125
7990		19.531250
7991		15.625000
7992		19.531250
7993		15.625000
7994		19.531250
7995		13.671875
7996		19.531250
7997		13.671875
7998		19.531250
7999		13.671875
8000		17.578125
8001		13.671875
8002		17.578125
8003		13.671875
8004		15.625000
8005		11.718750
8006		15.625000
8007		11.718750
8008		15.625000
8009		9.765625
8010		13.671875
8011		9.765625
8012		13.671875
8013		7.812500
8014		13.671875
8015		9.765625
8016		13.671875
8017		7.812500
8018		11.718750
8019		7.812500
8020		11.718750
8021		7.812500
8022		9.765625
8023		5.859375
8024		9.765625
8025		5.859375
8026		9.765625
8027		3.906250
8028		7.812500
8029		1.953125
8030		7.812500
8031		1.953125
8032		7.812500
8033		1.953125
8034		5.859375
8035		1.953125
8036		5.859375
8037		1.953125
8038		3.906250
8039		1.953125
8040		3.906250
8041		0.000000
8042		3.906250
8043		0.000000
8044		3.906250
8045		-1.953125
8046		3.906250
8047		-1.953125
8048		1.953125
8049		-1.953125
8050		1.953125
8051		-3.906250
8052		0.000000
8053		-3.906250
8054		0.000000
8055		-3.906250
8056		-1.953125
8057		-3.906250
8058		-1.953125
8059		-5.859375
8060		-1.953125
8061		-5.859375
8062		-1.953125
8063		-7.812500
8064		-1.953125
8065		-5.859375
8066		-3.906250
8067		-7.812500
8068		-3.906250
8069		-9.765625
8070		-3.906250
8071		-7.812500
8072		-5.859375
8073		-7.812500
8074		-5.859375
8075		-9.765625
8076		-5.859375
8077		-9.765625
8078		-5.859375
8079		-11.718750
8080		-5.859375
8081		-11.718750
8082		-5.859375
8083		-11.718750
8084		-7.812500
8085		-11.718750
8086		-7.812500
8087		-11.718750
8088		-9.765625
8089		-11.718750
8090		-9.765625
8091		-13.671875
8092		-7.812500
8093		-13.671875
8094		-9.765625
8095		-13.671875
8096		-9.765625
8097		-15.625000
8098		-9.765625
8099		-13.671875
8100		-9.765625
8101		-13.671875
8102		-11.718750
8103		-15.625000
8104		-11.718750
8105		-13.671875
8106		-11.718750
8107		-15.625000
8108		-11.718750
8109		-15.625000
8110		-11.718750
8111		-15.625000
8112		-13.671875
8113		-15.625000
8114		-11.718750
8115		-15.625000
8116		-11.718750
8117		-15.625000
8118		-13.671875
8119		-17.578125
8120		-11.718750
8121		-15.625000
8122		-13.671875
8123		-15.625000
8124		-13.671875
8125		-15.625000
8126		-13.671875
8127		-15.625000
8128		-13.671875
8129		-17.578125
8130		-13.671875
8131		-17.578125
8132		-13.671875
8133		-15.625000
8134		-13.671875
8135		-17.578125
8136		-13.671875
8137		-17.578125
8138		-13.671875
8139		-15.625000
8140		-13.671875
8141		-17.578125
8142		-13.671875
8143		-15.625000
8144		-13.671875
8145		-15.625000
8146		-13.671875
8147		-17.578125
8148		-11.718750
8149		-15.625000
8150		-13.671875
8151		-15.625000
8152		-11.718750
8153		-15.625000
8154		-11.718750
8155		-15.625000
8156		-13.671875
8157		-15.625000
8158		-11.718750
8159		-15.625000
8160		-11.718750
8161		-13.671875
8162		-11.718750
8163		-13.671875
8164		-11.718750
8165		-13.671875
8166		-11.718750
8167		-13.671875
8168		-9.765625
8169		-13.671875
8170		-9.765625
8171		-13.671875
8172		-9.765625
8173		-11.718750
8174		-9.765625
8175		-13.671875
8176		-9.765625
8177		-11.718750
8178		-7.812500
8179		-11.718750
8180		-7.812500
8181		-11.718750
8182		-7.812500
8183		-11.718750
8184		-7.812500
8185		-9.765625
8186		-7.812500
8187		-11.718750
8188		-5.859375
8189		-9.765625
8190		-7.812500
8191		-7.812500
8192		-5.859375
8193		-7.812500
8194		-5.859375
8195		-7.812500
8196		-3.906250
8197		-7.812500
8198		-3.906250
8199		-7.812500
8200		-3.906250
8201		-5.859375
8202		-3.906250
8203		-5.859375
8204		-1.953125
8205		-5.859375
8206		-1.953125
8207		-3.906250
8208		-1.953125
8209		-5.859375
8210		-1.953125
8211		-3.906250
8212		0.000000
8213		-3.906250
8214		0.000000
8215		-1.953125
8216		0.000000
8217		-1.953125
8218		1.953125
8219		-1.953125
8220		1.953125
8221		0.000000
8222		1.953125
8223		0.000000
8224		1.953125
8225		0.000000
8226		3.906250
8227		1.953125
8228		3.906250
8229		1.953125
8230		3.906250
8231		1.953125
8232		5.859375
8233		3.906250
8234		5.859375
8235		3.906250
8236		7.812500
8237		3.906250
8238		7.812500
8239		5.859375
8240		7.812500
8241		5.859375
8242		7.812500
8243		5.859375
8244		9.765625
8245		5.859375
8246		9.765625
8247		7.812500
8248		9.765625
8249		7.812500
8250		11.718750
8251		7.812500
8252		11.718750
8253		9.765625
8254		11.718750
8255		7.812500
8256		13.671875
8257		11.718750
8258		13.671875
8259		9.765625
8260		13.671875
8261		11.718750
8262		15.625000
8263		11.718750
8264		15.625000
8265		13.671875
8266		15.625000
8267		13.671875
8268		15.625000
8269		13.671875
8270		17.578125
8271		13.671875
8272		17.578125
8273		15.625000
8274		17.578125
8275		15.625000
8276		19.531250
8277		17.578125
8278		19.531250
8279		17.578125
8280		19.531250
8281		17.578125
8282		21.484375
8283		17.578125
8284		21.484375
8285		17.578125
8286		21.484375
8287		19.531250
8288		23.437500
8289		19.531250
8290		23.437500
8291		21.484375
8292		23.437500
8293		19.531250
8294		25.390625
8295		21.484375
8296		25.390625
8297		21.484375
8298		25.390625
8299		23.437500
8300		25.390625
8301		21.484375
8302		25.390625
8303		23.437500
8304		27.343750
8305		23.437500
8306		27.343750
8307		25.390625
8308		27.343750
8309		23.437500
8310		29.296875
8311		25.390625
8312		27.343750
8313		25.390625
8314		29.296875
8315		25.390625
8316		29.296875
8317		27.343750
8318		29.296875
8319		27.343750
8320		29.296875
8321		27.343750
8322		31.250000
8323		27.343750
8324		29.296875
8325		27.343750
8326		31.250000
8327		27.343750
8328		31.250000
8329		29.296875
8330		31.250000
8331		29.296875
8332		31.250000
8333		29.296875
8334		31.250000
8335		29.296875
8336		33.203125
8337		29.296875
8338		33.203125
8339		29.296875
8340		33.203125
8341		31.250000
8342		33.203125
8343		29.296875
8344		33.203125
8345		31.250000
8346		33.203125
8347		31.250000
8348		33.203125
8349		31.250000
8350		33.203125
8351		31.250000
8352		33.203125
8353		31.250000
8354		35.156250
8355		31.250000
8356		35.156250
8357		31.250000
8358		33.203125
8359		31.250000
8360		35.156250
8361		31.250000
8362		35.156250
8363		31.250000
8364		35.156250
8365		31.250000
8366		35.156250
8367		31.250000
8368		35.156250
8369		31.250000
8370		35.156250
8371		31.250000
8372		35.156250
8373		31.250000
8374		33.203125
8375		31.250000
8376		35.156250
8377		31.250000
8378		35.156250
8379		31.250000
8380		35.156250
8381		31.250000
8382		35.156250
8383		31.250000
8384		33.203125
8385		31.250000
8386		35.156250
8387		31.250000
8388		33.203125
8389		31.250000
8390		33.203125
8391		31.250000
8392		33.203125
8393		29.296875
8394		33.203125
8395		31.250000
8396		33.203125
8397		29.296875
8398		33.203125
8399		29.296875
8400		33.203125
8401		29.296875
8402		33.203125
8403		29.296875
8404		33.203125
8405		29.296875
8406		33.203125
8407		29.296875
8408		31.250000
8409		29.296875
8410		31.250000
8411		27.343750
8412		31.250000
8413		27.343750
8414		31.250000
8415		27.343750
8416		31.250000
8417		27.343750
8418		31.250000
8419		27.343750
8420		31.250000
8421		27.343750
8422		29.296875
8423		27.343750
8424		29.296875
8425		25.390625
8426		29.296875
8427		25.390625
8428		29.296875
8429		23.437500
8430		27.343750
8431		25.390625
8432		27.343750
8433		23.437500
8434		27.343750
8435		23.437500
8436		27.343750
8437		23.437500
8438		27.343750
8439		23.437500
8440		25.390625
8441		23.437500
8442		25.390625
8443		21.484375
8444		25.390625
8445		21.484375
8446		23.437500
8447		21.484375
8448		23.437500
8449		19.531250
8450		23.437500
8451		19.531250
8452		23.437500
8453		19.531250
8454		23.437500
8455		17.578125
8456		21.484375
8457		17.578125
8458		21.484375
8459		17.578125
8460		19.531250
8461		15.625000
8462		19.531250
8463		15.625000
8464		19.531250
8465		15.625000
8466		19.531250
8467		13.671875
8468		17.578125
8469		13.671875
8470		17.578125
8471		13.671875
8472		17.578125
8473		13.671875
8474		17.578125
8475		13.671875
8476		15.625000
8477		11.718750
8478		13.671875
8479		11.718750
8480		13.671875
8481		9.765625
8482		13.671875
8483		9.765625
8484		13.671875
8485		9.765625
8486		13.671875
8487		7.812500
8488		11.718750
8489		7.812500
8490		11.718750
8491		7.812500
8492		9.765625
8493		7.812500
8494		9.765625
8495		5.859375
8496		9.765625
8497		5.859375
8498		7.812500
8499		3.906250
8500		7.812500
8501		3.906250
8502		7.812500
8503		3.906250
8504		5.859375
8505		1.953125
8506		5.859375
8507		1.953125
8508		5.859375
8509		1.953125
8510		3.906250
8511		0.000000
8512		3.906250
8513		0.000000
8514		3.906250
8515		0.000000
8516		1.953125
8517		-1.953125
8518		1.953125
8519		-1.953125
8520		1.953125
8521		-1.953125
8522		0.000000
8523		-3.906250
8524		0.000000
8525		-1.953125
8526		0.000000
8527		-3.906250
8528		-1.953125
8529		-3.906250
8530		-1.953125
8531		-3.906250
8532		-1.953125
8533		-5.859375
8534		-1.953125
8535		-5.859375
8536		-3.906250
8537		-5.859375
8538		-3.906250
8539		-7.812500
8540		-3.906250
8541		-7.812500
8542		-5.859375
8543		-7.812500
8544		-5.859375
8545		-7.812500
8546		-5.859375
8547		-9.765625
8548		-5.859375
8549		-9.765625
8550		-5.859375
8551		-9.765625
8552		-7.812500
8553		-9.765625
8554		-7.812500
8555		-11.718750
8556		-7.812500
8557		-11.718750
8558		-7.812500
8559		-11.718750
8560		-9.765625
8561		-13.671875
8562		-9.765625
8563		-13.671875
8564		-9.765625
8565		-13.671875
8566		-9.765625
8567		-13.671875
8568		-9.765625
8569		-13.671875
8570		-9.765625
8571		-13.671875
8572		-11.718750
8573		-13.671875
8574		-11.718750
8575		-13.671875
8576		-11.718750
8577		-13.671875
8578		-11.718750
8579		-15.625000
8580		-9.765625
8581		-15.625000
8582		-11.718750
8583		-15.625000
8584		-11.718750
8585		-15.625000
8586		-13.671875
8587		-15.625000
8588		-11.718750
8589		-15.625000
8590		-13.671875
8591		-15.625000
8592		-13.671875
8593		-15.625000
8594		-13.671875
8595		-17.578125
8596		-13.671875
8597		-15.625000
8598		-13.671875
8599		-15.625000
8600		-13.671875
8601		-15.625000
8602		-13.671875
8603		-15.625000
8604		-13.671875
8605		-15.625000
8606		-13.671875
8607		-17.578125
8608		-13.671875
8609		-15.625000
8610		-13.671875
8611		-15.625000
8612		-11.718750
8613		-15.625000
8614		-11.718750
8615		-15.625000
8616		-13.671875
8617		-15.625000
8618		-11.718750
8619		-15.625000
8620		-11.718750
8621		-15.625000
8622		-11.718750
8623		-15.625000
8624		-11.718750
8625		-15.625000
8626		-13.671875
8627		-13.671875
8628		-11.718750
8629		-15.625000
8630		-11.718750
8631		-15.625000
8632		-11.718750
8633		-13.671875
8634		-11.718750
8635		-13.671875
8636		-9.765625
8637		-13.671875
8638		-11.718750
8639		-13.671875
8640		-9.765625
8641		-13.671875
8642		-9.765625
8643		-11.718750
8644		-9.765625
8645		-13.671875
8646		-9.765625
8647		-11.718750
8648		-9.765625
8649		-11.718750
8650		-7.812500
8651		-11.718750
8652		-7.812500
8653		-11.718750
8654		-7.812500
8655		-9.765625
8656		-7.812500
8657		-9.765625
8658		-7.812500
8659		-9.765625
8660		-7.812500
8661		-7.812500
8662		-5.859375
8663		-9.765625
8664		-5.859375
8665		-7.812500
8666		-5.859375
8667		-7.812500
8668		-3.906250
8669		-7.812500
8670		-3.906250
8671		-5.859375
8672		-3.906250
8673		-5.859375
8674		-1.953125
8675		-5.859375
8676		-1.953125
8677		-5.859375
8678		-1.953125
8679		-3.906250
8680		-1.953125
8681		-3.906250
8682		-1.953125
8683		-3.906250
8684		0.000000
8685		-3.906250
8686		0.000000
8687		-1.953125
8688		1.953125
8689		-1.953125
8690		1.953125
8691		-1.953125
8692		1.953125
8693		0.000000
8694		1.953125
8695		0.000000
8696		1.953125
8697		0.000000
8698		3.906250
8699		0.000000
8700		3.906250
8701		1.953125
8702		5.859375
8703		1.953125
8704		5.859375
8705		3.906250
8706		5.859375
8707		3.906250
8708		7.812500
8709		5.859375
8710		7.812500
8711		5.859375
8712		7.812500
8713		3.906250
8714		9.765625
8715		5.859375
8716		9.765625
8717		7.812500
8718		9.765625
8719		7.812500
8720		11.718750
8721		7.812500
8722		11.718750
8723		9.765625
8724		11.718750
8725		9.765625
8726		11.718750
8727		9.765625
8728		13.671875
8729		9.765625
8730		13.671875
8731		11.718750
8732		13.671875
8733		11.718750
8734		15.625000
8735		11.718750
8736		15.625000
8737		13.671875
8738		17.578125
8739		13.671875
8740		15.625000
8741		13.671875
8742		17.578125
8743		15.625000
8744		17.578125
8745		15.625000
8746		17.578125
8747		15.625000
8748		19.531250
8749		17.578125
8750		19.531250
8751		17.578125
8752		19.531250
8753		17.578125
8754		21.484375
8755		19.531250
8756		21.484375
8757		19.531250
8758		23.437500
8759		19.531250
8760		23.437500
8761		21.484375
8762		23.437500
8763		19.531250
8764		23.437500
8765		21.484375
8766		23.437500
8767		21.484375
8768		25.390625
8769		21.484375
8770		25.390625
8771		21.484375
8772		25.390625
8773		23.437500
8774		25.390625
8775		23.437500
8776		27.343750
8777		23.437500
8778		27.343750
8779		25.390625
8780		27.343750
8781		25.390625
8782		27.343750
8783		25.390625
8784		27.343750
8785		25.390625
8786		29.296875
8787		25.390625
8788		29.296875
8789		27.343750
8790		29.296875
8791		27.343750
8792		29.296875
8793		27.343750
8794		31.250000
8795		27.343750
8796		29.296875
8797		27.343750
8798		31.250000
8799		27.343750
8800		31.250000
8801		29.296875
8802		31.250000
8803		29.296875
8804		31.250000
8805		29.296875
8806		31.250000
8807		29.296875
8808		33.203125
8809		29.296875
8810		33.203125
8811		31.250000
8812		33.203125
8813		29.296875
8814		33.203125
8815		29.296875
8816		33.203125
8817		29.296875
8818		33.203125
8819		31.250000
8820		33.203125
8821		31.250000
8822		33.203125
8823		31.250000
8824		33.203125
8825		31.250000
8826		35.156250
8827		31.250000
8828		33.203125
8829		31.250000
8830		33.203125
8831		31.250000
8832		35.156250
8833		31.250000
8834		35.156250
8835		31.250000
8836		35.156250
8837		31.250000
8838		35.156250
8839		31.250000
8840		35.156250
8841		31.250000
8842		35.156250
8843		31.250000
8844		35.156250
8845		31.250000
8846		33.203125
8847		31.250000
8848		35.156250
8849		31.250000
8850		35.156250
8851		31.250000
8852		35.156250
8853		31.250000
8854		35.156250
8855		31.250000
8856		35.156250
8857		31.250000
8858		35.156250
8859		31.250000
8860		33.203125
8861		31.250000
8862		33.203125
8863		31.250000
8864		33.203125
8865		29.296875
8866		33.203125
8867		29.296875
8868		33.203125
8869		31.250000
8870		33.203125
8871		29.296875
8872		33.203125
8873		29.296875
8874		33.203125
8875		29.296875
8876		33.203125
8877		29.296875
8878		33.203125
8879		29.296875
8880		31.250000
8881		27.343750
8882		31.250000
8883		29.296875
8884		31.250000
8885		27.343750
8886		31.250000
8887		27.343750
8888		31.250000
8889		27.343750
8890		31.250000
8891		27.343750
8892		29.296875
8893		25.390625
8894		29.296875
8895		27.343750
8896		29.296875
8897		25.390625
8898		29.296875
8899		25.390625
8900		29.296875
8901		25.390625
8902		27.343750
8903		25.390625
8904		27.343750
8905		23.437500
8906		27.343750
8907		23.437500
8908		27.343750
8909		23.437500
8910		25.390625
8911		23.437500
8912		25.390625
8913		23.437500
8914		25.390625
8915		21.484375
8916		25.390625
8917		21.484375
8918		23.437500
8919		21.484375
8920		23.437500
8921		19.531250
8922		23.437500
8923		19.531250
8924		23.437500
8925		19.531250
8926		21.484375
8927		19.531250
8928		21.484375
8929		17.578125
8930		19.531250
8931		17.578125
8932		21.484375
8933		17.578125
8934		19.531250
8935		15.625000
8936		19.531250
8937		15.625000
8938		19.531250
8939		15.625000
8940		17.578125
8941		15.625000
8942		17.578125
8943		13.671875
8944		17.578125
8945		13.671875
8946		15.625000
8947		13.671875
8948		15.625000
8949		11.718750
8950		15.625000
8951		11.718750
8952		15.625000
8953		9.765625
8954		13.671875
8955		9.765625
8956		13.671875
8957		9.765625
8958		13.671875
8959		9.765625
8960		11.718750
8961		7.812500
8962		11.718750
8963		7.812500
8964		9.765625
8965		7.812500
8966		9.765625
8967		5.859375
8968		9.765625
8969		5.859375
8970		7.812500
8971		3.906250
8972		7.812500
8973		3.906250
8974		7.812500
8975		3.906250
8976		7.812500
8977		1.953125
8978		5.859375
8979		1.953125
8980		3.906250
8981		0.000000
8982		3.906250
8983		0.000000
8984		3.906250
8985		0.000000
8986		3.906250
8987		0.000000
8988		1.953125
8989		-1.953125
8990		1.953125
8991		-1.953125
8992		1.953125
8993		-1.953125
8994		1.953125
8995		-1.953125
8996		0.000000
8997		-3.906250
8998		0.000000
8999		-3.906250
9000		0.000000
9001		-3.906250
9002		-1.953125
9003		-5.859375
9004		-1.953125
9005		-5.859375
9006		-1.953125
9007		-5.859375
9008		-3.906250
9009		-7.812500
9010		-3.906250
9011		-7.812500
9012		-3.906250
9013		-7.812500
9014		-5.859375
9015		-7.812500
9016		-5.859375
9017		-7.812500
9018		-5.859375
9019		-9.765625
9020		-5.859375
9021		-9.765625
9022		-5.859375
9023		-9.765625
9024		-7.812500
9025		-11.718750
9026		-7.812500
9027		-11.718750
9028		-7.812500
9029		-11.718750
9030		-7.812500
9031		-11.718750
9032		-9.765625
9033		-11.718750
9034		-7.812500
9035		-11.718750
9036		-9.765625
9037		-11.718750
9038		-9.765625
9039		-13.671875
9040		-9.765625
9041		-13.671875
9042		-9.765625
9043		-13.671875
9044		-11.718750
9045		-13.671875
9046		-9.765625
9047		-13.671875
9048		-11.718750
9049		-15.625000
9050		-11.718750
9051		-15.625000
9052		-11.718750
9053		-15.625000
9054		-11.718750
9055		-15.625000
9056		-11.718750
9057		-15.625000
9058		-11.718750
9059		-15.625000
9060		-11.718750
9061		-15.625000
9062		-11.718750
9063		-15.625000
9064		-13.671875
9065		-15.625000
9066		-11.718750
9067		-15.625000
9068		-13.671875
9069		-15.625000
9070		-13.671875
9071		-15.625000
9072		-13.671875
9073		-15.625000
9074		-13.671875
9075		-15.625000
9076		-13.671875
9077		-15.625000
9078		-13.671875
9079		-15.625000
9080		-13.671875
9081		-15.625000
9082		-13.671875
9083		-15.625000
9084		-11.718750
9085		-15.625000
9086		-13.671875
9087		-15.625000
9088		-13.671875
9089		-15.625000
9090		-13.671875
9091		-15.625000
9092		-13.671875
9093		-15.625000
9094		-11.718750
9095		-15.625000
9096		-11.718750
9097		-15.625000
9098		-13.671875
9099		-15.625000
9100		-11.718750
9101		-15.625000
9102		-11.718750
9103		-13.671875
9104		-11.718750
9105		-13.671875
9106		-11.718750
9107		-13.671875
9108		-11.718750
9109		-13.671875
9110		-11.718750
9111		-13.671875
9112		-9.765625
9113		-13.671875
9114		-9.765625
9115		-13.671875
9116		-9.765625
9117		-13.671875
9118		-9.765625
9119		-11.718750
9120		-9.765625
9121		-11.718750
9122		-9.765625
9123		-11.718750
9124		-7.812500
9125		-9.765625
9126		-7.812500
9127		-11.718750
9128		-7.812500
9129		-9.765625
9130		-7.812500
9131		-9.765625
9132		-7.812500
9133		-9.765625
9134		-5.859375
9135		-9.765625
9136		-5.859375
9137		-7.812500
9138		-5.859375
9139		-7.812500
9140		-5.859375
9141		-7.812500
9142		-3.906250
9143		-5.859375
9144		-3.906250
9145		-7.812500
9146		-3.906250
9147		-5.859375
9148		-1.953125
9149		-5.859375
9150		-1.953125
9151		-5.859375
9152		-1.953125
9153		-3.906250
9154		0.000000
9155		-3.906250
9156		0.000000
9157		-1.953125
9158		0.000000
9159		-1.953125
9160		1.953125
9161		-1.953125
9162		1.953125
9163		0.000000
9164		1.953125
9165		0.000000
9166		1.953125
9167		0.000000
9168		3.906250
9169		0.000000
9170		3.906250
9171		1.953125
9172		3.906250
9173		1.953125
9174		5.859375
9175		1.953125
9176		5.859375
9177		1.953125
9178		5.859375
9179		3.906250
9180		7.812500
9181		5.859375
9182		7.812500
9183		3.906250
9184		9.765625
9185		5.859375
9186		7.812500
9187		5.859375
9188		9.765625
9189		7.812500
9190		9.765625
9191		7.812500
9192		11.718750
9193		7.812500
9194		11.718750
9195		7.812500
9196		13.671875
9197		9.765625
9198		11.718750
9199		9.765625
9200		13.671875
9201		9.765625
9202		13.671875
9203		11.718750
9204		13.671875
9205		11.718750
9206		15.625000
9207		11.718750
9208		15.625000
9209		13.671875
9210		15.625000
9211		13.671875
9212		17.578125
9213		13.671875
9214		17.578125
9215		15.625000
9216		17.578125
9217		15.625000
9218		19.531250
9219		15.625000
9220		19.531250
9221		15.625000
9222		19.531250
9223		17.578125
9224		19.531250
9225		17.578125
9226		21.484375
9227		17.578125
9228		21.484375
9229		19.531250
9230		21.484375
9231		19.531250
9232		21.484375
9233		21.484375
9234		23.437500
9235		21.484375
9236		25.390625
9237		21.484375
9238		25.390625
9239		21.484375
9240		23.437500
9241		21.484375
9242		25.390625
9243		23.437500
9244		25.390625
9245		21.484375
9246		27.343750
9247		23.437500
9248		25.390625
9249		25.390625
9250		27.343750
9251		23.437500
9252		27.343750
9253		25.390625
9254		27.343750
9255		25.390625
9256		29.296875
9257		25.390625
9258		29.296875
9259		25.390625
9260		29.296875
9261		27.343750
9262		29.296875
9263		25.390625
9264		31.250000
9265		27.343750
9266		29.296875
9267		27.343750
9268		31.250000
9269		27.343750
9270		31.250000
9271		27.343750
9272		31.250000
9273		29.296875
9274		31.250000
9275		29.296875
9276		31.250000
9277		29.296875
9278		33.203125
9279		29.296875
9280		33.203125
9281		29.296875
9282		33.203125
9283		31.250000
9284		33.203125
9285		29.296875
9286		33.203125
9287		31.250000
9288		33.203125
9289		31.250000
9290		33.203125
9291		29.296875
9292		33.203125
9293		31.250000
9294		33.203125
9295		31.250000
9296		35.156250
9297		31.250000
9298		35.156250
9299		31.250000
9300		33.203125
9301		31.250000
9302		35.156250
9303		31.250000
9304		35.156250
9305		31.250000
9306		35.156250
9307		31.250000
9308		35.156250
9309		31.250000
9310		35.156250
9311		31.250000
9312		35.156250
9313		31.250000
9314		35.156250
9315		31.250000
9316		33.203125
9317		31.250000
9318		33.203125
9319		31.250000
9320		35.156250
9321		31.250000
9322		35.156250
9323		31.250000
9324		35.156250
9325		31.250000
9326		35.156250
9327		31.250000
9328		33.203125
9329		31.250000
9330		35.156250
9331		31.250000
9332		33.203125
9333		31.250000
9334		33.203125
9335		29.296875
9336		33.203125
9337		29.296875
9338		33.203125
9339		29.296875
9340		33.203125
9341		29.296875
9342		33.203125
9343		29.296875
9344		33.203125
9345		29.296875
9346		33.203125
9347		29.296875
9348		33.203125
9349		29.296875
9350		31.250000
9351		27.343750
9352		31.250000
9353		29.296875
9354		31.250000
9355		27.343750
9356		31.250000
9357		27.343750
9358		31.250000
9359		27.343750
9360		31.250000
9361		27.343750
9362		29.296875
9363		25.390625
9364		29.296875
9365		27.343750
9366		29.296875
9367		27.343750
9368		29.296875
9369		25.390625
9370		29.296875
9371		25.390625
9372		27.343750
9373		25.390625
9374		27.343750
9375		23.437500
9376		27.343750
9377		23.437500
9378		27.343750
9379		23.437500
9380		25.390625
9381		21.484375
9382		25.390625
9383		23.437500
9384		25.390625
9385		21.484375
9386		23.437500
9387		21.484375
9388		25.390625
9389		21.484375
9390		23.437500
9391		21.484375
9392		23.437500
9393		19.531250
9394		23.437500
9395		19.531250
9396		21.484375
9397		17.578125
9398		21.484375
9399		17.578125
9400		21.484375
9401		17.578125
9402		19.531250
9403		15.625000
9404		21.484375
9405		15.625000
9406		19.531250
9407		15.625000
9408		19.531250
9409		15.625000
9410		17.578125
9411		13.671875
9412		17.578125
9413		13.671875
9414		17.578125
9415		13.671875
9416		15.625000
9417		13.671875
9418		15.625000
9419		11.718750
9420		15.625000
9421		11.718750
9422		13.671875
9423		9.765625
9424		13.671875
9425		9.765625
9426		13.671875
9427		9.765625
9428		11.718750
9429		7.812500
9430		11.718750
9431		7.812500
9432		11.718750
9433		7.812500
9434		9.765625
9435		5.859375
9436		9.765625
9437		5.859375
9438		9.765625
9439		5.859375
9440		7.812500
9441		5.859375
9442		7.812500
9443		3.906250
9444		7.812500
9445		3.906250
9446		7.812500
9447		1.953125
9448		5.859375
9449		1.953125
9450		3.906250
9451		1.953125
9452		3.906250
9453		0.000000
9454		3.906250
9455		0.000000
9456		3.906250
9457		0.000000
9458		1.953125
9459		-1.953125
9460		1.953125
9461		-1.953125
9462		1.953125
9463		-1.953125
9464		1.953125
9465		-1.953125
9466		0.000000
9467		-3.906250
9468		0.000000
9469		-3.906250
9470		0.000000
9471		-3.906250
9472		-1.953125
9473		-5.859375
9474		-1.953125
9475		-5.859375
9476		-1.953125
9477		-5.859375
9478		-3.906250
9479		-7.812500
9480		-3.906250
9481		-7.812500
9482		-3.906250
9483		-7.812500
9484		-5.859375
9485		-7.812500
9486		-5.859375
9487		-9.765625
9488		-5.859375
9489		-9.765625
9490		-5.859375
9491		-9.765625
9492		-7.812500
9493		-9.765625
9494		-7.812500
9495		-9.765625
9496		-7.812500
9497		-11.718750
9498		-7.812500
9499		-11.718750
9500		-7.812500
9501		-11.718750
9502		-9.765625
9503		-13.671875
9504		-9.765625
9505		-11.718750
9506		-9.765625
9507		-13.671875
9508		-9.765625
9509		-13.671875
9510		-9.765625
9511		-13.671875
9512		-9.765625
9513		-13.671875
9514		-11.718750
9515		-15.625000
9516		-11.718750
9517		-13.671875
9518		-11.718750
9519		-13.671875
9520		-11.718750
9521		-15.625000
9522		-11.718750
9523		-15.625000
9524		-11.718750
9525		-15.625000
9526		-11.718750
9527		-15.625000
9528		-11.718750
9529		-15.625000
9530		-13.671875
9531		-17.578125
9532		-13.671875
9533		-15.625000
9534		-13.671875
9535		-15.625000
9536		-13.671875
9537		-17.578125
9538		-13.671875
9539		-15.625000
9540		-13.671875
9541		-17.578125
9542		-13.671875
9543		-15.625000
9544		-13.671875
9545		-15.625000
9546		-13.671875
9547		-17.578125
9548		-13.671875
9549		-17.578125
9550		-11.718750
9551		-15.625000
9552		-13.671875
9553		-17.578125
9554		-13.671875
9555		-15.625000
9556		-13.671875
9557		-17.578125
9558		-13.671875
9559		-17.578125
9560		-13.671875
9561		-15.625000
9562		-13.671875
9563		-15.625000
9564		-13.671875
9565		-17.578125
9566		-11.718750
9567		-15.625000
9568		-13.671875
9569		-15.625000
9570		-13.671875
9571		-15.625000
9572		-11.718750
9573		-15.625000
9574		-11.718750
9575		-15.625000
9576		-11.718750
9577		-13.671875
9578		-11.718750
9579		-13.671875
9580		-11.718750
9581		-13.671875
9582		-9.765625
9583		-13.671875
9584		-9.765625
9585		-13.671875
9586		-11.718750
9587		-13.671875
9588		-9.765625
9589		-11.718750
9590		-9.765625
9591		-11.718750
9592		-9.765625
9593		-11.718750
9594		-7.812500
9595		-11.718750
9596		-7.812500
9597		-11.718750
9598		-7.812500
9599		-11.718750
9600		-7.812500
9601		-9.765625
9602		-7.812500
9603		-9.765625
9604		-5.859375
9605		-9.765625
9606		-5.859375
9607		-7.812500
9608		-5.859375
9609		-7.812500
9610		-5.859375
9611		-7.812500
9612		-3.906250
9613		-7.812500
9614		-3.906250
9615		-5.859375
9616		-3.906250
9617		-5.859375
9618		-3.906250
9619		-5.859375
9620		-3.906250
9621		-5.859375
9622		-1.953125
9623		-3.906250
9624		-1.953125
9625		-3.906250
9626		-1.953125
9627		-3.906250
9628		0.000000
9629		-1.953125
9630		0.000000
9631		-1.953125
9632		0.000000
9633		-1.953125
9634		1.953125
9635		0.000000
9636		1.953125
9637		-1.953125
9638		3.906250
9639		0.000000
9640		3.906250
9641		0.000000
9642		3.906250
9643		1.953125
9644		3.906250
9645		1.953125
9646		5.859375
9647		1.953125
9648		5.859375
9649		1.953125
9650		5.859375
9651		3.906250
9652		5.859375
9653		3.906250
9654		7.812500
9655		5.859375
9656		7.812500
9657		5.859375
9658		7.812500
9659		5.859375
9660		9.765625
9661		7.812500
9662		9.765625
9663		7.812500
9664		11.718750
9665		7.812500
9666		11.718750
9667		7.812500
9668		11.718750
9669		9.765625
9670		11.718750
9671		9.765625
9672		13.671875
9673		11.718750
9674		13.671875
9675		11.718750
9676		13.671875
9677		11.718750
9678		15.625000
9679		11.718750
9680		15.625000
9681		13.671875
9682		15.625000
9683		13.671875
9684		17.578125
9685		15.625000
9686		17.578125
9687		15.625000
9688		19.531250
9689		15.625000
9690		19.531250
9691		15.625000
9692		19.531250
9693		17.578125
9694		19.531250
9695		17.578125
9696		21.484375
9697		17.578125
9698		21.484375
9699		17.578125
9700		21.484375
9701		19.531250
9702		21.484375
9703		19.531250
9704		21.484375
9705		19.531250
9706		23.437500
9707		21.484375
9708		23.437500
9709		21.484375
9710		23.437500
9711		21.484375
9712		25.390625
9713		21.484375
9714		25.390625
9715		21.484375
9716		25.390625
9717		21.484375
9718		27.343750
9719		23.437500
9720		25.390625
9721		23.437500
9722		27.343750
9723		23.437500
9724		27.343750
9725		25.390625
9726		27.343750
9727		25.390625
9728		27.343750
9729		25.390625
9730		29.296875
9731		25.390625
9732		29.296875
9733		25.390625
9734		29.296875
9735		27.343750
9736		29.296875
9737		27.343750
9738		29.296875
9739		27.343750
9740		31.250000
9741		27.343750
9742		31.250000
9743		27.343750
9744		31.250000
9745		29.296875
9746		31.250000
9747		29.296875
9748		31.250000
9749		29.296875
9750		33.203125
9751		29.296875
9752		31.250000
9753		29.296875
9754		31.250000
9755		29.296875
9756		33.203125
9757		29.296875
9758		33.203125
9759		31.250000
9760		33.203125
9761		31.250000
9762		33.203125
9763		31.250000
9764		33.203125
9765		31.250000
9766		33.203125
9767		31.250000
9768		33.203125
9769		31.250000
9770		33.203125
9771		29.296875
9772		35.156250
9773		31.250000
9774		35.156250
9775		31.250000
9776		33.203125
9777		31.250000
9778		35.156250
9779		31.250000
9780		33.203125
9781		31.250000
9782		35.156250
9783		31.250000
9784		35.156250
9785		31.250000
9786		33.203125
9787		31.250000
9788		33.203125
9789		31.250000
9790		35.156250
9791		31.250000
9792		33.203125
9793		31.250000
9794		33.203125
9795		31.250000
9796		35.156250
9797		31.250000
9798		33.203125
9799		31.250000
9800		33.203125
9801		29.296875
9802		33.203125
9803		31.250000
9804		33.203125
9805		29.296875
9806		33.203125
9807		29.296875
9808		33.203125
9809		29.296875
9810		33.203125
9811		29.296875
9812		33.203125
9813		29.296875
9814		33.203125
9815		29.296875
9816		33.203125
9817		29.296875
9818		33.203125
9819		29.296875
9820		31.250000
9821		29.296875
9822		31.250000
9823		27.343750
9824		31.250000
9825		27.343750
9826		31.250000
9827		27.343750
9828		31.250000
9829		27.343750
9830		29.296875
9831		27.343750
9832		29.296875
9833		27.343750
9834		29.296875
9835		25.390625
9836		29.296875
9837		25.390625
9838		29.296875
9839		25.390625
9840		29.296875
9841		25.390625
9842		27.343750
9843		23.437500
9844		27.343750
9845		23.437500
9846		27.343750
9847		23.437500
9848		27.343750
9849		23.437500
9850		27.343750
9851		21.484375
9852		25.390625
9853		23.437500
9854		25.390625
9855		21.484375
9856		25.390625
9857		21.484375
9858		25.390625
9859		21.484375
9860		25.390625
9861		19.531250
9862		23.437500
9863		19.531250
9864		23.437500
9865		19.531250
9866		21.484375
9867		17.578125
9868		21.484375
9869		17.578125
9870		21.484375
9871		17.578125
9872		19.531250
9873		17.578125
9874		19.531250
9875		15.625000
9876		19.531250
9877		15.625000
9878		19.531250
9879		15.625000
9880		19.531250
9881		15.625000
9882		17.578125
9883		13.671875
9884		17.578125
9885		13.671875
9886		17.578125
9887		13.671875
9888		15.625000
9889		11.718750
9890		15.625000
9891		11.718750
9892		15.625000
9893		11.718750
9894		13.671875
9895		9.765625
9896		13.671875
9897		9.765625
9898		13.671875
9899		7.812500
9900		11.718750
9901		7.812500
9902		11.718750
9903		7.812500
9904		9.765625
9905		7.812500
9906		9.765625
9907		5.859375
9908		9.765625
9909		5.859375
9910		7.812500
9911		3.906250
9912		7.812500
9913		3.906250
9914		7.812500
9915		3.906250
9916		7.812500
9917		1.953125
9918		5.859375
9919		1.953125
9920		5.859375
9921		1.953125
9922		3.906250
9923		0.000000
9924		5.859375
9925		0.000000
9926		3.906250
9927		0.000000
9928		3.906250
9929		0.000000
9930		1.953125
9931		-1.953125
9932		1.953125
9933		-1.953125
9934		0.000000
9935		-3.906250
9936		1.953125
9937		-1.953125
9938		0.000000
9939		-3.906250
9940		0.000000
9941		-3.906250
9942		-1.953125
9943		-3.906250
9944		-1.953125
9945		-5.859375
9946		-1.953125
9947		-5.859375
9948		-3.906250
9949		-7.812500
9950		-3.906250
9951		-7.812500
9952		-3.906250
9953		-7.812500
9954		-5.859375
9955		-7.812500
9956		-5.859375
9957		-9.765625
9958		-5.859375
9959		-9.765625
9960		-5.859375
9961		-9.765625
9962		-5.859375
9963		-9.765625
9964		-7.812500
9965		-9.765625
9966		-7.812500
9967		-11.718750
9968		-7.812500
9969		-11.718750
9970		-7.812500
9971		-11.718750
9972		-9.765625
9973		-13.671875
9974		-9.765625
9975		-11.718750
9976		-9.765625
9977		-13.671875
9978		-9.765625
9979		-13.671875
9980		-9.765625
9981		-13.671875
9982		-9.765625
9983		-13.671875
9984		-11.718750
9985		-13.671875
9986		-11.718750
9987		-13.671875
9988		-11.718750
9989		-13.671875
9990		-11.718750
9991		-15.625000
9992		-11.718750
9993		-15.625000
9994		-11.718750
9995		-15.625000
9996		-11.718750
9997		-15.625000
9998		-13.671875
9999		-15.625000
10000		-13.671875
